Sample Index, EXG Channel 0, EXG Channel 1, EXG Channel 2, EXG Channel 3, EXG Channel 4, EXG Channel 5, EXG Channel 6, EXG Channel 7, Accel Channel 0, Accel Channel 1, Accel Channel 2, Other, Other.1, Other.2, Other.3, Other.4, Other.5, Other.6, Analog Channel 0, Analog Channel 1, Analog Channel 2, Timestamp, Other.7, Timestamp (Formatted)
0,-72765.90291,-40329.54309,-18661.60556,-17567.80059,-22021.27391,-35323.71346,-39270.71861,-61297.78162,-0.014,0.844,0.488,192,255,144,26,96,15,64,0,0,0,1709547424,0, 2024-03-04 15:47:03.782
1,-72778.17402,-40334.75105,-18577.40653,-17580.25051,-21994.56358,-35338.06328,-39217.27559,-61308.53281,-0.014,0.844,0.488,192,0,0,0,0,0,0,0,0,0,1709547424,0, 2024-03-04 15:47:03.782
2,-72744.71345,-40300.91051,-18596.76315,-17551.39441,-22000.10681,-35314.5716,-39261.93437,-61319.64163,-0.014,0.844,0.488,192,0,0,0,0,0,0,0,0,0,1709547424,0, 2024-03-04 15:47:03.782
3,-72706.40256,-40276.77062,-18683.82319,-17518.58205,-22023.59849,-35283.50267,-39335.58337,-61310.32095,-0.014,0.844,0.488,192,0,0,0,0,0,0,0,0,0,1709547424,0, 2024-03-04 15:47:03.782
4,-72716.05852,-40295.16611,-18710.51117,-17528.12624,-22028.0912,-35287.79421,-39329.5484,-61307.61639,-0.014,0.844,0.488,192,0,0,0,0,0,0,0,0,0,1709547424,0, 2024-03-04 15:47:03.782
5,-72765.41117,-40336.91917,-18638.87383,-17570.01341,-22004.97949,-35321.47829,-39250.04324,-61298.04984,-0.014,0.844,0.488,192,0,0,0,0,0,0,0,0,0,1709547424,0, 2024-03-04 15:47:03.782
6,-72787.20412,-40347.15627,-18561.22387,-17591.13581,-21988.50626,-35340.54432,-39192.42045,-61303.52602,-0.014,0.844,0.488,192,0,0,0,0,0,0,0,0,0,1709547424,0, 2024-03-04 15:47:03.782
7,-72745.3393,-40306.99018,-18578.81469,-17556.60237,-21994.98826,-35310.03419,-39255.38531,-61307.12465,-0.014,0.844,0.488,192,0,0,0,0,0,0,0,0,0,1709547424,0, 2024-03-04 15:47:03.782
8,-72697.01483,-40269.70747,-18664.86891,-17509.10491,-22014.30017,-35263.9449,-39344.9711,-61289.91381,-0.014,0.844,0.488,192,0,0,0,0,0,0,0,0,0,1709547424,0, 2024-03-04 15:47:03.782
9,-72712.54929,-40288.54999,-18697.94949,-17514.37992,-22020.13397,-35265.3307,-39328.9896,-61279.74376,-0.014,0.844,0.488,192,0,0,0,0,0,0,0,0,0,1709547424,0, 2024-03-04 15:47:03.782
10,-72759.30914,-40322.97168,-18627.5862,-17545.73942,-21996.50818,-35288.59887,-39245.50584,-61252.31817,-0.014,0.842,0.488,192,255,144,26,80,15,64,0,0,0,1709547424,0, 2024-03-04 15:47:03.782
11,-72768.16043,-40325.27391,-18548.52808,-17554.18838,-21974.80464,-35296.06435,-39203.84219,-61239.77885,-0.014,0.842,0.488,192,0,0,0,0,0,0,0,0,0,1709547424,0, 2024-03-04 15:47:03.782
12,-72738.61143,-40300.84345,-18573.115,-17529.89203,-21985.08644,-35275.50075,-39258.51455,-61249.3901,-0.014,0.842,0.488,192,0,0,0,0,0,0,0,0,0,1709547424,0, 2024-03-04 15:47:03.782
13,-72699.58528,-40271.16034,-18663.99719,-17493.32458,-22009.29338,-35242.10724,-39329.61545,-61251.17823,-0.014,0.842,0.488,192,0,0,0,0,0,0,0,0,0,1709547424,0, 2024-03-04 15:47:03.782
14,-72714.02451,-40286.96302,-18702.33043,-17498.19726,-22019.97751,-35241.66021,-39328.11789,-61238.05776,-0.014,0.842,0.488,192,0,0,0,0,0,0,0,0,0,1709547424,0, 2024-03-04 15:47:03.782
15,-72752.84949,-40316.42262,-18623.54054,-17522.35949,-21990.9873,-35258.11109,-39245.37173,-61211.86152,-0.014,0.842,0.488,192,0,0,0,0,0,0,0,0,0,1709547424,0, 2024-03-04 15:47:03.782
16,-72758.61624,-40315.97558,-18531.96544,-17531.30019,-21968.32263,-35267.7894,-39196.3767,-61214.70019,-0.014,0.842,0.488,192,0,0,0,0,0,0,0,0,0,1709547424,0, 2024-03-04 15:47:03.782
17,-72726.0721,-40284.25846,-18555.09949,-17508.21084,-21979.18558,-35250.66796,-39257.01699,-61239.33181,-0.014,0.842,0.488,192,0,0,0,0,0,0,0,0,0,1709547424,0, 2024-03-04 15:47:03.782
18,-72693.93029,-40259.93976,-18650.58615,-17483.42275,-22008.22049,-35228.38327,-39341.19366,-61251.17823,-0.014,0.842,0.488,192,0,0,0,0,0,0,0,0,0,1709547424,0, 2024-03-04 15:47:03.782
19,-72705.01676,-40277.19531,-18682.57149,-17496.72204,-22013.42845,-35238.66507,-39328.54257,-61252.18406,-0.014,0.842,0.488,192,0,0,0,0,0,0,0,0,0,1709547424,0, 2024-03-04 15:47:03.782
20,-72744.51229,-40309.29241,-18608.54251,-17531.65782,-21985.93581,-35266.31418,-39225.94806,-61238.03541,-0.012,0.848,0.486,192,255,160,26,128,15,48,0,0,0,1709547424,0, 2024-03-04 15:47:03.782
21,-72758.99622,-40313.98628,-18527.11511,-17548.17576,-21969.95431,-35281.93805,-39209.8101,-61234.41443,-0.012,0.848,0.486,192,0,0,0,0,0,0,0,0,0,1709547424,0, 2024-03-04 15:47:03.782
22,-72727.52496,-40285.57721,-18556.70882,-17531.34489,-21987.56748,-35273.86907,-39270.42803,-61273.17235,-0.012,0.848,0.486,192,0,0,0,0,0,0,0,0,0,1709547424,0, 2024-03-04 15:47:03.782
23,-72692.38802,-40263.94072,-18648.64154,-17505.86391,-22008.42166,-35253.41722,-39339.69609,-61290.74082,-0.012,0.848,0.486,192,0,0,0,0,0,0,0,0,0,1709547424,0, 2024-03-04 15:47:03.782
24,-72704.83794,-40280.50337,-18673.83196,-17512.05534,-22006.99115,-35256.16649,-39321.32296,-61273.28411,-0.012,0.848,0.486,192,0,0,0,0,0,0,0,0,0,1709547424,0, 2024-03-04 15:47:03.782
25,-72748.42384,-40315.32738,-18604.69801,-17544.39831,-21983.14184,-35284.39674,-39247.36103,-61263.65051,-0.012,0.848,0.486,192,0,0,0,0,0,0,0,0,0,1709547424,0, 2024-03-04 15:47:03.782
26,-72766.52876,-40323.48577,-18522.08597,-17558.43521,-21964.81341,-35299.81945,-39206.59145,-61260.29775,-0.012,0.848,0.486,192,0,0,0,0,0,0,0,0,0,1709547424,0, 2024-03-04 15:47:03.782
27,-72735.72805,-40298.04949,-18547.96929,-17537.37987,-21974.13408,-35287.23541,-39256.77112,-61280.77194,-0.012,0.848,0.486,192,0,0,0,0,0,0,0,0,0,1709547424,0, 2024-03-04 15:47:03.782
28,-72694.69025,-40271.74148,-18634.93993,-17503.2264,-21987.41102,-35257.66406,-39327.87202,-61279.56495,-0.012,0.848,0.486,192,0,0,0,0,0,0,0,0,0,1709547424,0, 2024-03-04 15:47:03.782
29,-72712.81752,-40295.81431,-18671.88736,-17518.6491,-21995.65881,-35267.07414,-39322.28408,-61268.6126,-0.012,0.848,0.486,192,0,0,0,0,0,0,0,0,0,1709547424,0, 2024-03-04 15:47:03.782
30,-72757.67747,-40333.74522,-18594.01388,-17553.65194,-21967.8756,-35292.10809,-39233.27943,-61241.45523,-0.012,0.848,0.49,192,255,160,26,128,15,80,0,0,0,1709547424,0, 2024-03-04 15:47:03.782
31,-72772.94371,-40341.83655,-18522.08597,-17570.88513,-21953.81635,-35307.12847,-39190.74407,-61249.18893,-0.012,0.848,0.49,192,0,0,0,0,0,0,0,0,0,1709547424,0, 2024-03-04 15:47:03.782
32,-72742.21006,-40314.14274,-18551.32205,-17549.44981,-21964.65694,-35288.08478,-39246.39991,-61270.08781,-0.012,0.848,0.49,192,0,0,0,0,0,0,0,0,0,1709547424,0, 2024-03-04 15:47:03.782
33,-72708.81655,-40291.8357,-18639.49968,-17518.71616,-21986.31579,-35256.79234,-39323.02169,-61264.2093,-0.012,0.848,0.49,192,0,0,0,0,0,0,0,0,0,1709547424,0, 2024-03-04 15:47:03.782
34,-72724.01574,-40308.62186,-18669.98746,-17522.4936,-21992.73074,-35251.8526,-39292.77978,-61233.16273,-0.012,0.848,0.49,192,0,0,0,0,0,0,0,0,0,1709547424,0, 2024-03-04 15:47:03.782
35,-72764.02536,-40340.18252,-18602.70871,-17553.8084,-21975.38578,-35273.31028,-39223.71289,-61210.3416,-0.012,0.848,0.49,192,0,0,0,0,0,0,0,0,0,1709547424,0, 2024-03-04 15:47:03.782
36,-72775.96119,-40341.34481,-18514.1958,-17562.03384,-21947.87078,-35280.86517,-39197.15902,-61198.69634,-0.012,0.848,0.49,192,0,0,0,0,0,0,0,0,0,1709547424,0, 2024-03-04 15:47:03.782
37,-72742.07595,-40307.99601,-18540.19088,-17536.15052,-21959.69486,-35261.32974,-39239.69439,-61223.75264,-0.012,0.848,0.49,192,0,0,0,0,0,0,0,0,0,1709547424,0, 2024-03-04 15:47:03.782
38,-72710.47058,-40285.04077,-18642.02543,-17509.90957,-21994.80945,-35239.76031,-39324.80983,-61254.03926,-0.012,0.848,0.49,192,0,0,0,0,0,0,0,0,0,1709547424,0, 2024-03-04 15:47:03.782
39,-72714.38214,-40292.5286,-18663.32664,-17505.59568,-21991.32258,-35230.6408,-39318.17136,-61232.1122,-0.012,0.848,0.49,192,0,0,0,0,0,0,0,0,0,1709547424,0, 2024-03-04 15:47:03.782
40,-72757.16338,-40324.31279,-18595.28793,-17532.52954,-21971.18365,-35247.73988,-39242.53306,-61194.42716,-0.008,0.838,0.488,192,255,192,26,48,15,64,0,0,0,1709547424,0, 2024-03-04 15:47:03.782
41,-72768.56277,-40329.00665,-18523.04709,-17549.60627,-21959.51604,-35263.69903,-39202.99282,-61213.49319,-0.008,0.838,0.488,192,0,0,0,0,0,0,0,0,0,1709547424,0, 2024-03-04 15:47:03.782
42,-72731.8165,-40295.43433,-18551.97025,-17527.29923,-21976.83865,-35245.95174,-39278.07233,-61241.81285,-0.008,0.838,0.488,192,0,0,0,0,0,0,0,0,0,1709547424,0, 2024-03-04 15:47:03.782
43,-72695.69608,-40272.83672,-18648.1051,-17499.87364,-22007.25937,-35218.88378,-39365.53471,-61234.50383,-0.008,0.838,0.488,192,0,0,0,0,0,0,0,0,0,1709547424,0, 2024-03-04 15:47:03.782
44,-72713.73394,-40294.09323,-18682.10211,-17512.94941,-22011.5062,-35230.01495,-39361.22082,-61237.61073,-0.008,0.838,0.488,192,0,0,0,0,0,0,0,0,0,1709547424,0, 2024-03-04 15:47:03.782
45,-72757.4763,-40329.72191,-18606.4191,-17548.08635,-21985.64523,-35264.48134,-39281.13452,-61237.11899,-0.008,0.838,0.488,192,0,0,0,0,0,0,0,0,0,1709547424,0, 2024-03-04 15:47:03.782
46,-72771.17792,-40334.19226,-18522.71182,-17561.85503,-21963.18173,-35282.47449,-39230.35136,-61237.00723,-0.008,0.838,0.488,192,0,0,0,0,0,0,0,0,0,1709547424,0, 2024-03-04 15:47:03.782
47,-72737.24797,-40302.96687,-18545.77882,-17537.80455,-21973.08355,-35269.68929,-39276.28419,-61263.5611,-0.008,0.838,0.488,192,0,0,0,0,0,0,0,0,0,1709547424,0, 2024-03-04 15:47:03.782
48,-72699.98761,-40279.40813,-18640.05847,-17509.82016,-22000.97853,-35250.69031,-39349.35204,-61280.74959,-0.008,0.838,0.488,192,0,0,0,0,0,0,0,0,0,1709547424,0, 2024-03-04 15:47:03.782
49,-72709.97884,-40297.11071,-18668.78047,-17519.40906,-22002.20788,-35262.60379,-39340.38899,-61291.92547,-0.008,0.838,0.488,192,0,0,0,0,0,0,0,0,0,1709547424,0, 2024-03-04 15:47:03.782
50,-72762.01371,-40340.89778,-18604.04981,-17559.68691,-21982.56069,-35300.19943,-39242.66717,-61282.04599,-0.01,0.834,0.486,192,255,176,26,16,15,48,0,0,0,1709547424,0, 2024-03-04 15:47:03.782
51,-72777.79404,-40347.78212,-18525.90812,-17574.30495,-21961.39359,-35317.8573,-39216.24741,-61283.65532,-0.01,0.834,0.486,192,0,0,0,0,0,0,0,0,0,1709547424,0, 2024-03-04 15:47:03.782
52,-72745.16049,-40321.40706,-18548.93041,-17553.54018,-21974.29055,-35304.02157,-39284.01789,-61301.98375,-0.01,0.834,0.486,192,0,0,0,0,0,0,0,0,0,1709547424,0, 2024-03-04 15:47:03.782
53,-72704.41326,-40292.75212,-18638.24798,-17519.74434,-21990.40615,-35273.10911,-39337.57267,-61306.4988,-0.01,0.834,0.486,192,0,0,0,0,0,0,0,0,0,1709547424,0, 2024-03-04 15:47:03.782
54,-72720.59592,-40313.33808,-18675.75421,-17531.63547,-21999.88329,-35279.99345,-39330.10719,-61297.80397,-0.01,0.834,0.486,192,0,0,0,0,0,0,0,0,0,1709547424,0, 2024-03-04 15:47:03.782
55,-72763.57833,-40351.47015,-18596.60668,-17566.79476,-21968.45674,-35309.11777,-39243.1142,-61289.75735,-0.01,0.834,0.486,192,0,0,0,0,0,0,0,0,0,1709547424,0, 2024-03-04 15:47:03.782
56,-72777.63757,-40358.06392,-18511.6477,-17580.85401,-21944.65213,-35323.62405,-39195.21441,-61296.28406,-0.01,0.834,0.486,192,0,0,0,0,0,0,0,0,0,1709547424,0, 2024-03-04 15:47:03.782
57,-72747.44037,-40330.75009,-18543.38718,-17555.50713,-21962.28766,-35299.75239,-39249.73032,-61292.88659,-0.01,0.834,0.486,192,0,0,0,0,0,0,0,0,0,1709547424,0, 2024-03-04 15:47:03.782
58,-72715.81265,-40308.91243,-18639.96907,-17525.22052,-21988.01452,-35268.97404,-39325.92742,-61291.92547,-0.01,0.834,0.486,192,0,0,0,0,0,0,0,0,0,1709547424,0, 2024-03-04 15:47:03.782
59,-72722.80875,-40320.80356,-18655.52588,-17524.41585,-21978.82795,-35261.06152,-39304.82737,-61266.66799,-0.01,0.834,0.486,192,0,0,0,0,0,0,0,0,0,1709547424,0, 2024-03-04 15:47:03.782
60,-72766.23818,-40358.51095,-18585.72138,-17557.6529,-21956.09623,-35285.112,-39226.99859,-61239.77885,-0.01,0.838,0.486,192,255,176,26,48,15,48,0,0,0,1709547424,0, 2024-03-04 15:47:03.782
61,-72778.17402,-40362.69073,-18495.19682,-17567.59942,-21923.23916,-35293.94094,-39171.07453,-61232.71569,-0.01,0.838,0.486,192,0,0,0,0,0,0,0,0,0,1709547424,0, 2024-03-04 15:47:03.782
62,-72740.86895,-40328.62667,-18520.23077,-17540.73263,-21937.43252,-35272.3715,-39217.4991,-61254.55335,-0.01,0.838,0.486,192,0,0,0,0,0,0,0,0,0,1709547424,0, 2024-03-04 15:47:03.782
63,-72701.7087,-40300.2176,-18618.13141,-17505.41687,-21970.89308,-35240.20734,-39328.47551,-61261.5718,-0.01,0.838,0.486,192,0,0,0,0,0,0,0,0,0,1709547424,0, 2024-03-04 15:47:03.782
64,-72709.12948,-40309.38182,-18637.8233,-17502.77936,-21967.02623,-35235.1335,-39312.71753,-61247.35609,-0.01,0.838,0.486,192,0,0,0,0,0,0,0,0,0,1709547424,0, 2024-03-04 15:47:03.782
65,-72751.86601,-40338.34968,-18572.75737,-17528.30506,-21949.74833,-35257.23937,-39236.36398,-61221.29395,-0.01,0.838,0.486,192,0,0,0,0,0,0,0,0,0,1709547424,0, 2024-03-04 15:47:03.782
66,-72758.32567,-40333.40995,-18485.65262,-17527.03101,-21923.61914,-35259.69806,-39192.66632,-61208.93344,-0.01,0.838,0.486,192,0,0,0,0,0,0,0,0,0,1709547424,0, 2024-03-04 15:47:03.782
67,-72723.99339,-40299.72587,-18516.051,-17496.1409,-21942.19344,-35236.65342,-39246.44461,-61223.8644,-0.01,0.838,0.486,192,0,0,0,0,0,0,0,0,0,1709547424,0, 2024-03-04 15:47:03.782
68,-72691.4269,-40277.26236,-18613.52695,-17469.49762,-21973.0612,-35213.74288,-39330.37541,-61235.06263,-0.01,0.838,0.486,192,0,0,0,0,0,0,0,0,0,1709547424,0, 2024-03-04 15:47:03.782
69,-72707.69897,-40300.79875,-18653.64834,-17488.67541,-21990.00382,-35227.89153,-39325.32392,-61245.635,-0.01,0.838,0.486,192,0,0,0,0,0,0,0,0,0,1709547424,0, 2024-03-04 15:47:03.782
70,-72751.06135,-40336.0251,-18580.28991,-17529.84733,-21962.64529,-35262.42498,-39240.5661,-61250.46298,-0.008,0.842,0.486,192,255,192,26,80,15,48,0,0,0,1709547424,0, 2024-03-04 15:47:03.782
71,-72774.64244,-40349.25733,-18507.26676,-17557.78701,-21947.93784,-35289.6494,-39198.61188,-61258.62137,-0.008,0.842,0.486,192,0,0,0,0,0,0,0,0,0,1709547424,0, 2024-03-04 15:47:03.782
72,-72737.31503,-40317.13788,-18531.69722,-17537.40222,-21960.72304,-35272.46091,-39249.48445,-61260.85654,-0.008,0.842,0.486,192,0,0,0,0,0,0,0,0,0,1709547424,0, 2024-03-04 15:47:03.782
73,-72702.53571,-40292.66272,-18621.39477,-17512.41297,-21983.9018,-35249.23745,-39307.39782,-61266.93621,-0.008,0.842,0.486,192,0,0,0,0,0,0,0,0,0,1709547424,0, 2024-03-04 15:47:03.782
74,-72714.11392,-40306.49844,-18644.99821,-17520.23608,-21985.22055,-35254.4454,-39317.83608,-61274.93814,-0.008,0.842,0.486,192,0,0,0,0,0,0,0,0,0,1709547424,0, 2024-03-04 15:47:03.782
75,-72751.97777,-40337.20974,-18573.38322,-17553.96486,-21962.2206,-35284.73202,-39242.15308,-61280.61548,-0.008,0.842,0.486,192,0,0,0,0,0,0,0,0,0,1709547424,0, 2024-03-04 15:47:03.782
76,-72772.00493,-40348.855,-18500.69535,-17575.48959,-21948.02725,-35307.10611,-39205.04918,-61286.11401,-0.008,0.842,0.486,192,0,0,0,0,0,0,0,0,0,1709547424,0, 2024-03-04 15:47:03.782
77,-72737.09151,-40319.79773,-18520.90132,-17548.1087,-21955.17981,-35286.16253,-39252.0549,-61281.71072,-0.008,0.842,0.486,192,0,0,0,0,0,0,0,0,0,1709547424,0, 2024-03-04 15:47:03.782
78,-72704.21209,-40301.29049,-18622.51236,-17523.7006,-21988.21568,-35268.68347,-39333.57171,-61313.09257,-0.008,0.842,0.486,192,0,0,0,0,0,0,0,0,0,1709547424,0, 2024-03-04 15:47:03.782
79,-72712.21402,-40312.9134,-18640.93019,-17520.79487,-21982.02425,-35265.10719,-39316.69615,-61296.84285,-0.008,0.842,0.486,192,0,0,0,0,0,0,0,0,0,1709547424,0, 2024-03-04 15:47:03.782
80,-72754.72704,-40347.15627,-18567.23649,-17547.84048,-21956.23034,-35289.0459,-39225.90336,-61273.41822,-0.018,0.85,0.486,192,255,112,26,144,15,48,0,0,0,1709547424,0, 2024-03-04 15:47:03.782
81,-72768.45101,-40354.19707,-18486.70316,-17562.52558,-21930.7717,-35306.65908,-39186.02785,-61277.46389,-0.018,0.85,0.486,192,0,0,0,0,0,0,0,0,0,1709547424,0, 2024-03-04 15:47:03.782
82,-72732.06237,-40324.87158,-18512.43001,-17539.10095,-21942.77459,-35290.99051,-39238.46504,-61305.8506,-0.018,0.85,0.486,192,0,0,0,0,0,0,0,0,0,1709547424,0, 2024-03-04 15:47:03.782
83,-72701.68635,-40308.37599,-18610.53182,-17513.97759,-21971.29541,-35269.53283,-39315.37739,-61321.65329,-0.018,0.85,0.486,192,0,0,0,0,0,0,0,0,0,1709547424,0, 2024-03-04 15:47:03.782
84,-72716.55026,-40324.04456,-18639.90201,-17517.82209,-21973.77646,-35267.65529,-39315.08682,-61290.49495,-0.018,0.85,0.486,192,0,0,0,0,0,0,0,0,0,1709547424,0, 2024-03-04 15:47:03.782
85,-72762.19252,-40361.26022,-18563.97314,-17551.79674,-21948.22841,-35293.18098,-39233.07827,-61265.14808,-0.018,0.85,0.486,192,0,0,0,0,0,0,0,0,0,1709547424,0, 2024-03-04 15:47:03.782
86,-72773.41309,-40364.12124,-18484.93737,-17561.25153,-21925.45199,-35299.64063,-39177.37772,-61250.84296,-0.018,0.85,0.486,192,0,0,0,0,0,0,0,0,0,1709547424,0, 2024-03-04 15:47:03.782
87,-72740.1984,-40335.19808,-18513.68171,-17535.65878,-21935.89025,-35277.44535,-39216.60503,-61261.68355,-0.018,0.85,0.486,192,0,0,0,0,0,0,0,0,0,1709547424,0, 2024-03-04 15:47:03.782
88,-72708.36952,-40316.60143,-18613.95164,-17511.72006,-21969.59668,-35254.64657,-39293.15976,-61276.27924,-0.018,0.85,0.486,192,0,0,0,0,0,0,0,0,0,1709547424,0, 2024-03-04 15:47:03.782
89,-72724.93216,-40333.34289,-18651.56962,-17517.59857,-21986.58401,-35253.57369,-39317.65727,-61256.31914,-0.018,0.85,0.486,192,0,0,0,0,0,0,0,0,0,1709547424,0, 2024-03-04 15:47:03.782
90,-72763.69009,-40362.15429,-18569.58342,-17544.13009,-21950.10596,-35271.27627,-39222.5506,-61230.39111,-0.016,0.848,0.48,192,255,128,26,128,15,0,0,0,0,1709547424,0, 2024-03-04 15:47:04.263
91,-72768.42866,-40356.72281,-18485.16089,-17547.66167,-21920.44519,-35272.95265,-39178.29414,-61221.69628,-0.016,0.848,0.48,192,0,0,0,0,0,0,0,0,0,1709547424,0, 2024-03-04 15:47:04.263
92,-72729.33545,-40321.07178,-18506.10447,-17519.61023,-21931.30814,-35247.67283,-39233.70412,-61236.6496,-0.016,0.848,0.48,192,0,0,0,0,0,0,0,0,0,1709547424,0, 2024-03-04 15:47:04.263
93,-72693.4609,-40298.11654,-18606.50851,-17495.20212,-21966.42273,-35224.13644,-39319.98185,-61255.93916,-0.016,0.848,0.48,192,0,0,0,0,0,0,0,0,0,1709547424,0, 2024-03-04 15:47:04.263
94,-72704.05563,-40310.00767,-18632.95062,-17501.39356,-21972.61417,-35225.76812,-39314.01394,-61250.41828,-0.016,0.848,0.48,192,0,0,0,0,0,0,0,0,0,1709547424,0, 2024-03-04 15:47:04.263
95,-72745.2946,-40343.57999,-18569.3152,-17539.34682,-21958.01848,-35258.35696,-39236.85571,-61251.53586,-0.016,0.848,0.48,192,0,0,0,0,0,0,0,0,0,1709547424,0, 2024-03-04 15:47:04.263
96,-72762.30428,-40352.6995,-18496.73909,-17560.04453,-21947.02142,-35279.9711,-39207.70904,-61256.63206,-0.016,0.848,0.48,192,0,0,0,0,0,0,0,0,0,1709547424,0, 2024-03-04 15:47:04.263
97,-72729.93895,-40327.17381,-18525.6846,-17542.67723,-21962.19825,-35273.04206,-39266.74,-61287.38806,-0.016,0.848,0.48,192,0,0,0,0,0,0,0,0,0,1709547424,0, 2024-03-04 15:47:04.263
98,-72691.04692,-40301.04462,-18607.17906,-17517.06213,-21976.48102,-35256.9488,-39327.20147,-61334.90787,-0.016,0.848,0.48,192,0,0,0,0,0,0,0,0,0,1709547424,0, 2024-03-04 15:47:04.263
99,-72705.46379,-40316.06499,-18634.44819,-17521.68894,-21980.63844,-35258.49107,-39342.06538,-61317.27234,-0.016,0.848,0.48,192,0,0,0,0,0,0,0,0,0,1709547424,0, 2024-03-04 15:47:04.263
100,-72753.56475,-40358.26509,-18571.75154,-17560.80449,-21966.10981,-35294.1421,-39271.65738,-61297.06637,-0.016,0.848,0.478,192,255,128,26,128,14,240,0,0,0,1709547424,0, 2024-03-04 15:47:04.263
101,-72762.50544,-40359.76265,-18481.69637,-17564.71605,-21930.27996,-35298.72421,-39205.98795,-61270.95953,-0.016,0.848,0.478,192,0,0,0,0,0,0,0,0,0,1709547424,0, 2024-03-04 15:47:04.263
102,-72725.69212,-40325.76565,-18501.52236,-17533.42361,-21933.63272,-35273.64555,-39250.1103,-61274.04407,-0.016,0.848,0.478,192,0,0,0,0,0,0,0,0,0,1709547424,0, 2024-03-04 15:47:04.263
103,-72687.80591,-40296.75308,-18592.9857,-17501.93,-21959.00195,-35248.41043,-39326.12858,-61304.95653,-0.016,0.848,0.478,192,0,0,0,0,0,0,0,0,0,1709547424,0, 2024-03-04 15:47:04.263
104,-72710.20236,-40320.46829,-18629.08377,-17514.89401,-21968.92613,-35258.8934,-39319.2666,-61313.24903,-0.016,0.848,0.478,192,0,0,0,0,0,0,0,0,0,1709547424,0, 2024-03-04 15:47:04.263
105,-72756.47047,-40353.54887,-18545.66706,-17537.98336,-21933.67743,-35274.49492,-39228.87614,-61257.66024,-0.016,0.848,0.478,192,0,0,0,0,0,0,0,0,0,1709547424,0, 2024-03-04 15:47:04.263
106,-72759.66677,-40355.40406,-18460.08223,-17548.1087,-21908.93405,-35284.39674,-39184.99967,-61250.75355,-0.016,0.848,0.478,192,0,0,0,0,0,0,0,0,0,1709547424,0, 2024-03-04 15:47:04.263
107,-72718.96425,-40329.5878,-18497.00731,-17534.27297,-21932.1128,-35277.69122,-39255.54177,-61291.0761,-0.016,0.848,0.478,192,0,0,0,0,0,0,0,0,0,1709547424,0, 2024-03-04 15:47:04.263
108,-72677.45706,-40297.55775,-18591.59989,-17497.21378,-21957.92907,-35244.8118,-39315.60091,-61304.5542,-0.016,0.848,0.478,192,0,0,0,0,0,0,0,0,0,1709547424,0, 2024-03-04 15:47:04.263
109,-72701.41813,-40305.93965,-18613.32579,-17491.44703,-21949.72598,-35232.74186,-39289.82935,-61276.03337,-0.016,0.848,0.478,192,0,0,0,0,0,0,0,0,0,1709547424,0, 2024-03-04 15:47:04.263
110,-72755.28583,-40343.6694,-18539.14035,-17524.30409,-21927.59775,-35256.9488,-39238.24152,-61249.94889,-0.016,0.844,0.48,192,255,128,26,96,15,0,0,0,0,1709547424,0, 2024-03-04 15:47:04.263
111,-72771.11087,-40349.16793,-18462.40681,-17539.34682,-21912.01859,-35272.3268,-39195.54969,-61256.31914,-0.016,0.844,0.48,192,0,0,0,0,0,0,0,0,0,1709547424,0, 2024-03-04 15:47:04.263
112,-72733.44818,-40310.90174,-18478.54477,-17506.19918,-21912.75619,-35245.54941,-39242.64482,-61261.16946,-0.016,0.844,0.48,192,0,0,0,0,0,0,0,0,0,1709547424,0, 2024-03-04 15:47:04.263
113,-72696.74661,-40285.97954,-18570.58925,-17475.08555,-21939.8018,-35217.18505,-39314.99741,-61257.97317,-0.016,0.844,0.48,192,0,0,0,0,0,0,0,0,0,1709547424,0, 2024-03-04 15:47:04.263
114,-72712.66105,-40304.57619,-18603.04399,-17485.74734,-21949.27894,-35222.19184,-39309.90121,-61239.73414,-0.016,0.844,0.48,192,0,0,0,0,0,0,0,0,0,1709547424,0, 2024-03-04 15:47:04.263
115,-72754.99526,-40338.77436,-18532.05485,-17517.2633,-21925.92137,-35248.41043,-39234.53113,-61223.68559,-0.016,0.844,0.48,192,0,0,0,0,0,0,0,0,0,1709547424,0, 2024-03-04 15:47:04.263
116,-72775.53651,-40348.855,-18457.75765,-17531.72487,-21915.72898,-35264.92837,-39196.2873,-61237.74484,-0.016,0.844,0.48,192,0,0,0,0,0,0,0,0,0,1709547424,0, 2024-03-04 15:47:04.263
117,-72738.05263,-40315.01446,-18474.09677,-17499.85129,-21917.04773,-35240.81084,-39246.73518,-61245.52324,-0.016,0.844,0.48,192,0,0,0,0,0,0,0,0,0,1709547424,0, 2024-03-04 15:47:04.263
118,-72692.00804,-40276.32359,-18557.0888,-17459.14876,-21936.65021,-35205.74095,-39314.57273,-61250.50768,-0.016,0.844,0.48,192,0,0,0,0,0,0,0,0,0,1709547424,0, 2024-03-04 15:47:04.263
119,-72705.5085,-40293.62384,-18590.4376,-17467.64242,-21948.6978,-35210.94891,-39316.29381,-61251.73703,-0.016,0.844,0.48,192,0,0,0,0,0,0,0,0,0,1709547424,0, 2024-03-04 15:47:04.263
120,-72754.39176,-40334.7734,-18535.49701,-17510.2672,-21937.72309,-35248.0081,-39244.00827,-61248.27251,-0.016,0.844,0.48,192,0,0,0,0,0,0,0,0,0,1709547424,0, 2024-03-04 15:47:04.263
121,-72769.09921,-40341.70244,-18455.9248,-17529.84733,-21919.03703,-35268.83993,-39189.22415,-61263.02466,-0.018,0.846,0.488,192,255,112,26,112,15,64,0,0,0,1709547424,0, 2024-03-04 15:47:04.263
122,-72732.33059,-40305.53732,-18477.78481,-17504.74632,-21932.6269,-35250.33268,-39254.35713,-61288.50565,-0.018,0.846,0.488,192,0,0,0,0,0,0,0,0,0,1709547424,0, 2024-03-04 15:47:04.263
123,-72686.53186,-40272.72496,-18567.66117,-17469.43056,-21952.94463,-35217.72149,-39348.70384,-61282.85066,-0.018,0.846,0.488,192,0,0,0,0,0,0,0,0,0,1709547424,0, 2024-03-04 15:47:04.263
124,-72701.97692,-40292.12627,-18597.81368,-17482.81926,-21959.51604,-35228.02564,-39336.32098,-61286.29283,-0.018,0.846,0.488,192,0,0,0,0,0,0,0,0,0,1709547424,0, 2024-03-04 15:47:04.263
125,-72752.78243,-40327.1291,-18530.222,-17524.59467,-21951.06708,-35263.87784,-39259.81096,-61283.29769,-0.018,0.846,0.488,192,0,0,0,0,0,0,0,0,0,1709547424,0, 2024-03-04 15:47:04.263
126,-72772.29551,-40339.15434,-18467.25714,-17547.32639,-21941.92522,-35286.14018,-39224.42814,-61293.51244,-0.018,0.846,0.488,192,0,0,0,0,0,0,0,0,0,1709547424,0, 2024-03-04 15:47:04.263
127,-72728.50844,-40303.74918,-18479.05886,-17519.16319,-21938.84068,-35262.62614,-39273.8255,-61308.59987,-0.018,0.846,0.488,192,0,0,0,0,0,0,0,0,0,1709547424,0, 2024-03-04 15:47:04.263
128,-72693.55031,-40282.78324,-18572.15387,-17490.4412,-21965.46161,-35235.73699,-39339.67374,-61302.6096,-0.018,0.846,0.488,192,0,0,0,0,0,0,0,0,0,1709547424,0, 2024-03-04 15:47:04.263
129,-72710.33647,-40300.50818,-18609.43658,-17496.69969,-21969.88725,-35237.05575,-39325.21216,-61280.41432,-0.018,0.846,0.488,192,0,0,0,0,0,0,0,0,0,1709547424,0, 2024-03-04 15:47:04.263
130,-72752.24599,-40332.51588,-18531.18313,-17529.78027,-21932.17986,-35265.71068,-39227.22211,-61276.23454,-0.018,0.846,0.488,192,0,0,0,0,0,0,0,0,0,1709547424,0, 2024-03-04 15:47:04.263
131,-72754.28,-40325.76565,-18427.64985,-17529.10972,-21897.02057,-35266.49299,-39199.95298,-61265.05867,-0.014,0.842,0.486,192,255,144,26,80,15,48,0,0,0,1709547424,0, 2024-03-04 15:47:04.263
132,-72725.40155,-40307.95131,-18457.71294,-17509.52959,-21912.95736,-35252.99254,-39253.26189,-61284.7282,-0.014,0.842,0.486,192,0,0,0,0,0,0,0,0,0,1709547424,0, 2024-03-04 15:47:04.263
133,-72702.55806,-40294.58497,-18571.01394,-17492.09523,-21951.11179,-35240.29675,-39330.26365,-61309.35983,-0.014,0.842,0.486,192,0,0,0,0,0,0,0,0,0,1709547424,0, 2024-03-04 15:47:04.263
134,-72704.45796,-40294.00382,-18602.06051,-17485.9038,-21950.79886,-35231.02078,-39316.18206,-61287.67863,-0.014,0.842,0.486,192,0,0,0,0,0,0,0,0,0,1709547424,0, 2024-03-04 15:47:04.263
135,-72738.09734,-40332.60528,-18514.91106,-17511.36243,-21925.38493,-35249.39391,-39216.82855,-61244.3833,-0.014,0.842,0.486,192,0,0,0,0,0,0,0,0,0,1709547424,0, 2024-03-04 15:47:04.263
136,-72752.46951,-40337.61207,-18416.71984,-17522.4489,-21890.56091,-35262.71555,-39180.88695,-61244.56212,-0.014,0.842,0.486,192,0,0,0,0,0,0,0,0,0,1709547424,0, 2024-03-04 15:47:04.263
137,-72724.37337,-40311.7511,-18458.15998,-17500.49949,-21913.91848,-35246.91287,-39236.27457,-61272.74767,-0.014,0.842,0.486,192,0,0,0,0,0,0,0,0,0,1709547424,0, 2024-03-04 15:47:04.263
138,-72687.89532,-40290.18167,-18541.04025,-17468.04475,-21930.727,-35219.01789,-39302.77101,-61282.04599,-0.014,0.842,0.486,192,0,0,0,0,0,0,0,0,0,1709547424,0, 2024-03-04 15:47:04.263
139,-72710.44823,-40305.49262,-18575.88662,-17482.57339,-21937.00784,-35231.42311,-39282.90031,-61289.53383,-0.014,0.842,0.486,192,0,0,0,0,0,0,0,0,0,1709547424,0, 2024-03-04 15:47:04.263
140,-72756.35871,-40347.80447,-18521.46012,-17514.1564,-21927.17307,-35253.23841,-39222.21532,-61257.43672,-0.014,0.842,0.486,192,0,0,0,0,0,0,0,0,0,1709547424,0, 2024-03-04 15:47:04.263
141,-72761.79019,-40341.52363,-18438.98218,-17511.85417,-21895.523,-35246.62229,-39169.95694,-61205.60303,-0.014,0.846,0.484,192,255,144,26,112,15,32,0,0,0,1709547424,0, 2024-03-04 15:47:04.263
142,-72742.23241,-40318.56839,-18471.41456,-17494.97861,-21922.05452,-35231.46781,-39227.91502,-61215.34839,-0.014,0.846,0.484,192,0,0,0,0,0,0,0,0,0,1709547424,0, 2024-03-04 15:47:04.263
143,-72690.06344,-40297.5354,-18536.07816,-17459.26052,-21934.63855,-35197.09083,-39306.79432,-61228.11123,-0.014,0.846,0.484,192,0,0,0,0,0,0,0,0,0,1709547424,0, 2024-03-04 15:47:04.263
144,-72700.32289,-40286.87361,-18570.27633,-17456.91359,-21937.65604,-35194.07334,-39294.36675,-61231.68751,-0.014,0.846,0.484,192,0,0,0,0,0,0,0,0,0,1709547424,0, 2024-03-04 15:47:04.263
145,-72751.77661,-40319.32835,-18512.51942,-17495.76092,-21934.81737,-35227.62331,-39232.65359,-61235.80023,-0.014,0.846,0.484,192,0,0,0,0,0,0,0,0,0,1709547424,0, 2024-03-04 15:47:04.263
146,-72752.67068,-40324.75982,-18421.25725,-17499.4266,-21900.26157,-35234.06061,-39188.77711,-61235.01792,-0.014,0.846,0.484,192,0,0,0,0,0,0,0,0,0,1709547424,0, 2024-03-04 15:47:04.263
147,-72722.42877,-40289.60053,-18433.506,-17472.5151,-21896.8194,-35216.98388,-39244.12003,-61260.90124,-0.014,0.846,0.484,192,0,0,0,0,0,0,0,0,0,1709547424,0, 2024-03-04 15:47:04.263
148,-72687.51534,-40273.35081,-18538.5145,-17446.31886,-21935.46557,-35194.92271,-39316.74085,-61269.9984,-0.014,0.846,0.484,192,0,0,0,0,0,0,0,0,0,1709547424,0, 2024-03-04 15:47:04.263
149,-72703.22862,-40296.41781,-18580.69224,-17462.56858,-21949.346,-35207.26087,-39299.77587,-61269.3502,-0.014,0.846,0.484,192,0,0,0,0,0,0,0,0,0,1709547424,0, 2024-03-04 15:47:04.263
150,-72750.52491,-40332.33706,-18534.60294,-17502.91348,-21946.99907,-35246.28702,-39246.73518,-61285.04113,-0.014,0.846,0.484,192,0,0,0,0,0,0,0,0,0,1709547424,0, 2024-03-04 15:47:04.263
151,-72767.60164,-40347.78212,-18477.09191,-17518.20207,-21930.43642,-35266.76122,-39195.12501,-61284.52704,-0.012,0.84,0.488,192,255,160,26,64,15,64,0,0,0,1709547424,0, 2024-03-04 15:47:04.263
152,-72736.71153,-40316.89201,-18481.27168,-17493.41398,-21934.86207,-35245.54941,-39255.67588,-61279.14027,-0.012,0.84,0.488,192,0,0,0,0,0,0,0,0,0,1709547424,0, 2024-03-04 15:47:04.263
153,-72691.76217,-40293.15445,-18536.90517,-17460.86984,-21927.37424,-35219.44257,-39317.52316,-61301.84964,-0.012,0.84,0.488,192,0,0,0,0,0,0,0,0,0,1709547424,0, 2024-03-04 15:47:04.263
154,-72714.22568,-40325.20685,-18568.42113,-17490.12828,-21950.53064,-35249.75154,-39324.87688,-61327.10711,-0.012,0.84,0.488,192,0,0,0,0,0,0,0,0,0,1709547424,0, 2024-03-04 15:47:04.263
155,-72768.56277,-40370.78206,-18540.19088,-17556.4459,-21940.09238,-35294.63384,-39242.10837,-61312.22085,-0.012,0.84,0.488,192,0,0,0,0,0,0,0,0,0,1709547424,0, 2024-03-04 15:47:04.263
156,-72769.14391,-40303.16803,-18442.60316,-17523.36532,-21903.99431,-35268.4823,-39176.03662,-61299.4133,-0.012,0.84,0.488,192,0,0,0,0,0,0,0,0,0,1709547424,0, 2024-03-04 15:47:04.263
157,-72729.9166,-40300.06114,-18444.03368,-17475.42083,-21910.16339,-35238.64272,-39215.30863,-61307.0576,-0.012,0.84,0.488,192,0,0,0,0,0,0,0,0,0,1709547424,0, 2024-03-04 15:47:04.263
158,-72703.83211,-40268.90281,-18562.36381,-17462.41211,-21936.69491,-35226.72924,-39325.07805,-61329.65521,-0.012,0.84,0.488,192,0,0,0,0,0,0,0,0,0,1709547424,0, 2024-03-04 15:47:04.263
159,-72726.45208,-40325.47508,-18577.98768,-17490.48591,-21952.40819,-35252.36669,-39308.69422,-61317.58527,-0.012,0.84,0.488,192,0,0,0,0,0,0,0,0,0,1709547424,0, 2024-03-04 15:47:04.263
160,-72764.91943,-40352.63245,-18476.22019,-17517.66563,-21916.80186,-35260.43567,-39222.30473,-61304.33068,-0.012,0.84,0.488,192,0,0,0,0,0,0,0,0,0,1709547424,0, 2024-03-04 15:47:04.263
161,-72777.86109,-40361.30492,-18414.79759,-17523.11945,-21897.13232,-35266.40359,-39181.73631,-61302.72136,-0.014,0.842,0.484,192,255,144,26,80,15,32,0,0,0,1709547424,0, 2024-03-04 15:47:04.263
162,-72742.72415,-40344.3623,-18438.89277,-17512.41297,-21904.75427,-35257.86522,-39232.16185,-61326.70478,-0.014,0.842,0.484,192,0,0,0,0,0,0,0,0,0,1709547424,0, 2024-03-04 15:47:04.263
163,-72713.13044,-40312.08638,-18530.95961,-17501.95235,-21937.03019,-35247.91869,-39311.55524,-61342.68628,-0.014,0.842,0.484,192,0,0,0,0,0,0,0,0,0,1709547424,0, 2024-03-04 15:47:04.263
164,-72713.48807,-40268.43342,-18556.46295,-17458.09823,-21934.19152,-35223.91292,-39289.96346,-61312.31026,-0.014,0.842,0.484,192,0,0,0,0,0,0,0,0,0,1709547424,0, 2024-03-04 15:47:04.263
165,-72761.09728,-40299.25648,-18507.37852,-17472.29159,-21921.07104,-35231.89249,-39214.88395,-61300.17326,-0.014,0.842,0.484,192,0,0,0,0,0,0,0,0,0,1709547424,0, 2024-03-04 15:47:04.263
166,-72776.29647,-40334.63929,-18405.40986,-17498.37607,-21888.03516,-35256.79234,-39170.78396,-61280.07904,-0.014,0.842,0.484,192,0,0,0,0,0,0,0,0,0,1709547424,0, 2024-03-04 15:47:04.263
167,-72746.97098,-40318.21076,-18444.25719,-17482.57339,-21900.84271,-35246.0635,-39218.7955,-61278.78264,-0.014,0.842,0.484,192,0,0,0,0,0,0,0,0,0,1709547424,0, 2024-03-04 15:47:04.263
168,-72713.39866,-40292.34979,-18563.74962,-17447.90583,-21913.85143,-35211.17243,-39296.44546,-61293.26657,-0.014,0.842,0.484,192,0,0,0,0,0,0,0,0,0,1709547424,0, 2024-03-04 15:47:04.263
169,-72717.7349,-40310.09708,-18533.32889,-17445.87182,-21923.75325,-35205.42803,-39307.10725,-61266.1539,-0.014,0.842,0.484,192,0,0,0,0,0,0,0,0,0,1709547424,0, 2024-03-04 15:47:04.263
170,-72768.29455,-40358.06392,-18490.14532,-17496.58793,-21928.42477,-35235.1335,-39235.02287,-61247.24433,-0.014,0.842,0.484,192,0,0,0,0,0,0,0,0,0,1709547424,0, 2024-03-04 15:47:04.263
171,-72772.36256,-40306.05141,-18391.8647,-17490.32944,-21892.66198,-35236.60871,-39191.30286,-61254.10631,-0.01,0.85,0.484,192,255,176,26,144,15,32,0,0,0,1709547424,0, 2024-03-04 15:47:04.263
172,-72734.52106,-40282.35856,-18411.15426,-17460.80279,-21887.85635,-35212.96057,-39237.39216,-61265.77392,-0.01,0.85,0.484,192,0,0,0,0,0,0,0,0,0,1709547424,0, 2024-03-04 15:47:04.263
173,-72702.49101,-40284.48198,-18520.96838,-17471.93396,-21921.58513,-35211.23948,-39325.01099,-61288.528,-0.01,0.85,0.484,192,0,0,0,0,0,0,0,0,0,1709547424,0, 2024-03-04 15:47:04.263
174,-72729.51427,-40289.51112,-18579.30643,-17491,-21961.81827,-35232.47364,-39332.00709,-61306.99054,-0.01,0.85,0.484,192,0,0,0,0,0,0,0,0,0,1709547424,0, 2024-03-04 15:47:04.263
175,-72759.86794,-40317.47315,-18503.80224,-17490.41885,-21923.59679,-35238.978,-39243.82946,-61296.35111,-0.01,0.85,0.484,192,0,0,0,0,0,0,0,0,0,1709547424,0, 2024-03-04 15:47:04.263
176,-72766.17113,-40340.00371,-18357.62183,-17519.58788,-21861.63775,-35256.85939,-39195.0356,-61291.74665,-0.01,0.85,0.484,192,0,0,0,0,0,0,0,0,0,1709547424,0, 2024-03-04 15:47:04.263
177,-72743.75233,-40286.22541,-18427.80631,-17511.78712,-21908.75523,-35247.78458,-39258.73807,-61320.5804,-0.01,0.85,0.484,192,0,0,0,0,0,0,0,0,0,1709547424,0, 2024-03-04 15:47:04.263
178,-72702.15573,-40260.87853,-18512.76529,-17469.3188,-21925.34023,-35216.22392,-39318.90897,-61323.66494,-0.01,0.85,0.484,192,0,0,0,0,0,0,0,0,0,1709547424,0, 2024-03-04 15:47:04.263
179,-72718.96425,-40293.95912,-18542.58252,-17481.23228,-21934.30328,-35220.58251,-39301.78753,-61308.75633,-0.01,0.85,0.484,192,0,0,0,0,0,0,0,0,0,1709547424,0, 2024-03-04 15:47:04.263
180,-72765.56763,-40334.84046,-18474.36499,-17522.13598,-21902.27323,-35248.52219,-39230.08314,-61288.19272,-0.01,0.85,0.484,192,0,0,0,0,0,0,0,0,0,1709547424,0, 2024-03-04 15:47:04.263
181,-72791.51801,-40366.31171,-18416.96571,-17549.02512,-21897.98169,-35273.82437,-39187.65952,-61296.79815,-0.014,0.85,0.482,192,255,144,26,144,15,16,0,0,0,1709547424,0, 2024-03-04 15:47:04.263
182,-72757.54336,-40305.76084,-18452.0803,-17519.09614,-21908.10703,-35255.74181,-39233.83823,-61324.60372,-0.014,0.85,0.482,192,0,0,0,0,0,0,0,0,0,1709547424,0, 2024-03-04 15:47:04.263
183,-72715.58913,-40288.39353,-18534.49119,-17493.57045,-21932.78336,-35247.53872,-39299.86528,-61353.61628,-0.014,0.85,0.482,192,0,0,0,0,0,0,0,0,0,1709547424,0, 2024-03-04 15:47:04.263
184,-72737.73971,-40301.73752,-18564.10725,-17500.20891,-21932.04575,-35241.59315,-39287.66123,-61337.79124,-0.014,0.85,0.482,192,0,0,0,0,0,0,0,0,0,1709547424,0, 2024-03-04 15:47:04.263
185,-72781.12445,-40360.50026,-18509.21136,-17523.94647,-21910.76689,-35250.28798,-39189.73824,-61270.98188,-0.014,0.85,0.482,192,0,0,0,0,0,0,0,0,0,1709547424,0, 2024-03-04 15:47:04.263
186,-72792.18856,-40392.17268,-18399.97839,-17561.74327,-21881.93314,-35281.62513,-39129.88026,-61256.58736,-0.014,0.85,0.482,192,0,0,0,0,0,0,0,0,0,1709547424,0, 2024-03-04 15:47:04.263
187,-72746.6357,-40287.11948,-18415.66931,-17511.00481,-21884.50359,-35237.16751,-39176.10367,-61273.15,-0.014,0.85,0.482,192,0,0,0,0,0,0,0,0,0,1709547424,0, 2024-03-04 15:47:04.263
188,-72716.90788,-40281.5539,-18500.7624,-17473.67739,-21902.47439,-35206.29975,-39274.16078,-61281.04017,-0.014,0.85,0.482,192,0,0,0,0,0,0,0,0,0,1709547424,0, 2024-03-04 15:47:04.263
189,-72743.35,-40340.02606,-18541.48728,-17495.29153,-21925.42963,-35222.9965,-39261.19676,-61270.91483,-0.014,0.85,0.482,192,0,0,0,0,0,0,0,0,0,1709547424,0, 2024-03-04 15:47:04.263
190,-72777.79404,-40328.85019,-18469.38055,-17522.62771,-21889.48803,-35238.77683,-39162.75968,-61244.83034,-0.014,0.85,0.482,192,0,0,0,0,0,0,0,0,0,1709547424,0, 2024-03-04 15:47:04.263
191,-72790.15455,-40365.01531,-18390.85888,-17541.96197,-21866.89041,-35246.30937,-39111.35067,-61246.26085,-0.014,0.83,0.488,192,255,144,25,240,15,64,0,0,0,1709547424,0, 2024-03-04 15:47:04.263
192,-72752.31305,-40297.35658,-18405.72279,-17510.66953,-21875.33937,-35232.96538,-39168.95111,-61271.63008,-0.014,0.83,0.488,192,0,0,0,0,0,0,0,0,0,1709547424,0, 2024-03-04 15:47:04.263
193,-72718.69602,-40286.80656,-18499.66717,-17481.16523,-21897.86993,-35201.40471,-39242.55541,-61269.12669,-0.014,0.83,0.488,192,0,0,0,0,0,0,0,0,0,1709547424,0, 2024-03-04 15:47:04.263
194,-72747.77564,-40384.6625,-18559.86042,-17525.71225,-21928.33536,-35230.26082,-39234.59819,-61262.35411,-0.014,0.83,0.488,192,0,0,0,0,0,0,0,0,0,1709547424,0, 2024-03-04 15:47:04.263
195,-72772.29551,-40309.7618,-18476.17548,-17511.22832,-21889.04099,-35218.36969,-39153.86369,-61252.29582,-0.014,0.83,0.488,192,0,0,0,0,0,0,0,0,0,1709547424,0, 2024-03-04 15:47:04.263
196,-72782.77848,-40339.37786,-18380.15239,-17504.79102,-21854.08287,-35227.77977,-39123.26415,-61256.58736,-0.014,0.83,0.488,192,0,0,0,0,0,0,0,0,0,1709547424,0, 2024-03-04 15:47:04.263
197,-72742.38887,-40304.48679,-18387.372,-17499.96305,-21863.26943,-35234.10532,-39168.90641,-61270.24427,-0.014,0.83,0.488,192,0,0,0,0,0,0,0,0,0,1709547424,0, 2024-03-04 15:47:04.263
198,-72712.77281,-40287.18654,-18500.80711,-17466.41308,-21906.18478,-35192.01698,-39252.99367,-61285.66698,-0.014,0.83,0.488,192,0,0,0,0,0,0,0,0,0,1709547424,0, 2024-03-04 15:47:04.263
199,-72721.33353,-40318.54604,-18535.94405,-17491.22351,-21904.08372,-35214.56989,-39244.94705,-61296.50757,-0.014,0.83,0.488,192,0,0,0,0,0,0,0,0,0,1709547424,0, 2024-03-04 15:47:04.263
200,-72777.74933,-40367.11638,-18472.28628,-17538.22923,-21886.31408,-35256.07708,-39174.82962,-61292.61837,-0.014,0.83,0.488,192,0,0,0,0,0,0,0,0,0,1709547424,0, 2024-03-04 15:47:04.263
201,-72783.11375,-40346.93275,-18383.99689,-17522.89593,-21875.24997,-35254.33365,-39137.88219,-61300.79911,-0.014,0.826,0.488,192,255,144,25,208,15,64,0,0,0,1709547424,0, 2024-03-04 15:47:04.263
202,-72748.22268,-40335.22044,-18405.87925,-17511.40714,-21881.53081,-35262.6932,-39181.57985,-61346.46372,-0.014,0.826,0.488,192,0,0,0,0,0,0,0,0,0,1709547424,0, 2024-03-04 15:47:04.263
203,-72712.70576,-40283.87848,-18503.42226,-17493.95043,-21912.8009,-35248.83512,-39250.02089,-61335.71253,-0.014,0.826,0.488,192,0,0,0,0,0,0,0,0,0,1709547424,0, 2024-03-04 15:47:04.263
204,-72724.21691,-40290.22637,-18536.86047,-17472.76097,-21919.26055,-35199.25895,-39259.65449,-61272.23358,-0.014,0.826,0.488,192,0,0,0,0,0,0,0,0,0,1709547424,0, 2024-03-04 15:47:04.263
205,-72769.45684,-40379.45454,-18456.26008,-17513.23998,-21887.20815,-35219.64374,-39172.14741,-61253.2346,-0.014,0.826,0.488,192,0,0,0,0,0,0,0,0,0,1709547424,0, 2024-03-04 15:47:04.263
206,-72779.60453,-40345.14461,-18371.03288,-17518.11266,-21857.88266,-35238.24039,-39119.95609,-61249.45715,-0.014,0.826,0.488,192,0,0,0,0,0,0,0,0,0,1709547424,0, 2024-03-04 15:47:04.263
207,-72754.19059,-40305.58202,-18406.5945,-17496.99026,-21884.23537,-35233.99356,-39184.93261,-61289.98086,-0.014,0.826,0.488,192,0,0,0,0,0,0,0,0,0,1709547424,0, 2024-03-04 15:47:04.263
208,-72727.01087,-40305.40321,-18517.81678,-17480.1147,-21927.50835,-35207.55144,-39261.57674,-61310.23154,-0.014,0.826,0.488,192,0,0,0,0,0,0,0,0,0,1709547424,0, 2024-03-04 15:47:04.263
209,-72737.98558,-40320.78121,-18557.28996,-17492.45286,-21927.91068,-35208.28905,-39253.82069,-61279.16262,-0.014,0.826,0.488,192,0,0,0,0,0,0,0,0,0,1709547424,0, 2024-03-04 15:47:04.263
210,-72777.36935,-40360.14263,-18466.13955,-17517.37505,-21902.11676,-35227.60096,-39170.33692,-61249.79243,-0.014,0.826,0.488,192,0,0,0,0,0,0,0,0,0,1709547425,0, 2024-03-04 15:47:04.744
211,-72795.69778,-40383.88018,-18379.39243,-17538.89978,-21887.1411,-35246.51054,-39128.58386,-61256.76617,-0.012,0.832,0.486,192,255,160,26,0,15,48,0,0,0,1709547425,0, 2024-03-04 15:47:04.744
212,-72765.94761,-40332.20295,-18414.61878,-17518.33618,-21900.99918,-35229.00912,-39186.38547,-61283.70002,-0.012,0.832,0.486,192,0,0,0,0,0,0,0,0,0,1709547425,0, 2024-03-04 15:47:04.744
213,-72725.51331,-40284.97371,-18491.35232,-17470.14582,-21916.46658,-35187.01019,-39253.10543,-61297.31224,-0.012,0.832,0.486,192,0,0,0,0,0,0,0,0,0,1709547425,0, 2024-03-04 15:47:04.744
214,-72754.59293,-40358.66742,-18548.17045,-17501.72883,-21922.52391,-35212.29001,-39227.17741,-61283.09653,-0.012,0.832,0.486,192,0,0,0,0,0,0,0,0,0,1709547425,0, 2024-03-04 15:47:04.744
215,-72786.84649,-40366.87051,-18465.98309,-17532.57424,-21892.68433,-35241.25788,-39165.66541,-61240.00236,-0.012,0.832,0.486,192,0,0,0,0,0,0,0,0,0,1709547425,0, 2024-03-04 15:47:04.744
216,-72799.94462,-40357.61688,-18369.06592,-17529.73557,-21882.89426,-35232.6301,-39124.5829,-61235.97905,-0.012,0.832,0.486,192,0,0,0,0,0,0,0,0,0,1709547425,0, 2024-03-04 15:47:04.745
217,-72767.51223,-40337.90265,-18412.78594,-17510.20014,-21899.05457,-35225.74576,-39176.88598,-61262.64468,-0.012,0.832,0.486,192,0,0,0,0,0,0,0,0,0,1709547425,0, 2024-03-04 15:47:04.745
218,-72723.09932,-40311.92992,-18518.95672,-17488.38484,-21925.6308,-35222.57182,-39242.77893,-61275.11695,-0.012,0.832,0.486,192,0,0,0,0,0,0,0,0,0,1709547425,0, 2024-03-04 15:47:04.745
219,-72734.74458,-40357.34866,-18517.88384,-17513.17293,-21905.98362,-35241.39199,-39245.72936,-61266.93621,-0.012,0.832,0.486,192,0,0,0,0,0,0,0,0,0,1709547425,0, 2024-03-04 15:47:04.745
220,-72777.77168,-40392.48561,-18438.57985,-17533.53537,-21889.64449,-35273.10911,-39174.06966,-61269.46196,-0.012,0.832,0.486,192,0,0,0,0,0,0,0,0,0,1709547425,0, 2024-03-04 15:47:04.745
221,-72784.00782,-40354.77821,-18357.06304,-17519.8561,-21869.75144,-35231.06548,-39132.78599,-61286.11401,-0.014,0.838,0.49,192,255,144,26,48,15,80,0,0,0,1709547425,0, 2024-03-04 15:47:04.745
222,-72755.21877,-40370.89382,-18397.47499,-17517.93385,-21892.90785,-35244.00714,-39181.98218,-61305.29181,-0.014,0.838,0.49,192,0,0,0,0,0,0,0,0,0,1709547425,0, 2024-03-04 15:47:04.745
223,-72719.0313,-40325.36332,-18496.76144,-17499.89599,-21920.04286,-35229.23264,-39259.25216,-61319.21695,-0.014,0.838,0.49,192,0,0,0,0,0,0,0,0,0,1709547425,0, 2024-03-04 15:47:04.745
224,-72714.06921,-40291.12044,-18503.64578,-17455.90776,-21904.28488,-35197.67197,-39252.92662,-61284.32587,-0.014,0.838,0.49,192,0,0,0,0,0,0,0,0,0,1709547425,0, 2024-03-04 15:47:04.745
225,-72755.487,-40347.5139,-18433.34954,-17501.01358,-21884.74946,-35232.20542,-39166.67124,-61265.34924,-0.014,0.838,0.49,192,0,0,0,0,0,0,0,0,0,1709547425,0, 2024-03-04 15:47:04.745
226,-72773.94954,-40366.51288,-18369.75883,-17520.59371,-21883.74363,-35249.12569,-39111.61889,-61292.75248,-0.014,0.838,0.49,192,0,0,0,0,0,0,0,0,0,1709547425,0, 2024-03-04 15:47:04.745
227,-72736.48801,-40356.67811,-18398.77139,-17510.49072,-21898.7193,-35245.61647,-39193.02394,-61314.88071,-0.014,0.838,0.49,192,0,0,0,0,0,0,0,0,0,1709547425,0, 2024-03-04 15:47:04.745
228,-72700.07702,-40330.12424,-18491.55348,-17500.0748,-21919.10409,-35245.54941,-39269.86924,-61318.14406,-0.014,0.838,0.49,192,0,0,0,0,0,0,0,0,0,1709547425,0, 2024-03-04 15:47:04.745
229,-72716.19263,-40322.23407,-18524.65642,-17479.5112,-21917.53947,-35199.34835,-39249.48445,-61316.82531,-0.014,0.838,0.49,192,0,0,0,0,0,0,0,0,0,1709547425,0, 2024-03-04 15:47:04.745
230,-72764.18182,-40352.23011,-18456.86358,-17498.66664,-21910.2975,-35207.21617,-39177.60124,-61305.42592,-0.014,0.838,0.49,192,0,0,0,0,0,0,0,0,0,1709547425,0, 2024-03-04 15:47:04.745
231,-72770.84264,-40368.94922,-18350.64809,-17523.00769,-21887.31991,-35246.39878,-39133.09892,-61285.55522,-0.016,0.84,0.48,192,255,128,26,64,15,0,0,0,0,1709547425,0, 2024-03-04 15:47:04.745
232,-72742.99237,-40338.03676,-18384.64509,-17504.16517,-21905.40247,-35235.75935,-39193.33687,-61290.96434,-0.016,0.84,0.48,192,0,0,0,0,0,0,0,0,0,1709547425,0, 2024-03-04 15:47:04.745
233,-72698.24418,-40333.25348,-18461.13276,-17469.83289,-21906.3636,-35165.73133,-39257.91106,-61283.16358,-0.016,0.84,0.48,192,0,0,0,0,0,0,0,0,0,1709547425,0, 2024-03-04 15:47:04.745
234,-72708.92831,-40303.10098,-18484.53504,-17469.9223,-21899.34515,-35178.89651,-39245.77406,-61267.4503,-0.016,0.84,0.48,192,0,0,0,0,0,0,0,0,0,1709547425,0, 2024-03-04 15:47:04.745
235,-72762.01371,-40375.92296,-18431.40494,-17520.77252,-21891.34322,-35219.1073,-39175.88016,-61249.97124,-0.016,0.84,0.48,192,0,0,0,0,0,0,0,0,0,1709547425,0, 2024-03-04 15:47:04.745
236,-72783.38197,-40371.83259,-18370.47408,-17532.86481,-21887.25285,-35236.34049,-39132.29425,-61261.97413,-0.016,0.84,0.48,192,0,0,0,0,0,0,0,0,0,1709547425,0, 2024-03-04 15:47:04.745
237,-72743.88644,-40337.16504,-18377.6937,-17479.42179,-21883.09543,-35200.84592,-39171.81214,-61275.87691,-0.016,0.84,0.48,192,0,0,0,0,0,0,0,0,0,1709547425,0, 2024-03-04 15:47:04.745
238,-72711.43171,-40345.99398,-18475.50493,-17477.52189,-21915.28194,-35197.82844,-39260.61562,-61284.21411,-0.016,0.84,0.48,192,0,0,0,0,0,0,0,0,0,1709547425,0, 2024-03-04 15:47:04.745
239,-72724.7757,-40326.14563,-18534.84881,-17470.21287,-21926.3237,-35198.34253,-39259.67685,-61274.42405,-0.016,0.84,0.48,192,0,0,0,0,0,0,0,0,0,1709547425,0, 2024-03-04 15:47:04.745
240,-72749.42967,-40348.45267,-18412.80829,-17489.81535,-21869.99731,-35204.62337,-39158.42344,-61234.36972,-0.016,0.84,0.48,192,0,0,0,0,0,0,0,0,0,1709547425,0, 2024-03-04 15:47:04.745
241,-72765.07589,-40367.20578,-18344.9931,-17524.37115,-21862.66593,-35250.15387,-39119.03967,-61259.73895,-0.02,0.84,0.482,192,255,96,26,64,15,16,0,0,0,1709547425,0, 2024-03-04 15:47:04.745
242,-72725.87093,-40326.63737,-18352.90561,-17485.00973,-21847.24323,-35203.63989,-39172.77326,-61279.34143,-0.02,0.84,0.482,192,0,0,0,0,0,0,0,0,0,1709547425,0, 2024-03-04 15:47:04.745
243,-72700.54641,-40337.52267,-18466.13955,-17466.88246,-21904.06137,-35190.07238,-39253.10543,-61290.20438,-0.02,0.84,0.482,192,0,0,0,0,0,0,0,0,0,1709547425,0, 2024-03-04 15:47:04.745
244,-72720.283,-40358.26509,-18477.85187,-17493.30223,-21893.06431,-35225.45519,-39239.35911,-61295.36763,-0.02,0.84,0.482,192,0,0,0,0,0,0,0,0,0,1709547425,0, 2024-03-04 15:47:04.745
245,-72785.14776,-40406.74602,-18442.31259,-17571.64509,-21903.79314,-35290.23055,-39180.05993,-61313.5396,-0.02,0.84,0.482,192,0,0,0,0,0,0,0,0,0,1709547425,0, 2024-03-04 15:47:04.745
246,-72799.63169,-40390.36219,-18398.14554,-17565.83364,-21902.5191,-35297.56192,-39130.46141,-61322.05562,-0.02,0.84,0.482,192,0,0,0,0,0,0,0,0,0,1709547425,0, 2024-03-04 15:47:04.745
247,-72749.56378,-40347.40214,-18401.34184,-17495.47034,-21877.03811,-35207.6185,-39172.0133,-61305.2024,-0.02,0.84,0.482,192,0,0,0,0,0,0,0,0,0,1709547425,0, 2024-03-04 15:47:04.745
248,-72688.05178,-40314.2098,-18448.28051,-17468.29062,-21893.0196,-35183.05393,-39274.38429,-61298.92156,-0.02,0.84,0.482,192,0,0,0,0,0,0,0,0,0,1709547425,0, 2024-03-04 15:47:04.745
249,-72705.12852,-40316.64614,-18474.29794,-17471.26341,-21910.99041,-35179.12003,-39255.8994,-61294.74178,-0.02,0.84,0.482,192,0,0,0,0,0,0,0,0,0,1709547425,0, 2024-03-04 15:47:04.745
250,-72750.3908,-40370.13386,-18408.4944,-17505.66274,-21881.82138,-35221.00719,-39172.12506,-61288.03626,-0.02,0.84,0.482,192,0,0,0,0,0,0,0,0,0,1709547425,0, 2024-03-04 15:47:04.745
251,-72763.2207,-40374.80538,-18351.11747,-17526.53927,-21870.42199,-35242.9119,-39152.58964,-61309.31512,-0.02,0.84,0.482,192,0,0,0,0,0,0,0,0,0,1709547425,0, 2024-03-04 15:47:04.745
252,-72732.48705,-40352.38658,-18376.64317,-17513.06117,-21890.76208,-35236.87693,-39203.77513,-61328.38116,-0.02,0.838,0.486,192,255,96,26,48,15,48,0,0,0,1709547425,0, 2024-03-04 15:47:04.745
253,-72713.75629,-40342.4624,-18486.09966,-17488.58601,-21935.08559,-35200.04126,-39280.8216,-61331.59981,-0.02,0.838,0.486,192,0,0,0,0,0,0,0,0,0,1709547425,0, 2024-03-04 15:47:04.745
254,-72732.93409,-40384.59544,-18528.59032,-17507.80851,-21938.90774,-35209.49605,-39268.93047,-61315.64067,-0.02,0.838,0.486,192,0,0,0,0,0,0,0,0,0,1709547425,0, 2024-03-04 15:47:04.745
255,-72765.27706,-40358.10862,-18413.94823,-17516.0116,-21882.17901,-35222.37065,-39188.06186,-61286.44929,-0.02,0.838,0.486,192,0,0,0,0,0,0,0,0,0,1709547425,0, 2024-03-04 15:47:04.745
0,-72780.43154,-40382.51673,-18341.50622,-17515.02812,-21867.91859,-35221.45423,-39149.01336,-61285.48816,-0.02,0.838,0.486,192,0,0,0,0,0,0,0,0,0,1709547425,0, 2024-03-04 15:47:04.745
1,-72739.43844,-40356.34283,-18372.08341,-17500.61125,-21882.33547,-35207.5738,-39176.48365,-61300.7544,-0.02,0.838,0.486,192,0,0,0,0,0,0,0,0,0,1709547425,0, 2024-03-04 15:47:04.745
2,-72696.97013,-40299.94938,-18467.4583,-17446.02829,-21902.96613,-35155.53894,-39252.0996,-61295.45704,-0.02,0.838,0.486,192,0,0,0,0,0,0,0,0,0,1709547425,0, 2024-03-04 15:47:04.745
3,-72723.27813,-40356.29813,-18486.88197,-17474.05737,-21908.46466,-35182.6069,-39266.69529,-61266.7127,-0.02,0.838,0.486,192,0,0,0,0,0,0,0,0,0,1709547425,0, 2024-03-04 15:47:04.745
4,-72771.87082,-40406.63426,-18423.44772,-17525.22052,-21892.46081,-35221.7448,-39173.265,-61252.47464,-0.02,0.838,0.486,192,0,0,0,0,0,0,0,0,0,1709547425,0, 2024-03-04 15:47:04.745
5,-72781.37032,-40389.11049,-18336.0524,-17528.55093,-21871.49487,-35239.08976,-39129.81321,-61264.58928,-0.02,0.838,0.486,192,0,0,0,0,0,0,0,0,0,1709547425,0, 2024-03-04 15:47:04.745
6,-72741.13718,-40336.33802,-18360.3711,-17458.76878,-21872.47835,-35188.21719,-39175.88016,-61273.1947,-0.012,0.842,0.48,192,255,160,26,80,15,0,0,0,0,1709547425,0, 2024-03-04 15:47:04.745
7,-72710.6941,-40326.03387,-18446.42531,-17438.65221,-21891.05265,-35152.34264,-39248.83625,-61255.13449,-0.012,0.842,0.48,192,0,0,0,0,0,0,0,0,0,1709547425,0, 2024-03-04 15:47:04.745
8,-72720.08183,-40349.61496,-18475.30377,-17452.91262,-21893.89132,-35164.0326,-39224.11522,-61214.879,-0.012,0.842,0.48,192,0,0,0,0,0,0,0,0,0,1709547425,0, 2024-03-04 15:47:04.745
9,-72761.90195,-40370.51384,-18413.09886,-17483.46746,-21873.01479,-35204.3775,-39162.87144,-61215.86248,-0.012,0.842,0.48,192,0,0,0,0,0,0,0,0,0,1709547425,0, 2024-03-04 15:47:04.745
10,-72777.10113,-40393.0891,-18321.23319,-17508.65787,-21846.55033,-35235.33466,-39111.17185,-61249.63596,-0.012,0.842,0.48,192,0,0,0,0,0,0,0,0,0,1709547425,0, 2024-03-04 15:47:04.745
11,-72736.2645,-40372.68196,-18347.6306,-17495.35859,-21866.26457,-35229.07617,-39162.87144,-61285.66698,-0.012,0.842,0.48,192,0,0,0,0,0,0,0,0,0,1709547425,0, 2024-03-04 15:47:04.745
12,-72707.90013,-40340.94248,-18488.71481,-17462.65798,-21904.82132,-35184.75267,-39261.75556,-61293.55714,-0.012,0.842,0.48,192,0,0,0,0,0,0,0,0,0,1709547425,0, 2024-03-04 15:47:04.745
13,-72711.9905,-40345.81516,-18469.55937,-17455.97481,-21894.40541,-35183.9033,-39248.00923,-61300.84381,-0.012,0.842,0.48,192,0,0,0,0,0,0,0,0,0,1709547425,0, 2024-03-04 15:47:04.745
14,-72757.07397,-40387.32235,-18400.98422,-17510.82599,-21898.04875,-35246.37642,-39174.58375,-61303.34721,-0.012,0.842,0.48,192,0,0,0,0,0,0,0,0,0,1709547425,0, 2024-03-04 15:47:04.745
15,-72762.43839,-40370.0221,-18328.54221,-17519.49847,-21863.62706,-35248.29867,-39125.38756,-61278.49207,-0.012,0.842,0.48,192,0,0,0,0,0,0,0,0,0,1709547425,0, 2024-03-04 15:47:04.745
16,-72732.26353,-40355.56052,-18359.43232,-17487.1555,-21883.00602,-35208.51257,-39183.21153,-61299.458,-0.012,0.844,0.482,192,255,160,26,96,15,16,0,0,0,1709547425,0, 2024-03-04 15:47:04.745
17,-72697.84185,-40334.97457,-18446.71589,-17445.87182,-21912.86795,-35195.4368,-39260.19094,-61320.98273,-0.012,0.844,0.482,192,0,0,0,0,0,0,0,0,0,1709547425,0, 2024-03-04 15:47:04.745
18,-72727.81554,-40368.45748,-18499.77893,-17478.95241,-21930.88346,-35220.69427,-39270.04805,-61325.14016,-0.012,0.844,0.482,192,0,0,0,0,0,0,0,0,0,1709547425,0, 2024-03-04 15:47:04.745
19,-72763.2207,-40409.65175,-18432.25431,-17512.41297,-21887.20815,-35225.52225,-39171.45451,-61305.49297,-0.012,0.844,0.482,192,0,0,0,0,0,0,0,0,0,1709547425,0, 2024-03-04 15:47:04.745
20,-72769.54624,-40404.93553,-18341.81915,-17538.4304,-21856.29569,-35264.36958,-39113.87642,-61312.39966,-0.012,0.844,0.482,192,0,0,0,0,0,0,0,0,0,1709547425,0, 2024-03-04 15:47:04.745
21,-72736.97975,-40344.92109,-18351.72097,-17485.12149,-21877.17222,-35204.93629,-39199.95298,-61318.0323,-0.012,0.844,0.482,192,0,0,0,0,0,0,0,0,0,1709547425,0, 2024-03-04 15:47:04.745
22,-72705.5532,-40331.39829,-18461.95977,-17458.65702,-21908.37525,-35184.28328,-39270.13746,-61337.29951,-0.012,0.844,0.482,192,0,0,0,0,0,0,0,0,0,1709547425,0, 2024-03-04 15:47:04.745
23,-72717.95842,-40369.75388,-18510.64187,-17459.59579,-21904.86603,-35186.94314,-39258.42515,-61295.32293,-0.012,0.844,0.482,192,0,0,0,0,0,0,0,0,0,1709547425,0, 2024-03-04 15:47:04.745
24,-72767.91457,-40387.65763,-18408.80733,-17499.18073,-21871.18195,-35217.96736,-39164.61488,-61273.73115,-0.012,0.844,0.482,192,0,0,0,0,0,0,0,0,0,1709547425,0, 2024-03-04 15:47:04.745
25,-72792.97087,-40405.04729,-18344.54606,-17522.20303,-21877.50749,-35237.59219,-39103.4158,-61285.95755,-0.012,0.844,0.482,192,0,0,0,0,0,0,0,0,0,1709547425,0, 2024-03-04 15:47:04.745
26,-72745.92045,-40391.0998,-18361.26517,-17497.482,-21862.15184,-35211.73122,-39150.91326,-61285.39876,-0.016,0.846,0.478,192,255,128,26,112,14,240,0,0,0,1709547425,0, 2024-03-04 15:47:04.745
27,-72711.87874,-40343.7588,-18436.03175,-17442.74258,-21894.24895,-35146.53118,-39252.25607,-61284.70585,-0.016,0.846,0.478,192,0,0,0,0,0,0,0,0,0,1709547425,0, 2024-03-04 15:47:04.745
28,-72721.98173,-40366.89286,-18458.20468,-17441.49088,-21900.75331,-35150.08511,-39233.4359,-61251.71468,-0.016,0.846,0.478,192,0,0,0,0,0,0,0,0,0,1709547425,0, 2024-03-04 15:47:04.745
29,-72775.29064,-40409.69645,-18412.74123,-17497.79493,-21891.38793,-35206.81384,-39141.9055,-61249.88183,-0.016,0.846,0.478,192,0,0,0,0,0,0,0,0,0,1709547425,0, 2024-03-04 15:47:04.745
30,-72778.10696,-40431.55646,-18313.79006,-17531.12138,-21854.41814,-35244.85651,-39133.79182,-61271.33951,-0.016,0.846,0.478,192,0,0,0,0,0,0,0,0,0,1709547425,0, 2024-03-04 15:47:04.745
31,-72750.27904,-40343.31177,-18338.06406,-17479.10887,-21871.8078,-35204.31044,-39168.05704,-61292.4172,-0.016,0.846,0.478,192,0,0,0,0,0,0,0,0,0,1709547425,0, 2024-03-04 15:47:04.745
32,-72717.06435,-40342.50711,-18455.94716,-17444.21779,-21907.7047,-35190.92175,-39239.51557,-61288.05861,-0.016,0.846,0.478,192,0,0,0,0,0,0,0,0,0,1709547425,0, 2024-03-04 15:47:04.745
33,-72749.51908,-40419.64298,-18586.99543,-17505.03689,-21955.33627,-35240.9226,-39282.00624,-61295.18882,-0.016,0.846,0.478,192,0,0,0,0,0,0,0,0,0,1709547425,0, 2024-03-04 15:47:04.745
34,-72769.41213,-40408.91414,-18408.94144,-17514.40227,-21879.92148,-35222.03537,-39163.18436,-61258.04022,-0.016,0.846,0.478,192,0,0,0,0,0,0,0,0,0,1709547425,0, 2024-03-04 15:47:04.745
35,-72798.64821,-40417.09488,-18306.30223,-17525.13111,-21870.84667,-35245.50471,-39154.84716,-61267.29384,-0.016,0.846,0.478,192,0,0,0,0,0,0,0,0,0,1709547425,0, 2024-03-04 15:47:04.745
36,-72756.64929,-40401.94039,-18341.75209,-17536.73166,-21879.22858,-35260.56978,-39208.58076,-61304.15187,-0.016,0.848,0.484,192,255,128,26,128,15,32,0,0,0,1709547425,0, 2024-03-04 15:47:04.745
37,-72716.95259,-40352.36422,-18459.90341,-17440.21683,-21927.08366,-35185.1997,-39269.77983,-61308.53281,-0.016,0.848,0.484,192,0,0,0,0,0,0,0,0,0,1709547425,0, 2024-03-04 15:47:04.745
38,-72738.70084,-40412.40101,-18481.69637,-17487.8931,-21907.30237,-35224.78464,-39222.66236,-61301.38025,-0.016,0.848,0.484,192,0,0,0,0,0,0,0,0,0,1709547425,0, 2024-03-04 15:47:04.745
39,-72765.56763,-40394.63137,-18423.31361,-17497.77257,-21897.75817,-35253.21606,-39162.53616,-61280.03434,-0.016,0.848,0.484,192,0,0,0,0,0,0,0,0,0,1709547425,0, 2024-03-04 15:47:04.745
40,-72779.09044,-40395.43604,-18331.71616,-17508.38965,-21862.93416,-35269.21991,-39104.15341,-61299.27919,-0.016,0.848,0.484,192,0,0,0,0,0,0,0,0,0,1709547425,0, 2024-03-04 15:47:04.745
41,-72751.24016,-40400.59929,-18391.03769,-17506.06507,-21896.79705,-35220.11312,-39186.56429,-61301.08968,-0.016,0.848,0.484,192,0,0,0,0,0,0,0,0,0,1709547425,0, 2024-03-04 15:47:04.745
42,-72714.89623,-40379.40984,-18505.36686,-17480.78525,-21962.57823,-35219.06259,-39285.67192,-61315.64067,-0.016,0.848,0.484,192,0,0,0,0,0,0,0,0,0,1709547425,0, 2024-03-04 15:47:04.745
43,-72673.27728,-40355.00173,-18359.40997,-17424.83883,-21840.94004,-35177.15307,-39223.62348,-61253.14519,-0.016,0.848,0.484,192,0,0,0,0,0,0,0,0,0,1709547425,0, 2024-03-04 15:47:04.745
44,-72748.5356,-40367.27284,-18378.78893,-17513.86583,-21880.50263,-35237.45808,-39151.20383,-61260.52126,-0.016,0.848,0.484,192,0,0,0,0,0,0,0,0,0,1709547425,0, 2024-03-04 15:47:04.745
45,-72785.32657,-40393.33497,-18341.03684,-17522.06892,-21886.5376,-35255.63005,-39120.89486,-61294.20534,-0.016,0.848,0.484,192,0,0,0,0,0,0,0,0,0,1709547425,0, 2024-03-04 15:47:04.745
46,-72765.45587,-40430.30476,-18400.78305,-17490.95529,-21908.59877,-35250.46679,-39189.91705,-61336.22662,-0.014,0.848,0.484,192,255,144,26,128,15,32,0,0,0,1709547425,0, 2024-03-04 15:47:04.745
47,-72710.49293,-40352.87831,-18439.31746,-17450.87861,-21896.08179,-35198.96837,-39242.04132,-61330.95161,-0.014,0.848,0.484,192,0,0,0,0,0,0,0,0,0,1709547425,0, 2024-03-04 15:47:04.745
48,-72722.69699,-40353.07948,-18447.20762,-17454.5443,-21899.16633,-35209.58545,-39212.46996,-61308.84574,-0.014,0.848,0.484,192,0,0,0,0,0,0,0,0,0,1709547425,0, 2024-03-04 15:47:04.745
49,-72767.35577,-40404.33203,-18386.14266,-17472.00101,-21894.89715,-35235.20055,-39155.09303,-61278.08974,-0.014,0.848,0.484,192,0,0,0,0,0,0,0,0,0,1709547425,0, 2024-03-04 15:47:04.745
50,-72787.5394,-40431.06472,-18343.45083,-17509.55194,-21876.18874,-35265.15189,-39108.15437,-61276.88274,-0.014,0.848,0.484,192,0,0,0,0,0,0,0,0,0,1709547425,0, 2024-03-04 15:47:04.745
51,-72748.04386,-40301.02227,-18382.8346,-17453.38201,-21845.74566,-35165.77603,-39170.73925,-61286.80692,-0.014,0.848,0.484,192,0,0,0,0,0,0,0,0,0,1709547425,0, 2024-03-04 15:47:04.745
52,-72722.11584,-40361.6402,-18493.34162,-17438.96513,-21934.14681,-35177.44364,-39253.32895,-61299.18978,-0.014,0.848,0.484,192,0,0,0,0,0,0,0,0,0,1709547425,0, 2024-03-04 15:47:04.745
53,-72738.902,-40392.84323,-18506.99854,-17464.91551,-21989.28857,-35200.89062,-39257.50873,-61311.03621,-0.014,0.848,0.484,192,0,0,0,0,0,0,0,0,0,1709547425,0, 2024-03-04 15:47:04.745
54,-72755.01761,-40345.92692,-18329.79391,-17433.77953,-21888.61631,-35178.58358,-39164.95015,-61263.27053,-0.014,0.848,0.484,192,0,0,0,0,0,0,0,0,0,1709547425,0, 2024-03-04 15:47:04.745
55,-72777.65993,-40388.01526,-18272.19346,-17475.0632,-21868.54444,-35203.46108,-39128.53916,-61234.12385,-0.014,0.848,0.484,192,0,0,0,0,0,0,0,0,0,1709547425,0, 2024-03-04 15:47:04.745
56,-72749.29556,-40381.15327,-18346.55772,-17470.39169,-21917.31595,-35218.48145,-39160.90449,-61264.7681,-0.016,0.842,0.486,192,255,128,26,80,15,48,0,0,0,1709547425,0, 2024-03-04 15:47:04.745
57,-72704.16739,-40368.41278,-18471.97336,-17446.92236,-21934.6162,-35199.21424,-39222.5953,-61288.88563,-0.016,0.842,0.486,192,0,0,0,0,0,0,0,0,0,1709547425,0, 2024-03-04 15:47:04.745
58,-72689.79522,-40293.19916,-18408.04737,-17400.69895,-21915.68427,-35146.17355,-39241.8625,-61257.79435,-0.016,0.842,0.486,192,0,0,0,0,0,0,0,0,0,1709547425,0, 2024-03-04 15:47:04.745
59,-72739.77372,-40339.98136,-18335.33714,-17416.65809,-21867.20334,-35159.71871,-39163.47494,-61234.77205,-0.016,0.842,0.486,192,0,0,0,0,0,0,0,0,0,1709547425,0, 2024-03-04 15:47:04.745
60,-72779.44807,-40407.26011,-18306.83867,-17474.30324,-21884.6377,-35210.50187,-39145.25827,-61254.82157,-0.016,0.842,0.486,192,0,0,0,0,0,0,0,0,0,1709547425,0, 2024-03-04 15:47:04.745
61,-72735.83981,-40356.02991,-18330.41976,-17458.29939,-21903.99431,-35217.43092,-39196.53317,-61284.39293,-0.016,0.842,0.486,192,0,0,0,0,0,0,0,0,0,1709547425,0, 2024-03-04 15:47:04.745
62,-72683.84965,-40329.74426,-18418.70915,-17412.14304,-21933.72213,-35168.61471,-39288.73411,-61295.43469,-0.016,0.842,0.486,192,0,0,0,0,0,0,0,0,0,1709547425,0, 2024-03-04 15:47:04.745
63,-72701.1052,-40361.50609,-18473.60503,-17458.25469,-21951.78234,-35227.39979,-39271.76914,-61309.51629,-0.016,0.842,0.486,192,0,0,0,0,0,0,0,0,0,1709547425,0, 2024-03-04 15:47:04.745
64,-72755.68816,-40368.39043,-18372.5528,-17474.16913,-21934.83972,-35207.5738,-39197.82957,-61298.85451,-0.016,0.842,0.486,192,0,0,0,0,0,0,0,0,0,1709547425,0, 2024-03-04 15:47:04.745
65,-72751.28487,-40406.36604,-18300.91546,-17484.27212,-21900.35098,-35230.19376,-39127.37687,-61278.04503,-0.016,0.842,0.486,192,0,0,0,0,0,0,0,0,0,1709547425,0, 2024-03-04 15:47:04.745
66,-72721.5347,-40347.53625,-18370.49644,-17491.89407,-21955.47038,-35249.68448,-39218.23671,-61316.75825,-0.014,0.84,0.486,192,255,144,26,64,15,48,0,0,0,1709547425,0, 2024-03-04 15:47:04.745
67,-72674.50663,-40291.16515,-18378.31955,-17374.05567,-21960.38776,-35153.21435,-39310.50471,-61318.5911,-0.014,0.84,0.486,192,0,0,0,0,0,0,0,0,0,1709547425,0, 2024-03-04 15:47:04.745
68,-72683.44732,-40301.02227,-18408.04737,-17394.77574,-21941.0088,-35158.31055,-39274.60781,-61301.55907,-0.014,0.84,0.486,192,0,0,0,0,0,0,0,0,0,1709547425,0, 2024-03-04 15:47:04.745
69,-72740.01959,-40371.74319,-18371.74813,-17465.07197,-21924.69203,-35228.22681,-39196.04143,-61294.33945,-0.014,0.84,0.486,192,0,0,0,0,0,0,0,0,0,1709547425,0, 2024-03-04 15:47:04.745
70,-72758.92916,-40405.42727,-18283.59285,-17489.92711,-21925.45199,-35226.37161,-39163.47494,-61301.9614,-0.014,0.84,0.486,192,0,0,0,0,0,0,0,0,0,1709547425,0, 2024-03-04 15:47:04.745
71,-72725.4686,-40340.62956,-18303.70942,-17479.77942,-21945.43444,-35222.41535,-39217.27559,-61314.90306,-0.014,0.84,0.486,192,0,0,0,0,0,0,0,0,0,1709547425,0, 2024-03-04 15:47:04.745
72,-72687.15771,-40311.03585,-18403.50996,-17404.34228,-21951.26825,-35164.6361,-39290.70107,-61315.66302,-0.014,0.84,0.486,192,0,0,0,0,0,0,0,0,0,1709547425,0, 2024-03-04 15:47:04.745
73,-72685.54839,-40329.6772,-18428.34275,-17407.67269,-21945.97089,-35165.01607,-39255.11709,-61292.57367,-0.014,0.84,0.486,192,0,0,0,0,0,0,0,0,0,1709547425,0, 2024-03-04 15:47:04.745
74,-72764.07007,-40444.25225,-18452.50499,-17513.28468,-21954.59866,-35242.9119,-39193.76155,-61334.41613,-0.014,0.84,0.486,192,0,0,0,0,0,0,0,0,0,1709547425,0, 2024-03-04 15:47:04.745
75,-72770.61913,-40410.09878,-18294.81343,-17506.13213,-21947.22258,-35224.13644,-39142.28548,-61303.2131,-0.014,0.84,0.486,192,0,0,0,0,0,0,0,0,0,1709547425,0, 2024-03-04 15:47:05.225
76,-72723.63576,-40308.37599,-18294.94754,-17426.02347,-21940.22649,-35171.7663,-39216.78385,-61264.11989,-0.016,0.846,0.486,192,255,128,26,112,15,48,0,0,0,1709547425,0, 2024-03-04 15:47:05.225
77,-72692.41037,-40317.54021,-18393.38462,-17409.77376,-21972.99415,-35143.80427,-39267.79053,-61251.08883,-0.016,0.846,0.486,192,0,0,0,0,0,0,0,0,0,1709547425,0, 2024-03-04 15:47:05.225
78,-72706.33551,-40361.57314,-18408.58381,-17414.95936,-21957.61615,-35152.32028,-39237.81684,-61238.57185,-0.016,0.846,0.486,192,0,0,0,0,0,0,0,0,0,1709547425,0, 2024-03-04 15:47:05.225
79,-72767.93692,-40426.19204,-18363.76856,-17475.622,-21942.3499,-35211.08302,-39167.45355,-61252.29582,-0.016,0.846,0.486,192,0,0,0,0,0,0,0,0,0,1709547425,0, 2024-03-04 15:47:05.225
80,-72799.22936,-40448.38732,-18344.16608,-17523.65589,-21950.32948,-35276.23836,-39135.19998,-61303.28015,-0.016,0.846,0.486,192,0,0,0,0,0,0,0,0,0,1709547425,0, 2024-03-04 15:47:05.225
81,-72734.72223,-40362.95895,-18321.52376,-17447.92818,-21960.67833,-35189.53594,-39171.58862,-61285.3317,-0.016,0.846,0.486,192,0,0,0,0,0,0,0,0,0,1709547425,0, 2024-03-04 15:47:05.225
82,-72701.59694,-40342.39535,-18381.22527,-17421.53077,-21964.18756,-35162.84796,-39272.03736,-61274.66992,-0.016,0.846,0.486,192,0,0,0,0,0,0,0,0,0,1709547425,0, 2024-03-04 15:47:05.225
83,-72731.39182,-40399.14643,-18411.06485,-17459.66285,-21988.23804,-35211.15008,-39272.75262,-61310.87974,-0.016,0.846,0.486,192,0,0,0,0,0,0,0,0,0,1709547425,0, 2024-03-04 15:47:05.225
84,-72766.97579,-40429.14247,-18363.90267,-17487.53548,-21969.23905,-35225.07521,-39175.7684,-61276.65922,-0.016,0.846,0.486,192,0,0,0,0,0,0,0,0,0,1709547425,0, 2024-03-04 15:47:05.225
85,-72783.58314,-40411.75281,-18313.92417,-17487.44607,-21947.51316,-35228.1821,-39092.39639,-61259.24721,-0.016,0.846,0.486,192,0,0,0,0,0,0,0,0,0,1709547425,0, 2024-03-04 15:47:05.225
86,-72746.88157,-40398.00649,-18363.38858,-17477.25367,-21961.5724,-35240.02853,-39176.93069,-61302.69901,-0.018,0.85,0.482,192,255,112,26,144,15,16,0,0,0,1709547425,0, 2024-03-04 15:47:05.225
87,-72706.98371,-40360.61202,-18365.512,-17431.29849,-21978.33621,-35189.67005,-39276.28419,-61325.38603,-0.018,0.85,0.482,192,0,0,0,0,0,0,0,0,0,1709547425,0, 2024-03-04 15:47:05.225
88,-72719.85831,-40383.36609,-18459.36697,-17446.09534,-21993.26718,-35197.89549,-39267.92464,-61331.4657,-0.018,0.85,0.482,192,0,0,0,0,0,0,0,0,0,1709547425,0, 2024-03-04 15:47:05.225
89,-72761.87959,-40428.8966,-18380.53237,-17489.21186,-21954.30809,-35237.45808,-39196.77904,-61311.90792,-0.018,0.85,0.482,192,0,0,0,0,0,0,0,0,0,1709547425,0, 2024-03-04 15:47:05.225
90,-72777.10113,-40393.0891,-18260.74937,-17492.2964,-21984.01356,-35247.15874,-39153.03667,-61288.23743,-0.018,0.85,0.482,192,0,0,0,0,0,0,0,0,0,1709547425,0, 2024-03-04 15:47:05.225
91,-72740.13135,-40365.66351,-18306.36928,-17447.10117,-21960.34306,-35208.49022,-39165.03956,-61289.51148,-0.018,0.85,0.482,192,0,0,0,0,0,0,0,0,0,1709547425,0, 2024-03-04 15:47:05.225
92,-72697.39481,-40349.41379,-18398.59258,-17437.19935,-21970.11077,-35184.19387,-39255.00533,-61312.64553,-0.018,0.85,0.482,192,0,0,0,0,0,0,0,0,0,1709547425,0, 2024-03-04 15:47:05.225
93,-72709.97884,-40367.98809,-18452.46028,-17454.76782,-22011.28268,-35220.4037,-39268.59519,-61343.93797,-0.018,0.85,0.482,192,0,0,0,0,0,0,0,0,0,1709547425,0, 2024-03-04 15:47:05.225
94,-72756.96221,-40392.91029,-18391.61883,-17449.47045,-21992.82014,-35227.39979,-39187.10073,-61360.25475,-0.018,0.85,0.482,192,0,0,0,0,0,0,0,0,0,1709547425,0, 2024-03-04 15:47:05.225
95,-72752.91655,-40387.61293,-18220.33742,-17450.90097,-21928.93886,-35200.6224,-39133.74712,-61334.23732,-0.018,0.85,0.482,192,0,0,0,0,0,0,0,0,0,1709547425,0, 2024-03-04 15:47:05.225
96,-72738.54437,-40412.08809,-18289.73958,-17470.90578,-21981.75603,-35223.57765,-39197.06961,-61314.65719,-0.01,0.838,0.484,192,255,176,26,48,15,32,0,0,0,1709547425,0, 2024-03-04 15:47:05.225
97,-72718.40545,-40353.70533,-18427.80631,-17445.5589,-21995.27883,-35211.97709,-39237.86154,-61333.79028,-0.01,0.838,0.484,192,0,0,0,0,0,0,0,0,0,1709547425,0, 2024-03-04 15:47:05.225
98,-72719.50069,-40360.45556,-18463.70321,-17417.73098,-21991.92607,-35171.09575,-39219.44371,-61298.38512,-0.01,0.838,0.484,192,0,0,0,0,0,0,0,0,0,1709547425,0, 2024-03-04 15:47:05.225
99,-72741.65127,-40387.16589,-18327.35757,-17446.00593,-21957.70555,-35190.85469,-39167.49825,-61258.4649,-0.01,0.838,0.484,192,0,0,0,0,0,0,0,0,0,1709547425,0, 2024-03-04 15:47:05.225
100,-72759.86794,-40392.32914,-18239.11288,-17469.2294,-21961.12537,-35219.06259,-39143.35837,-61272.56885,-0.01,0.838,0.484,192,0,0,0,0,0,0,0,0,0,1709547425,0, 2024-03-04 15:47:05.225
101,-72751.35192,-40426.84024,-18325.94941,-17477.11956,-21982.73951,-35233.47947,-39193.85096,-61310.85739,-0.01,0.838,0.484,192,0,0,0,0,0,0,0,0,0,1709547425,0, 2024-03-04 15:47:05.225
102,-72723.92633,-40379.96863,-18418.59739,-17464.87081,-22020.80453,-35209.16077,-39270.87507,-61323.88846,-0.01,0.838,0.484,192,0,0,0,0,0,0,0,0,0,1709547425,0, 2024-03-04 15:47:05.225
103,-72727.4132,-40386.18241,-18454.22607,-17457.87471,-22016.82592,-35225.29873,-39264.41541,-61324.3802,-0.01,0.838,0.484,192,0,0,0,0,0,0,0,0,0,1709547425,0, 2024-03-04 15:47:05.225
104,-72774.35187,-40432.04819,-18401.67712,-17470.95048,-21994.74239,-35218.5485,-39175.50018,-61283.92354,-0.01,0.838,0.484,192,0,0,0,0,0,0,0,0,0,1709547425,0, 2024-03-04 15:47:05.225
105,-72792.27797,-40422.03461,-18406.14747,-17489.05539,-21967.80854,-35236.83223,-39113.89877,-61266.31037,-0.01,0.838,0.484,192,0,0,0,0,0,0,0,0,0,1709547425,0, 2024-03-04 15:47:05.225
106,-72753.5871,-40399.21348,-18360.32639,-17490.77648,-21986.04756,-35255.20536,-39138.75391,-61303.92835,-0.01,0.848,0.486,192,255,176,26,128,15,48,0,0,0,1709547425,0, 2024-03-04 15:47:05.225
107,-72702.15573,-40387.45646,-18317.36634,-17434.49479,-22000.53149,-35186.51845,-39280.59808,-61310.52212,-0.01,0.848,0.486,192,0,0,0,0,0,0,0,0,0,1709547425,0, 2024-03-04 15:47:05.225
108,-72718.15958,-40378.3593,-18471.50397,-17424.45885,-21971.34012,-35197.13553,-39228.18324,-61316.75825,-0.01,0.848,0.486,192,0,0,0,0,0,0,0,0,0,1709547425,0, 2024-03-04 15:47:05.225
109,-72760.7173,-40416.40197,-18334.82305,-17483.62392,-21986.18167,-35248.27632,-39187.77128,-61289.60088,-0.01,0.848,0.486,192,0,0,0,0,0,0,0,0,0,1709547425,0, 2024-03-04 15:47:05.225
110,-72775.42475,-40390.80922,-18257.48602,-17498.75605,-21986.38284,-35245.46,-39154.24367,-61294.09358,-0.01,0.848,0.486,192,0,0,0,0,0,0,0,0,0,1709547425,0, 2024-03-04 15:47:05.225
111,-72742.12065,-40386.85297,-18349.73167,-17460.57927,-21995.99409,-35233.85945,-39208.62546,-61336.33838,-0.01,0.848,0.486,192,0,0,0,0,0,0,0,0,0,1709547425,0, 2024-03-04 15:47:05.225
112,-72695.67373,-40374.22423,-18385.04742,-17432.88546,-22013.54021,-35214.16756,-39259.56509,-61355.69499,-0.01,0.848,0.486,192,0,0,0,0,0,0,0,0,0,1709547425,0, 2024-03-04 15:47:05.225
113,-72729.20134,-40396.95595,-18489.7877,-17460.15459,-21994.2283,-35188.95479,-39270.96448,-61331.15278,-0.01,0.848,0.486,192,0,0,0,0,0,0,0,0,0,1709547425,0, 2024-03-04 15:47:05.225
114,-72765.45587,-40402.20861,-18352.63739,-17465.54136,-21981.53251,-35218.41439,-39183.14447,-61282.7836,-0.01,0.848,0.486,192,0,0,0,0,0,0,0,0,0,1709547425,0, 2024-03-04 15:47:05.225
115,-72774.0613,-40434.84216,-18251.67456,-17468.64825,-22009.36043,-35235.71464,-39143.02309,-61279.20732,-0.01,0.848,0.486,192,0,0,0,0,0,0,0,0,0,1709547425,0, 2024-03-04 15:47:05.225
116,-72718.51721,-40365.30588,-18274.13807,-17436.90877,-21946.105,-35211.26183,-39172.79561,-61304.01776,-0.01,0.848,0.484,192,255,176,26,128,15,32,0,0,0,1709547425,0, 2024-03-04 15:47:05.225
117,-72715.45502,-40397.60416,-18569.24815,-17461.18277,-22027.86768,-35231.15489,-39260.92854,-61358.91364,-0.01,0.848,0.484,192,0,0,0,0,0,0,0,0,0,1709547425,0, 2024-03-04 15:47:05.225
118,-72756.62693,-40439.11134,-18449.33104,-17518.33618,-22051.49347,-35272.17034,-39283.88378,-61394.05059,-0.01,0.848,0.484,192,0,0,0,0,0,0,0,0,0,1709547425,0, 2024-03-04 15:47:05.225
119,-72773.86013,-40432.40582,-18365.84727,-17478.23715,-22044.45267,-35220.35899,-39213.98988,-61334.39378,-0.01,0.848,0.484,192,0,0,0,0,0,0,0,0,0,1709547425,0, 2024-03-04 15:47:05.225
120,-72758.52683,-40411.70811,-18239.44816,-17431.90198,-21963.91934,-35200.51064,-39169.95694,-61296.46287,-0.01,0.848,0.484,192,0,0,0,0,0,0,0,0,0,1709547425,0, 2024-03-04 15:47:05.225
121,-72744.35583,-40392.19503,-18327.1117,-17466.1225,-21971.45188,-35226.68454,-39159.76455,-61325.96717,-0.01,0.848,0.484,192,0,0,0,0,0,0,0,0,0,1709547425,0, 2024-03-04 15:47:05.225
122,-72721.19942,-40339.80254,-18410.3943,-17439.61334,-22017.96586,-35208.49022,-39270.76331,-61315.84183,-0.01,0.848,0.484,192,0,0,0,0,0,0,0,0,0,1709547425,0, 2024-03-04 15:47:05.225
123,-72733.51523,-40387.07648,-18406.23688,-17438.40634,-22026.86185,-35189.17831,-39275.1666,-61330.79515,-0.01,0.848,0.484,192,0,0,0,0,0,0,0,0,0,1709547425,0, 2024-03-04 15:47:05.225
124,-72781.45972,-40466.20166,-18382.1864,-17487.2449,-22021.40802,-35234.75352,-39214.54867,-61341.30047,-0.01,0.848,0.484,192,0,0,0,0,0,0,0,0,0,1709547425,0, 2024-03-04 15:47:05.225
125,-72784.54426,-40429.85772,-18343.27201,-17511.16127,-21906.58711,-35250.57855,-39089.15539,-61310.9021,-0.01,0.848,0.484,192,0,0,0,0,0,0,0,0,0,1709547425,0, 2024-03-04 15:47:05.225
126,-72745.80869,-40357.54983,-18332.49847,-17487.49077,-21998.49749,-35218.32499,-39129.81321,-61304.91183,-0.01,0.848,0.484,192,0,0,0,0,0,0,0,0,0,1709547425,0, 2024-03-04 15:47:05.225
127,-72712.88457,-40396.35246,-18300.53548,-17411.02545,-22007.0135,-35173.17446,-39290.03051,-61301.87199,-0.01,0.842,0.48,192,255,176,26,80,15,0,0,0,0,1709547425,0, 2024-03-04 15:47:05.225
128,-72745.02638,-40414.07739,-18406.97448,-17441.42383,-22029.83463,-35212.64764,-39259.43098,-61337.09834,-0.01,0.842,0.48,192,0,0,0,0,0,0,0,0,0,1709547425,0, 2024-03-04 15:47:05.225
129,-72773.41309,-40468.88387,-18381.56055,-17505.68509,-22004.66657,-35266.40359,-39202.1211,-61322.05562,-0.01,0.842,0.48,192,0,0,0,0,0,0,0,0,0,1709547425,0, 2024-03-04 15:47:05.225
130,-72798.49175,-40466.6934,-18321.43436,-17534.09416,-21973.79881,-35285.8049,-39165.37484,-61332.22566,-0.01,0.842,0.48,192,0,0,0,0,0,0,0,0,0,1709547425,0, 2024-03-04 15:47:05.225
131,-72780.65506,-40422.01226,-18275.70269,-17487.11079,-22037.05425,-35258.73694,-39197.33783,-61323.84376,-0.01,0.842,0.48,192,0,0,0,0,0,0,0,0,0,1709547425,0, 2024-03-04 15:47:05.225
132,-72717.39962,-40342.03772,-18384.62274,-17444.84364,-22019.73164,-35224.3376,-39255.58648,-61326.05658,-0.01,0.842,0.48,192,0,0,0,0,0,0,0,0,0,1709547425,0, 2024-03-04 15:47:05.225
133,-72743.9982,-40430.41652,-18423.15715,-17445.35773,-22013.76373,-35198.54369,-39252.56899,-61316.02065,-0.01,0.842,0.48,192,0,0,0,0,0,0,0,0,0,1709547425,0, 2024-03-04 15:47:05.225
134,-72786.82414,-40420.98408,-18403.37585,-17467.84359,-22019.32931,-35240.78849,-39197.65075,-61329.18582,-0.01,0.842,0.48,192,0,0,0,0,0,0,0,0,0,1709547425,0, 2024-03-04 15:47:05.225
135,-72788.41112,-40444.40871,-18247.22657,-17494.64333,-21975.38578,-35262.78261,-39140.85497,-61328.06824,-0.01,0.842,0.48,192,0,0,0,0,0,0,0,0,0,1709547425,0, 2024-03-04 15:47:05.225
136,-72770.79794,-40431.77997,-18322.73076,-17487.69194,-22009.78512,-35249.59508,-39179.56819,-61365.68622,-0.01,0.842,0.48,192,0,0,0,0,0,0,0,0,0,1709547425,0, 2024-03-04 15:47:05.225
137,-72727.3685,-40369.95505,-18397.85497,-17442.38495,-22014.03195,-35205.04805,-39290.34344,-61371.72119,-0.01,0.84,0.482,192,255,176,26,64,15,16,0,0,0,1709547425,0, 2024-03-04 15:47:05.225
138,-72724.88746,-40389.8034,-18392.93759,-17446.22945,-22023.84436,-35203.30461,-39265.68946,-61332.22566,-0.01,0.84,0.482,192,0,0,0,0,0,0,0,0,0,1709547425,0, 2024-03-04 15:47:05.225
139,-72790.7357,-40458.3562,-18340.52275,-17491.89407,-22019.46342,-35255.0936,-39192.21928,-61343.22272,-0.01,0.84,0.482,192,0,0,0,0,0,0,0,0,0,1709547425,0, 2024-03-04 15:47:05.225
140,-72817.98247,-40450.19781,-18279.726,-17520.10197,-22009.80747,-35267.74469,-39154.71305,-61364.97097,-0.01,0.84,0.482,192,0,0,0,0,0,0,0,0,0,1709547425,0, 2024-03-04 15:47:05.225
141,-72767.93692,-40413.29508,-18352.14565,-17502.5782,-22020.75982,-35251.00324,-39197.5837,-61370.93888,-0.01,0.84,0.482,192,0,0,0,0,0,0,0,0,0,1709547425,0, 2024-03-04 15:47:05.225
142,-72731.03419,-40396.21835,-18478.23184,-17452.71146,-22033.925,-35216.44744,-39284.80021,-61384.037,-0.01,0.84,0.482,192,0,0,0,0,0,0,0,0,0,1709547425,0, 2024-03-04 15:47:05.225
143,-72757.00691,-40457.7527,-18423.44772,-17485.12149,-22053.25926,-35273.37733,-39270.69626,-61358.46661,-0.01,0.84,0.482,192,0,0,0,0,0,0,0,0,0,1709547425,0, 2024-03-04 15:47:05.225
144,-72780.09627,-40418.48068,-18294.70167,-17459.99813,-22011.66266,-35215.10633,-39159.00459,-61307.19171,-0.01,0.84,0.482,192,0,0,0,0,0,0,0,0,0,1709547425,0, 2024-03-04 15:47:05.225
145,-72793.68613,-40436.18327,-18276.23913,-17486.95433,-21980.23611,-35228.51738,-39170.6275,-61319.26165,-0.01,0.84,0.482,192,0,0,0,0,0,0,0,0,0,1709547425,0, 2024-03-04 15:47:05.225
146,-72737.76206,-40391.70329,-18261.77755,-17448.33052,-21989.33327,-35220.89544,-39213.16286,-61335.77959,-0.01,0.84,0.482,192,0,0,0,0,0,0,0,0,0,1709547425,0, 2024-03-04 15:47:05.225
147,-72704.92735,-40380.66153,-18353.53146,-17430.8738,-22028.29236,-35200.73416,-39279.03346,-61354.91268,-0.008,0.836,0.488,192,255,192,26,32,15,64,0,0,0,1709547425,0, 2024-03-04 15:47:05.225
148,-72738.76789,-40427.66725,-18434.37772,-17470.54815,-22030.684,-35217.34151,-39264.75069,-61361.01471,-0.008,0.836,0.488,192,0,0,0,0,0,0,0,0,0,1709547425,0, 2024-03-04 15:47:05.225
149,-72792.56854,-40451.22599,-18397.05031,-17508.85904,-22041.21167,-35255.0489,-39217.94614,-61341.47928,-0.008,0.836,0.488,192,0,0,0,0,0,0,0,0,0,1709547425,0, 2024-03-04 15:47:05.225
150,-72800.25754,-40472.05782,-18248.94765,-17486.66376,-21997.22344,-35249.50567,-39161.19506,-61325.60954,-0.008,0.836,0.488,192,0,0,0,0,0,0,0,0,0,1709547425,0, 2024-03-04 15:47:05.225
151,-72754.79409,-40434.77511,-18275.65798,-17465.63077,-21984.61705,-35226.48337,-39186.22901,-61331.82333,-0.008,0.836,0.488,192,0,0,0,0,0,0,0,0,0,1709547425,0, 2024-03-04 15:47:05.225
152,-72723.12167,-40391.12215,-18417.70332,-17433.24309,-22016.89297,-35205.47273,-39247.78572,-61339.93701,-0.008,0.836,0.488,192,0,0,0,0,0,0,0,0,0,1709547425,0, 2024-03-04 15:47:05.225
153,-72754.63763,-40452.94707,-18442.53611,-17473.29741,-22052.40989,-35243.35894,-39287.43771,-61355.96321,-0.008,0.836,0.488,192,0,0,0,0,0,0,0,0,0,1709547425,0, 2024-03-04 15:47:05.225
154,-72783.22551,-40459.31732,-18362.89684,-17501.77354,-21985.55583,-35265.08483,-39169.21934,-61341.14401,-0.008,0.836,0.488,192,0,0,0,0,0,0,0,0,0,1709547425,0, 2024-03-04 15:47:05.225
155,-72779.2916,-40455.8081,-18210.86028,-17478.41596,-21973.95527,-35239.24622,-39136.98812,-61323.41907,-0.008,0.836,0.488,192,0,0,0,0,0,0,0,0,0,1709547425,0, 2024-03-04 15:47:05.225
156,-72757.07397,-40398.85585,-18261.77755,-17448.35287,-22013.54021,-35219.1073,-39180.954,-61347.17898,-0.008,0.836,0.488,192,0,0,0,0,0,0,0,0,0,1709547425,0, 2024-03-04 15:47:05.225
157,-72713.42101,-40392.97734,-18347.72001,-17423.72124,-22002.61021,-35198.61075,-39244.67882,-61342.70863,-0.01,0.842,0.486,192,255,176,26,80,15,48,0,0,0,1709547425,0, 2024-03-04 15:47:05.225
158,-72749.1838,-40438.23963,-18394.74808,-17465.40725,-22004.89008,-35253.32782,-39262.9402,-61359.27127,-0.01,0.842,0.486,192,0,0,0,0,0,0,0,0,0,1709547425,0, 2024-03-04 15:47:05.225
159,-72787.76291,-40452.85767,-18346.60242,-17484.09331,-22009.44984,-35248.23162,-39176.48365,-61350.86702,-0.01,0.842,0.486,192,0,0,0,0,0,0,0,0,0,1709547425,0, 2024-03-04 15:47:05.225
160,-72786.15359,-40468.638,-18258.84947,-17483.66862,-22000.28563,-35239.80501,-39130.88609,-61331.48805,-0.01,0.842,0.486,192,0,0,0,0,0,0,0,0,0,1709547425,0, 2024-03-04 15:47:05.225
161,-72751.62014,-40451.71773,-18300.22255,-17482.43928,-21990.47321,-35249.05863,-39171.09688,-61339.8029,-0.01,0.842,0.486,192,0,0,0,0,0,0,0,0,0,1709547425,0, 2024-03-04 15:47:05.225
162,-72718.09253,-40374.24658,-18359.7676,-17422.4919,-22020.4022,-35200.37653,-39248.56803,-61354.91268,-0.01,0.842,0.486,192,0,0,0,0,0,0,0,0,0,1709547425,0, 2024-03-04 15:47:05.225
163,-72728.91077,-40394.92195,-18378.78893,-17437.8252,-22024.71608,-35207.14911,-39249.01506,-61346.64254,-0.01,0.842,0.486,192,0,0,0,0,0,0,0,0,0,1709547425,0, 2024-03-04 15:47:05.225
164,-72774.41892,-40444.38636,-18321.30025,-17478.46067,-22002.63256,-35242.8225,-39171.63332,-61337.23245,-0.01,0.842,0.486,192,0,0,0,0,0,0,0,0,0,1709547425,0, 2024-03-04 15:47:05.225
165,-72784.00782,-40448.32026,-18245.75135,-17485.16619,-21984.23707,-35250.06446,-39136.58579,-61328.51527,-0.01,0.842,0.486,192,0,0,0,0,0,0,0,0,0,1709547425,0, 2024-03-04 15:47:05.225
166,-72763.10894,-40426.50496,-18291.03598,-17478.41596,-22010.52272,-35246.73405,-39171.34275,-61357.0361,-0.01,0.842,0.486,192,0,0,0,0,0,0,0,0,0,1709547425,0, 2024-03-04 15:47:05.225
167,-72724.86511,-40400.42048,-18380.82294,-17445.5589,-22029.90169,-35213.94404,-39244.18709,-61376.10213,-0.01,0.848,0.49,192,255,176,26,128,15,80,0,0,0,1709547425,0, 2024-03-04 15:47:05.225
168,-72733.7611,-40428.58367,-18409.03084,-17457.6959,-22032.42743,-35223.37648,-39235.60402,-61377.24207,-0.01,0.848,0.49,192,0,0,0,0,0,0,0,0,0,1709547425,0, 2024-03-04 15:47:05.225
169,-72785.79596,-40474.87414,-18334.30896,-17503.2711,-22016.17772,-35262.49203,-39175.29901,-61379.52195,-0.01,0.848,0.49,192,0,0,0,0,0,0,0,0,0,1709547425,0, 2024-03-04 15:47:05.225
170,-72798.24588,-40474.53886,-18259.09534,-17519.09614,-21988.34979,-35281.08868,-39127.42157,-61364.27806,-0.01,0.848,0.49,192,0,0,0,0,0,0,0,0,0,1709547425,0, 2024-03-04 15:47:05.225
171,-72751.66485,-40416.8043,-18272.41698,-17469.02823,-21997.20108,-35239.11211,-39149.72861,-61363.20518,-0.01,0.848,0.49,192,0,0,0,0,0,0,0,0,0,1709547425,0, 2024-03-04 15:47:05.225
172,-72710.82821,-40396.2407,-18359.23116,-17439.34511,-22013.58491,-35207.28322,-39238.88972,-61362.75814,-0.01,0.848,0.49,192,0,0,0,0,0,0,0,0,0,1709547425,0, 2024-03-04 15:47:05.225
173,-72739.28198,-40431.89173,-18408.67322,-17458.47821,-22038.66357,-35224.13644,-39253.97715,-61352.90102,-0.01,0.848,0.49,192,0,0,0,0,0,0,0,0,0,1709547425,0, 2024-03-04 15:47:05.225
174,-72786.19829,-40486.74291,-18343.45083,-17504.76867,-22015.17189,-35263.69903,-39167.61001,-61359.27127,-0.01,0.848,0.49,192,0,0,0,0,0,0,0,0,0,1709547425,0, 2024-03-04 15:47:05.225
175,-72778.26342,-40437.36791,-18227.78055,-17489.05539,-21975.76576,-35255.27242,-39118.21265,-61353.81745,-0.01,0.848,0.49,192,0,0,0,0,0,0,0,0,0,1709547425,0, 2024-03-04 15:47:05.225
176,-72749.832,-40416.35727,-18263.38688,-17467.53066,-21995.18943,-35239.69325,-39181.40104,-61365.59681,-0.01,0.848,0.49,192,0,0,0,0,0,0,0,0,0,1709547425,0, 2024-03-04 15:47:05.225
177,-72717.51138,-40403.14739,-18369.04357,-17446.18475,-22025.85602,-35217.98971,-39258.13457,-61367.40731,-0.01,0.848,0.488,192,255,176,26,128,15,64,0,0,0,1709547425,0, 2024-03-04 15:47:05.225
178,-72730.45304,-40424.00157,-18408.38264,-17455.75129,-22031.53336,-35221.96832,-39243.58359,-61360.76884,-0.01,0.848,0.488,192,0,0,0,0,0,0,0,0,0,1709547425,0, 2024-03-04 15:47:05.225
179,-72771.5579,-40450.68955,-18320.83086,-17486.32848,-21999.59272,-35249.34921,-39159.63044,-61343.0439,-0.01,0.848,0.488,192,0,0,0,0,0,0,0,0,0,1709547425,0, 2024-03-04 15:47:05.225
180,-72785.23717,-40463.29593,-18226.41709,-17498.59959,-21977.33038,-35259.04986,-39114.56932,-61347.08957,-0.01,0.848,0.488,192,0,0,0,0,0,0,0,0,0,1709547425,0, 2024-03-04 15:47:05.225
181,-72754.86115,-40434.7304,-18265.97968,-17483.53451,-21993.87067,-35248.74571,-39173.75674,-61379.14197,-0.01,0.848,0.488,192,0,0,0,0,0,0,0,0,0,1709547425,0, 2024-03-04 15:47:05.225
182,-72715.52208,-40403.16974,-18366.31666,-17446.29651,-22022.57031,-35221.67775,-39256.94993,-61390.69782,-0.01,0.848,0.488,192,0,0,0,0,0,0,0,0,0,1709547425,0, 2024-03-04 15:47:05.225
183,-72738.65613,-40420.5594,-18401.09597,-17462.94856,-22036.40604,-35231.3784,-39251.67492,-61393.67061,-0.01,0.848,0.488,192,0,0,0,0,0,0,0,0,0,1709547425,0, 2024-03-04 15:47:05.225
184,-72783.67255,-40460.65843,-18341.55093,-17502.66761,-22020.73747,-35266.18007,-39156.47884,-61381.57831,-0.01,0.848,0.488,192,0,0,0,0,0,0,0,0,0,1709547425,0, 2024-03-04 15:47:05.225
185,-72791.00392,-40463.38534,-18248.47826,-17509.93192,-21997.02227,-35277.13242,-39133.79182,-61366.15561,-0.01,0.848,0.488,192,0,0,0,0,0,0,0,0,0,1709547425,0, 2024-03-04 15:47:05.225
186,-72766.05937,-40433.52341,-18285.22453,-17491.80466,-22006.65587,-35268.07997,-39197.00255,-61383.9923,-0.01,0.848,0.488,192,0,0,0,0,0,0,0,0,0,1709547425,0, 2024-03-04 15:47:05.225
187,-72723.09932,-40407.14835,-18378.25249,-17456.3995,-22020.26809,-35227.22098,-39267.03057,-61383.12058,-0.01,0.848,0.49,192,255,176,26,128,15,80,0,0,0,1709547425,0, 2024-03-04 15:47:05.225
188,-72732.95644,-40416.40197,-18389.58483,-17455.28191,-22031.22044,-35224.98581,-39249.43975,-61357.28197,-0.01,0.848,0.49,192,0,0,0,0,0,0,0,0,0,1709547425,0, 2024-03-04 15:47:05.225
189,-72786.66768,-40471.56608,-18334.62189,-17501.43826,-22017.83174,-35267.67764,-39177.37772,-61364.18865,-0.01,0.848,0.49,192,0,0,0,0,0,0,0,0,0,1709547425,0, 2024-03-04 15:47:05.225
190,-72804.39261,-40483.05487,-18256.83782,-17518.38088,-22000.53149,-35285.96136,-39137.14458,-61378.27025,-0.01,0.848,0.49,192,0,0,0,0,0,0,0,0,0,1709547425,0, 2024-03-04 15:47:05.225
191,-72756.76105,-40423.50983,-18277.1332,-17481.63461,-22003.32546,-35257.77581,-39193.98507,-61392.95535,-0.01,0.848,0.49,192,0,0,0,0,0,0,0,0,0,1709547425,0, 2024-03-04 15:47:05.225
192,-72711.25289,-40394.56432,-18373.15629,-17441.6697,-22020.58101,-35219.39787,-39259.051,-61383.12058,-0.01,0.848,0.49,192,0,0,0,0,0,0,0,0,0,1709547425,0, 2024-03-04 15:47:05.225
193,-72729.8719,-40426.54966,-18408.20383,-17451.14684,-22028.7394,-35224.98581,-39233.72647,-61362.44522,-0.01,0.848,0.49,192,0,0,0,0,0,0,0,0,0,1709547425,0, 2024-03-04 15:47:05.225
194,-72772.29551,-40466.29107,-18350.20105,-17486.61905,-22015.55187,-35259.96629,-39168.54878,-61349.54826,-0.01,0.848,0.49,192,0,0,0,0,0,0,0,0,0,1709547425,0, 2024-03-04 15:47:05.225
195,-72774.41892,-40444.16284,-18234.2402,-17481.72402,-21976.2128,-35256.83704,-39128.71797,-61338.70767,-0.01,0.848,0.49,192,0,0,0,0,0,0,0,0,0,1709547426,0, 2024-03-04 15:47:05.706
196,-72737.87382,-40403.61677,-18250.2664,-17453.51612,-21973.08355,-35236.80988,-39164.72663,-61367.38495,-0.01,0.848,0.49,192,0,0,0,0,0,0,0,0,0,1709547426,0, 2024-03-04 15:47:05.706
197,-72698.13242,-40382.7626,-18354.87257,-17427.52104,-22008.9134,-35216.46979,-39251.49611,-61390.3402,-0.012,0.846,0.486,192,255,160,26,112,15,48,0,0,0,1709547426,0, 2024-03-04 15:47:05.706
198,-72714.38214,-40406.23193,-18397.40794,-17441.13325,-22030.684,-35228.40562,-39261.50969,-61393.33533,-0.012,0.846,0.486,192,0,0,0,0,0,0,0,0,0,1709547426,0, 2024-03-04 15:47:05.706
199,-72753.27417,-40440.11717,-18313.96887,-17471.33046,-21993.5801,-35251.83025,-39176.23778,-61373.17406,-0.012,0.846,0.486,192,0,0,0,0,0,0,0,0,0,1709547426,0, 2024-03-04 15:47:05.706
200,-72770.12739,-40455.13755,-18248.00888,-17491,-21974.87169,-35269.64459,-39132.2272,-61376.41506,-0.012,0.846,0.486,192,0,0,0,0,0,0,0,0,0,1709547426,0, 2024-03-04 15:47:05.706
201,-72728.59785,-40417.51956,-18277.20026,-17461.33923,-21983.49947,-35244.49888,-39179.09881,-61381.95829,-0.012,0.846,0.486,192,0,0,0,0,0,0,0,0,0,1709547426,0, 2024-03-04 15:47:05.706
202,-72686.84479,-40376.86174,-18343.45083,-17415.78638,-22008.2652,-35201.29296,-39243.673,-61375.81156,-0.012,0.846,0.486,192,0,0,0,0,0,0,0,0,0,1709547426,0, 2024-03-04 15:47:05.706
203,-72705.73201,-40399.01232,-18396.55857,-17430.15855,-22022.14563,-35212.7147,-39235.13463,-61378.29261,-0.012,0.846,0.486,192,0,0,0,0,0,0,0,0,0,1709547426,0, 2024-03-04 15:47:05.706
204,-72764.29358,-40450.62249,-18351.07277,-17480.53938,-22017.76469,-35257.95463,-39172.52739,-61378.38201,-0.012,0.846,0.486,192,0,0,0,0,0,0,0,0,0,1709547426,0, 2024-03-04 15:47:05.706
205,-72772.49667,-40450.04135,-18241.16924,-17485.70263,-21977.75507,-35264.07901,-39134.46237,-61358.04193,-0.012,0.846,0.486,192,0,0,0,0,0,0,0,0,0,1709547426,0, 2024-03-04 15:47:05.706
206,-72731.70474,-40420.51469,-18275.65798,-17458.18763,-21990.47321,-35239.20151,-39186.87721,-61369.9554,-0.012,0.846,0.486,192,0,0,0,0,0,0,0,0,0,1709547426,0, 2024-03-04 15:47:05.706
207,-72693.66207,-40417.58661,-18394.25634,-17442.54141,-22028.98527,-35223.91292,-39239.02383,-61398.90091,-0.006,0.842,0.486,192,255,208,26,80,15,48,0,0,0,1709547426,0, 2024-03-04 15:47:05.706
208,-72701.03815,-40382.69554,-18387.17084,-17437.8699,-22006.85704,-35218.28028,-39244.94705,-61393.33533,-0.006,0.842,0.486,192,0,0,0,0,0,0,0,0,0,1709547426,0, 2024-03-04 15:47:05.706
209,-72754.21295,-40432.31641,-18323.17779,-17479.33238,-21998.89982,-35250.69031,-39188.44184,-61373.88931,-0.006,0.842,0.486,192,0,0,0,0,0,0,0,0,0,1709547426,0, 2024-03-04 15:47:05.706
210,-72774.0613,-40455.29401,-18262.91749,-17499.22544,-21989.57914,-35274.56197,-39142.91133,-61380.50543,-0.006,0.842,0.486,192,0,0,0,0,0,0,0,0,0,1709547426,0, 2024-03-04 15:47:05.706
211,-72729.08959,-40417.58661,-18278.60841,-17462.99326,-21985.33231,-35246.17526,-39182.45157,-61377.93498,-0.006,0.842,0.486,192,0,0,0,0,0,0,0,0,0,1709547426,0, 2024-03-04 15:47:05.706
212,-72692.99152,-40395.65955,-18370.22822,-17432.88546,-22010.8133,-35222.59417,-39255.11709,-61379.83488,-0.006,0.842,0.486,192,0,0,0,0,0,0,0,0,0,1709547426,0, 2024-03-04 15:47:05.706
213,-72711.25289,-40424.04627,-18406.81802,-17446.65413,-22022.41385,-35234.95468,-39249.35034,-61381.37715,-0.006,0.842,0.486,192,0,0,0,0,0,0,0,0,0,1709547426,0, 2024-03-04 15:47:05.706
214,-72747.77564,-40456.85863,-18330.03978,-17476.13609,-21995.56941,-35254.51246,-39171.14159,-61364.83686,-0.006,0.842,0.486,192,0,0,0,0,0,0,0,0,0,1709547426,0, 2024-03-04 15:47:05.706
215,-72757.49865,-40451.42716,-18246.9807,-17492.18464,-21971.58599,-35268.54936,-39134.97646,-61372.59291,-0.006,0.842,0.486,192,0,0,0,0,0,0,0,0,0,1709547426,0, 2024-03-04 15:47:05.706
216,-72717.80195,-40405.2708,-18269.55596,-17463.32854,-21976.72689,-35242.9119,-39186.38547,-61397.35864,-0.006,0.842,0.486,192,0,0,0,0,0,0,0,0,0,1709547426,0, 2024-03-04 15:47:05.706
217,-72681.70389,-40383.16493,-18365.06496,-17430.94086,-22000.64325,-35213.16173,-39259.00629,-61409.31683,-0.012,0.834,0.49,192,255,160,26,16,15,80,0,0,0,1709547426,0, 2024-03-04 15:47:05.706
218,-72700.36759,-40403.63913,-18406.23688,-17437.42286,-22010.56743,-35215.41926,-39258.4028,-61398.38682,-0.012,0.834,0.49,192,0,0,0,0,0,0,0,0,0,1709547426,0, 2024-03-04 15:47:05.706
219,-72741.96419,-40439.98306,-18357.39831,-17474.50441,-21998.0281,-35243.64951,-39165.77717,-61379.27608,-0.012,0.834,0.49,192,0,0,0,0,0,0,0,0,0,1709547426,0, 2024-03-04 15:47:05.706
220,-72751.26252,-40451.24834,-18225.92535,-17499.31484,-21946.1497,-35267.61058,-39101.18063,-61378.76199,-0.012,0.834,0.49,192,0,0,0,0,0,0,0,0,0,1709547426,0, 2024-03-04 15:47:05.706
221,-72711.00702,-40412.71393,-18243.58323,-17448.24111,-21961.61711,-35231.17724,-39179.50114,-61376.9515,-0.012,0.834,0.49,192,0,0,0,0,0,0,0,0,0,1709547426,0, 2024-03-04 15:47:05.706
222,-72670.48331,-40358.62271,-18333.5043,-17408.11973,-21984.05826,-35191.61465,-39264.21425,-61394.67643,-0.012,0.834,0.49,192,0,0,0,0,0,0,0,0,0,1709547426,0, 2024-03-04 15:47:05.706
223,-72685.28017,-40387.97055,-18362.06983,-17425.28587,-21984.99703,-35202.67876,-39250.64674,-61381.35479,-0.012,0.834,0.49,192,0,0,0,0,0,0,0,0,0,1709547426,0, 2024-03-04 15:47:05.706
224,-72741.91949,-40441.52533,-18305.87754,-17474.48206,-21977.01746,-35241.45904,-39168.61584,-61348.76595,-0.012,0.834,0.49,192,0,0,0,0,0,0,0,0,0,1709547426,0, 2024-03-04 15:47:05.706
225,-72755.5317,-40449.48255,-18231.93797,-17490.82118,-21961.08067,-35258.9381,-39133.14362,-61356.58906,-0.012,0.834,0.49,192,0,0,0,0,0,0,0,0,0,1709547426,0, 2024-03-04 15:47:05.706
226,-72712.39283,-40410.09878,-18250.53462,-17458.41115,-21963.27114,-35232.51834,-39171.11923,-61367.76493,-0.012,0.834,0.49,192,0,0,0,0,0,0,0,0,0,1709547426,0, 2024-03-04 15:47:05.706
227,-72689.19172,-40389.40107,-18368.01539,-17441.33442,-22006.76763,-35216.44744,-39265.4436,-61402.87952,-0.018,0.84,0.488,192,255,112,26,64,15,64,0,0,0,1709547426,0, 2024-03-04 15:47:05.706
228,-72704.45796,-40416.46903,-18382.34286,-17450.49863,-21996.82111,-35219.17435,-39254.71476,-61396.26341,-0.018,0.84,0.488,192,0,0,0,0,0,0,0,0,0,1709547426,0, 2024-03-04 15:47:05.706
229,-72754.36941,-40455.09284,-18321.65787,-17486.75316,-21986.82988,-35247.51636,-39175.83545,-61354.46565,-0.018,0.84,0.488,192,0,0,0,0,0,0,0,0,0,1709547426,0, 2024-03-04 15:47:05.706
230,-72756.67164,-40444.38636,-18235.89423,-17487.69194,-21956.4315,-35248.85747,-39122.01245,-61335.39961,-0.018,0.84,0.488,192,0,0,0,0,0,0,0,0,0,1709547426,0, 2024-03-04 15:47:05.706
231,-72724.32866,-40415.28439,-18260.14587,-17461.51804,-21961.88533,-35228.22681,-39161.97737,-61360.09829,-0.018,0.84,0.488,192,0,0,0,0,0,0,0,0,0,1709547426,0, 2024-03-04 15:47:05.706
232,-72694.10911,-40401.47101,-18376.53141,-17449.3587,-21999.03393,-35213.67582,-39266.00239,-61375.58804,-0.018,0.84,0.488,192,0,0,0,0,0,0,0,0,0,1709547426,0, 2024-03-04 15:47:05.706
233,-72701.93222,-40412.53512,-18380.9794,-17448.57638,-21997.96104,-35212.08885,-39252.6584,-61372.07882,-0.018,0.84,0.488,192,0,0,0,0,0,0,0,0,0,1709547426,0, 2024-03-04 15:47:05.706
234,-72753.74356,-40466.76045,-18320.54029,-17491.84936,-21981.59957,-35246.37642,-39169.35345,-61371.43062,-0.018,0.84,0.488,192,0,0,0,0,0,0,0,0,0,1709547426,0, 2024-03-04 15:47:05.706
235,-72773.83778,-40479.41154,-18261.35287,-17526.76279,-21956.54326,-35278.27236,-39120.26901,-61381.51126,-0.018,0.84,0.488,192,0,0,0,0,0,0,0,0,0,1709547426,0, 2024-03-04 15:47:05.706
236,-72738.16439,-40436.40678,-18283.59285,-17498.66664,-21973.21766,-35268.86228,-39199.97534,-61404.08652,-0.018,0.84,0.488,192,0,0,0,0,0,0,0,0,0,1709547426,0, 2024-03-04 15:47:05.706
237,-72696.27722,-40396.17364,-18353.68792,-17447.23528,-21998.6763,-35211.95474,-39260.3921,-61391.18956,-0.016,0.836,0.49,192,255,128,26,32,15,80,0,0,0,1709547426,0, 2024-03-04 15:47:05.706
238,-72704.63678,-40417.83248,-18383.79572,-17455.77365,-21994.54123,-35205.7186,-39245.30467,-61383.83584,-0.016,0.836,0.49,192,0,0,0,0,0,0,0,0,0,1709547426,0, 2024-03-04 15:47:05.706
239,-72749.60849,-40454.89168,-18316.1817,-17496.09619,-21975.43049,-35243.76127,-39168.03469,-61374.78338,-0.016,0.836,0.49,192,0,0,0,0,0,0,0,0,0,1709547426,0, 2024-03-04 15:47:05.706
240,-72769.14391,-40465.66522,-18243.35971,-17516.74921,-21957.16911,-35261.24033,-39135.40115,-61365.99915,-0.016,0.836,0.49,192,0,0,0,0,0,0,0,0,0,1709547426,0, 2024-03-04 15:47:05.706
241,-72733.04584,-40446.10744,-18276.17207,-17493.74926,-21964.29932,-35244.29771,-39186.47488,-61385.60163,-0.016,0.836,0.49,192,0,0,0,0,0,0,0,0,0,1709547426,0, 2024-03-04 15:47:05.706
242,-72697.12659,-40431.28823,-18364.01443,-17466.56954,-21988.55096,-35222.81769,-39250.26676,-61402.43249,-0.016,0.836,0.49,192,0,0,0,0,0,0,0,0,0,1709547426,0, 2024-03-04 15:47:05.706
243,-72705.39674,-40406.76837,-18374.51975,-17456.69007,-21975.98928,-35215.24044,-39215.24158,-61390.40725,-0.016,0.836,0.49,192,0,0,0,0,0,0,0,0,0,1709547426,0, 2024-03-04 15:47:05.706
244,-72746.85922,-40455.29401,-18301.36249,-17494.68803,-21962.66764,-35249.48332,-39177.60124,-61382.76295,-0.016,0.836,0.49,192,0,0,0,0,0,0,0,0,0,1709547426,0, 2024-03-04 15:47:05.706
245,-72762.99718,-40479.27743,-18234.68724,-17520.14667,-21953.2352,-35279.56877,-39150.62268,-61391.50249,-0.016,0.836,0.49,192,0,0,0,0,0,0,0,0,0,1709547426,0, 2024-03-04 15:47:05.706
246,-72726.69795,-40422.4593,-18268.1031,-17487.08844,-21964.63459,-35245.14708,-39190.76642,-61399.25854,-0.016,0.836,0.49,192,0,0,0,0,0,0,0,0,0,1709547426,0, 2024-03-04 15:47:05.706
247,-72690.59988,-40398.76645,-18358.06887,-17451.88444,-21986.4946,-35209.20547,-39261.42028,-61414.03305,-0.012,0.834,0.488,192,255,160,26,16,15,64,0,0,0,1709547426,0, 2024-03-04 15:47:05.706
248,-72705.64261,-40417.58661,-18384.46628,-17458.47821,-21980.41492,-35211.23948,-39242.35424,-61381.48891,-0.012,0.834,0.488,192,0,0,0,0,0,0,0,0,0,1709547426,0, 2024-03-04 15:47:05.706
249,-72755.24113,-40461.37368,-18313.09716,-17495.24683,-21968.85907,-35241.01201,-39164.30195,-61356.90199,-0.012,0.834,0.488,192,0,0,0,0,0,0,0,0,0,1709547426,0, 2024-03-04 15:47:05.706
250,-72765.1206,-40472.57191,-18233.32378,-17511.63066,-21947.53551,-35257.99933,-39116.31276,-61359.87477,-0.012,0.834,0.488,192,0,0,0,0,0,0,0,0,0,1709547426,0, 2024-03-04 15:47:05.706
251,-72735.28102,-40449.97429,-18271.63467,-17495.62681,-21963.98639,-35247.60577,-39185.46905,-61390.22844,-0.012,0.834,0.488,192,0,0,0,0,0,0,0,0,0,1709547426,0, 2024-03-04 15:47:05.706
252,-72714.82917,-40445.19102,-18404.67225,-17496.1409,-22017.02708,-35236.58636,-39266.58353,-61419.8445,-0.012,0.834,0.488,192,0,0,0,0,0,0,0,0,0,1709547426,0, 2024-03-04 15:47:05.706
253,-72718.87484,-40432.60699,-18391.61883,-17472.22453,-21983.11949,-35220.58251,-39246.84694,-61390.20609,-0.012,0.834,0.488,192,0,0,0,0,0,0,0,0,0,1709547426,0, 2024-03-04 15:47:05.706
254,-72765.96996,-40474.74003,-18319.19918,-17507.65205,-21967.8756,-35253.03724,-39174.71786,-61391.56954,-0.012,0.834,0.488,192,0,0,0,0,0,0,0,0,0,1709547426,0, 2024-03-04 15:47:05.706
255,-72779.49277,-40485.3124,-18245.21491,-17535.70348,-21955.7386,-35291.86222,-39121.90069,-61398.00684,-0.012,0.834,0.488,192,0,0,0,0,0,0,0,0,0,1709547426,0, 2024-03-04 15:47:05.706
0,-72742.38887,-40451.20364,-18269.06422,-17500.90182,-21966.37803,-35246.44348,-39175.8578,-61388.19443,-0.012,0.834,0.488,192,0,0,0,0,0,0,0,0,0,1709547426,0, 2024-03-04 15:47:05.706
1,-72697.41716,-40404.26498,-18352.43623,-17452.19737,-21979.54321,-35198.78956,-39262.26965,-61369.75424,-0.01,0.842,0.488,192,255,176,26,80,15,64,0,0,0,1709547426,0, 2024-03-04 15:47:05.706
2,-72716.57261,-40434.19396,-18387.03673,-17470.6152,-21991.34493,-35215.9557,-39249.41739,-61368.21197,-0.01,0.842,0.488,192,0,0,0,0,0,0,0,0,0,1709547426,0, 2024-03-04 15:47:05.706
3,-72768.76393,-40481.89258,-18327.42462,-17518.24677,-21979.16323,-35257.32878,-39173.46617,-61370.4695,-0.01,0.842,0.488,192,0,0,0,0,0,0,0,0,0,1709547426,0, 2024-03-04 15:47:05.706
4,-72775.31299,-40483.50191,-18236.98947,-17522.4042,-21940.42765,-35263.83314,-39128.13683,-61372.88348,-0.01,0.842,0.488,192,0,0,0,0,0,0,0,0,0,1709547426,0, 2024-03-04 15:47:05.706
5,-72730.40834,-40428.76249,-18264.21389,-17489.77065,-21947.51316,-35235.26761,-39165.46424,-61375.49864,-0.01,0.842,0.488,192,0,0,0,0,0,0,0,0,0,1709547426,0, 2024-03-04 15:47:05.706
6,-72693.93029,-40409.29412,-18329.97272,-17443.81546,-21976.52572,-35201.09179,-39259.22981,-61382.83001,-0.01,0.842,0.488,192,0,0,0,0,0,0,0,0,0,1709547426,0, 2024-03-04 15:47:05.706
7,-72712.23637,-40431.10942,-18362.89684,-17459.75226,-21984.84057,-35212.37942,-39266.58353,-61396.19635,-0.01,0.842,0.488,192,0,0,0,0,0,0,0,0,0,1709547426,0, 2024-03-04 15:47:05.706
8,-72759.30914,-40472.59426,-18303.75413,-17503.42757,-21961.86298,-35252.63491,-39188.35243,-61408.48981,-0.01,0.842,0.488,192,0,0,0,0,0,0,0,0,0,1709547426,0, 2024-03-04 15:47:05.706
9,-72770.35091,-40486.31823,-18233.63671,-17521.33131,-21947.60256,-35272.63972,-39127.22041,-61411.552,-0.01,0.842,0.488,192,0,0,0,0,0,0,0,0,0,1709547426,0, 2024-03-04 15:47:05.706
10,-72725.49095,-40448.99082,-18256.97193,-17491.67055,-21957.6832,-35250.28798,-39172.92972,-61420.29153,-0.01,0.842,0.488,192,0,0,0,0,0,0,0,0,0,1709547426,0, 2024-03-04 15:47:05.706
11,-72684.74372,-40414.2115,-18352.05625,-17455.17015,-21969.95431,-35214.88282,-39276.61947,-61411.79787,-0.01,0.842,0.488,192,0,0,0,0,0,0,0,0,0,1709547426,0, 2024-03-04 15:47:05.706
12,-72697.19365,-40431.19883,-18347.51884,-17456.75712,-21964.14285,-35204.35515,-39253.93245,-61358.80188,-0.014,0.838,0.482,192,255,144,26,48,15,16,0,0,0,1709547426,0, 2024-03-04 15:47:05.706
13,-72744.35583,-40464.25706,-18292.17592,-17488.29543,-21952.89993,-35234.01591,-39169.77813,-61358.77953,-0.014,0.838,0.482,192,0,0,0,0,0,0,0,0,0,1709547426,0, 2024-03-04 15:47:05.706
14,-72761.41021,-40479.85857,-18221.38795,-17507.0262,-21945.09917,-35262.46968,-39131.69076,-61373.46463,-0.014,0.838,0.482,192,0,0,0,0,0,0,0,0,0,1709547426,0, 2024-03-04 15:47:05.706
15,-72728.12846,-40445.16867,-18249.79702,-17488.80952,-21950.21772,-35248.6116,-39200.33296,-61406.99225,-0.014,0.838,0.482,192,0,0,0,0,0,0,0,0,0,1709547426,0, 2024-03-04 15:47:05.706
16,-72680.45219,-40410.81404,-18331.02326,-17453.35966,-21953.97281,-35202.32114,-39257.2405,-61412.93781,-0.014,0.838,0.482,192,0,0,0,0,0,0,0,0,0,1709547426,0, 2024-03-04 15:47:05.706
17,-72709.88944,-40449.81783,-18389.16014,-17483.15453,-21974.11173,-35228.15975,-39249.19388,-61401.40431,-0.014,0.838,0.482,192,0,0,0,0,0,0,0,0,0,1709547426,0, 2024-03-04 15:47:05.706
18,-72757.4316,-40487.32406,-18312.44896,-17506.82503,-21958.73373,-35243.71657,-39164.14549,-61379.4996,-0.014,0.838,0.482,192,0,0,0,0,0,0,0,0,0,1709547426,0, 2024-03-04 15:47:05.706
19,-72778.08461,-40481.37849,-18242.59975,-17527.05336,-21955.91741,-35262.15676,-39124.64996,-61388.03797,-0.014,0.838,0.482,192,0,0,0,0,0,0,0,0,0,1709547426,0, 2024-03-04 15:47:05.706
20,-72738.63378,-40454.44464,-18259.60943,-17502.84642,-21936.78432,-35240.18499,-39174.98609,-61395.30228,-0.014,0.838,0.482,192,0,0,0,0,0,0,0,0,0,1709547426,0, 2024-03-04 15:47:05.706
21,-72697.79714,-40429.63421,-18333.39254,-17470.14582,-21955.44803,-35210.45717,-39241.25901,-61400.30907,-0.014,0.838,0.482,192,0,0,0,0,0,0,0,0,0,1709547426,0, 2024-03-04 15:47:05.706
22,-72713.59983,-40458.55736,-18364.55087,-17483.15453,-21978.31386,-35218.83908,-39231.17837,-61391.23427,-0.016,0.842,0.482,192,255,128,26,80,15,16,0,0,0,1709547426,0, 2024-03-04 15:47:05.706
23,-72756.38107,-40480.08209,-18299.41789,-17512.1671,-21944.18275,-35242.33076,-39178.04827,-61363.49575,-0.016,0.842,0.482,192,0,0,0,0,0,0,0,0,0,1709547426,0, 2024-03-04 15:47:05.706
24,-72769.21097,-40476.68463,-18207.46281,-17516.99507,-21923.79796,-35250.39974,-39128.91914,-61365.97679,-0.016,0.842,0.482,192,0,0,0,0,0,0,0,0,0,1709547426,0, 2024-03-04 15:47:05.706
25,-72738.76789,-40457.99857,-18246.4219,-17502.08646,-21944.69684,-35242.42017,-39185.82668,-61400.93492,-0.016,0.842,0.482,192,0,0,0,0,0,0,0,0,0,1709547426,0, 2024-03-04 15:47:05.706
26,-72714.40449,-40467.83334,-18369.71413,-17500.6783,-21991.07671,-35242.01783,-39269.01987,-61410.9038,-0.016,0.842,0.482,192,0,0,0,0,0,0,0,0,0,1709547426,0, 2024-03-04 15:47:05.706
27,-72716.32674,-40462.8489,-18389.69658,-17486.12732,-21978.62679,-35232.29483,-39251.02672,-61387.74739,-0.016,0.842,0.482,192,0,0,0,0,0,0,0,0,0,1709547426,0, 2024-03-04 15:47:05.706
28,-72753.34123,-40470.89553,-18282.60938,-17504.81337,-21943.33338,-35251.40557,-39165.48659,-61386.24983,-0.016,0.842,0.482,192,0,0,0,0,0,0,0,0,0,1709547426,0, 2024-03-04 15:47:05.706
29,-72770.61913,-40477.13166,-18221.67852,-17520.21373,-21936.65021,-35267.1412,-39139.49152,-61396.24106,-0.016,0.842,0.482,192,0,0,0,0,0,0,0,0,0,1709547426,0, 2024-03-04 15:47:05.706
30,-72726.96617,-40448.14145,-18247.65125,-17492.54227,-21946.03794,-35237.14515,-39191.30286,-61400.64435,-0.016,0.842,0.482,192,0,0,0,0,0,0,0,0,0,1709547426,0, 2024-03-04 15:47:05.706
31,-72699.8535,-40429.74596,-18366.87545,-17472.91743,-21992.17194,-35222.57182,-39270.85272,-61430.46158,-0.016,0.842,0.482,192,0,0,0,0,0,0,0,0,0,1709547426,0, 2024-03-04 15:47:05.706
32,-72716.01381,-40457.55153,-18388.6684,-17487.02139,-21991.14376,-35233.32301,-39254.04421,-61430.05925,-0.018,0.846,0.486,192,255,112,26,112,15,48,0,0,0,1709547426,0, 2024-03-04 15:47:05.706
33,-72762.50544,-40500.48923,-18315.5335,-17528.95326,-21972.05537,-35269.53283,-39181.51279,-61420.96209,-0.018,0.846,0.486,192,0,0,0,0,0,0,0,0,0,1709547426,0, 2024-03-04 15:47:05.706
34,-72760.15851,-40492.21909,-18210.86028,-17528.7968,-21919.72994,-35273.75731,-39130.10378,-61391.54719,-0.018,0.846,0.486,192,0,0,0,0,0,0,0,0,0,1709547426,0, 2024-03-04 15:47:05.706
35,-72722.89815,-40451.27069,-18239.22464,-17497.19143,-21925.18376,-35239.46974,-39195.57204,-61403.84065,-0.018,0.846,0.486,192,0,0,0,0,0,0,0,0,0,1709547426,0, 2024-03-04 15:47:05.706
36,-72688.85645,-40428.31545,-18332.2526,-17464.20025,-21965.08163,-35214.39108,-39253.06073,-61431.22154,-0.018,0.846,0.486,192,0,0,0,0,0,0,0,0,0,1709547426,0, 2024-03-04 15:47:05.706
37,-72699.58528,-40448.36497,-18357.97946,-17473.49858,-21969.12729,-35219.06259,-39256.05586,-61421.67734,-0.018,0.846,0.486,192,0,0,0,0,0,0,0,0,0,1709547426,0, 2024-03-04 15:47:05.706
38,-72745.67458,-40493.44844,-18303.59767,-17525.19816,-21954.93394,-35264.77191,-39175.67899,-61418.16812,-0.018,0.846,0.486,192,0,0,0,0,0,0,0,0,0,1709547426,0, 2024-03-04 15:47:05.706
39,-72764.67356,-40513.85558,-18208.24512,-17549.80744,-21924.75908,-35283.32386,-39139.89385,-61429.23223,-0.018,0.846,0.486,192,0,0,0,0,0,0,0,0,0,1709547426,0, 2024-03-04 15:47:05.706
40,-72726.56384,-40451.15893,-18234.06139,-17496.05149,-21936.98549,-35238.28509,-39187.27954,-61428.33816,-0.018,0.846,0.486,192,0,0,0,0,0,0,0,0,0,1709547426,0, 2024-03-04 15:47:05.706
41,-72688.32,-40430.2377,-18324.72006,-17465.4743,-21959.71721,-35207.99848,-39253.88774,-61427.33233,-0.018,0.846,0.486,192,0,0,0,0,0,0,0,0,0,1709547426,0, 2024-03-04 15:47:05.706
42,-72702.98275,-40441.81591,-18345.82011,-17471.71044,-21955.04569,-35210.72539,-39243.33772,-61397.87273,-0.014,0.836,0.488,192,255,144,26,32,15,64,0,0,0,1709547426,0, 2024-03-04 15:47:05.706
43,-72749.87671,-40483.34545,-18287.16913,-17507.58499,-21940.15943,-35244.61064,-39168.10175,-61382.003,-0.014,0.836,0.488,192,0,0,0,0,0,0,0,0,0,1709547426,0, 2024-03-04 15:47:05.707
44,-72759.82323,-40486.29588,-18196.19753,-17525.13111,-21911.72801,-35270.91864,-39111.59654,-61400.24202,-0.014,0.836,0.488,192,0,0,0,0,0,0,0,0,0,1709547426,0, 2024-03-04 15:47:05.707
45,-72727.972,-40477.82457,-18235.02251,-17506.89209,-21934.23622,-35247.00227,-39151.22618,-61433.09908,-0.014,0.836,0.488,192,0,0,0,0,0,0,0,0,0,1709547426,0, 2024-03-04 15:47:05.707
46,-72683.64849,-40434.46218,-18310.07967,-17456.69007,-21944.54037,-35197.76138,-39263.11901,-61399.48206,-0.014,0.836,0.488,192,0,0,0,0,0,0,0,0,0,1709547426,0, 2024-03-04 15:47:05.707
47,-72694.08675,-40432.20466,-18335.04657,-17456.15363,-21949.88244,-35194.76625,-39240.94608,-61373.30817,-0.014,0.836,0.488,192,0,0,0,0,0,0,0,0,0,1709547426,0, 2024-03-04 15:47:05.707
48,-72744.33348,-40485.20064,-18279.12251,-17503.15934,-21938.72892,-35235.49113,-39163.74316,-61363.76397,-0.014,0.836,0.488,192,0,0,0,0,0,0,0,0,0,1709547426,0, 2024-03-04 15:47:05.707
49,-72752.00012,-40489.06749,-18203.23833,-17510.84834,-21905.51423,-35244.7224,-39113.63055,-61350.55409,-0.014,0.836,0.488,192,0,0,0,0,0,0,0,0,0,1709547426,0, 2024-03-04 15:47:05.707
50,-72720.03713,-40472.97424,-18244.76787,-17502.08646,-21923.97677,-35244.40947,-39169.57696,-61388.75322,-0.014,0.836,0.488,192,0,0,0,0,0,0,0,0,0,1709547426,0, 2024-03-04 15:47:05.707
51,-72669.18691,-40421.05114,-18296.48981,-17447.59291,-21946.41792,-35189.62535,-39251.87609,-61386.40629,-0.014,0.836,0.488,192,0,0,0,0,0,0,0,0,0,1709547426,0, 2024-03-04 15:47:05.707
52,-72688.45411,-40435.73623,-18331.6044,-17459.10406,-21957.05735,-35196.06265,-39248.14334,-61376.41506,-0.012,0.84,0.48,192,255,160,26,64,15,0,0,0,0,1709547426,0, 2024-03-04 15:47:05.707
53,-72740.31016,-40493.91782,-18288.51024,-17503.11464,-21950.66475,-35248.79041,-39169.66637,-61385.42281,-0.012,0.84,0.48,192,0,0,0,0,0,0,0,0,0,1709547426,0, 2024-03-04 15:47:05.707
54,-72759.15268,-40513.36384,-18204.51238,-17530.8308,-21928.00008,-35271.70095,-39132.24955,-61409.33918,-0.012,0.84,0.48,192,0,0,0,0,0,0,0,0,0,1709547426,0, 2024-03-04 15:47:05.707
55,-72725.22273,-40449.23668,-18240.61045,-17499.76188,-21949.45776,-35248.5669,-39175.8131,-61433.34495,-0.012,0.84,0.48,192,0,0,0,0,0,0,0,0,0,1709547426,0, 2024-03-04 15:47:05.707
56,-72691.94099,-40444.40871,-18326.19528,-17471.19635,-21958.15259,-35220.22488,-39232.69829,-61442.79974,-0.012,0.84,0.48,192,0,0,0,0,0,0,0,0,0,1709547426,0, 2024-03-04 15:47:05.707
57,-72702.49101,-40466.58164,-18350.60338,-17485.63558,-21973.53059,-35237.50278,-39264.66128,-61442.17389,-0.012,0.84,0.48,192,0,0,0,0,0,0,0,0,0,1709547426,0, 2024-03-04 15:47:05.707
58,-72741.60656,-40495.68361,-18287.72793,-17515.67632,-21955.62684,-35256.88174,-39182.47392,-61428.60638,-0.012,0.84,0.48,192,0,0,0,0,0,0,0,0,0,1709547426,0, 2024-03-04 15:47:05.707
59,-72749.72025,-40500.6457,-18191.16839,-17521.21955,-21919.95346,-35255.74181,-39136.36227,-61393.15652,-0.012,0.84,0.48,192,0,0,0,0,0,0,0,0,0,1709547426,0, 2024-03-04 15:47:06.186
60,-72714.60566,-40440.25128,-18219.4657,-17489.54713,-21916.7348,-35235.69229,-39186.76545,-61411.90963,-0.012,0.84,0.48,192,0,0,0,0,0,0,0,0,0,1709547426,0, 2024-03-04 15:47:06.186
61,-72680.85452,-40430.1483,-18305.78814,-17466.30132,-21945.47915,-35216.29098,-39256.90523,-61431.84739,-0.012,0.84,0.48,192,0,0,0,0,0,0,0,0,0,1709547426,0, 2024-03-04 15:47:06.186
62,-72697.39481,-40461.61955,-18334.57718,-17481.67932,-21949.41306,-35227.26568,-39240.92373,-61422.14673,-0.014,0.848,0.478,192,255,144,26,128,14,240,0,0,0,1709547426,0, 2024-03-04 15:47:06.186
63,-72751.28487,-40503.08204,-18281.80471,-17521.57718,-21929.98939,-35255.51829,-39160.3904,-61418.99513,-0.014,0.848,0.478,192,0,0,0,0,0,0,0,0,0,1709547426,0, 2024-03-04 15:47:06.186
64,-72767.35577,-40509.45228,-18205.74173,-17538.76567,-21928.42477,-35274.02553,-39126.99689,-61427.73466,-0.014,0.848,0.478,192,0,0,0,0,0,0,0,0,0,1709547426,0, 2024-03-04 15:47:06.186
65,-72731.39182,-40478.13749,-18224.40543,-17512.18945,-21937.8125,-35254.55716,-39180.21639,-61440.00577,-0.014,0.848,0.478,192,0,0,0,0,0,0,0,0,0,1709547426,0, 2024-03-04 15:47:06.186
66,-72697.50657,-40450.37662,-18313.0301,-17474.39265,-21946.41792,-35225.72341,-39247.24928,-61446.756,-0.014,0.848,0.478,192,0,0,0,0,0,0,0,0,0,1709547426,0, 2024-03-04 15:47:06.186
67,-72717.48903,-40474.74003,-18345.46248,-17494.17394,-21962.66764,-35242.24135,-39223.8917,-61434.12726,-0.014,0.848,0.478,192,0,0,0,0,0,0,0,0,0,1709547426,0, 2024-03-04 15:47:06.186
68,-72772.76489,-40520.22583,-18300.96016,-17536.26228,-21954.95629,-35272.12563,-39166.20185,-61429.25458,-0.014,0.848,0.478,192,0,0,0,0,0,0,0,0,0,1709547426,0, 2024-03-04 15:47:06.186
69,-72778.06226,-40518.34828,-18211.68729,-17546.29821,-21922.16628,-35279.79228,-39122.95122,-61425.92417,-0.014,0.848,0.478,192,0,0,0,0,0,0,0,0,0,1709547426,0, 2024-03-04 15:47:06.186
70,-72734.00697,-40482.96547,-18210.41324,-17496.96791,-21930.7717,-35236.78753,-39190.85582,-61407.23811,-0.014,0.848,0.478,192,0,0,0,0,0,0,0,0,0,1709547426,0, 2024-03-04 15:47:06.186
71,-72701.73105,-40446.9121,-18322.93192,-17470.43639,-21953.86105,-35213.3629,-39258.67102,-61400.33143,-0.014,0.848,0.478,192,0,0,0,0,0,0,0,0,0,1709547426,0, 2024-03-04 15:47:06.186
72,-72714.13627,-40467.74393,-18356.05721,-17478.2595,-21948.72015,-35208.53492,-39234.46408,-61401.62783,-0.014,0.844,0.486,192,255,144,26,96,15,48,0,0,0,1709547426,0, 2024-03-04 15:47:06.186
73,-72752.96125,-40497.76232,-18252.74745,-17509.14961,-21923.7756,-35235.11115,-39151.71792,-61388.86498,-0.014,0.844,0.486,192,0,0,0,0,0,0,0,0,0,1709547426,0, 2024-03-04 15:47:06.186
74,-72776.78821,-40512.64858,-18183.07706,-17532.01545,-21918.70176,-35259.18397,-39120.7831,-61396.59868,-0.014,0.844,0.486,192,0,0,0,0,0,0,0,0,0,1709547426,0, 2024-03-04 15:47:06.186
75,-72739.08082,-40479.14332,-18223.80194,-17504.07577,-21943.24397,-35241.36963,-39174.42729,-61411.93198,-0.014,0.844,0.486,192,0,0,0,0,0,0,0,0,0,1709547426,0, 2024-03-04 15:47:06.186
76,-72699.96526,-40461.32898,-18322.23902,-17479.5559,-21963.96404,-35212.1559,-39258.91689,-61432.85321,-0.014,0.844,0.486,192,0,0,0,0,0,0,0,0,0,1709547426,0, 2024-03-04 15:47:06.186
77,-72719.076,-40470.15792,-18345.95422,-17494.06218,-21963.89699,-35222.72828,-39239.58263,-61420.06802,-0.014,0.844,0.486,192,0,0,0,0,0,0,0,0,0,1709547426,0, 2024-03-04 15:47:06.186
78,-72768.98745,-40515.77783,-18278.51901,-17519.78904,-21947.98254,-35248.96923,-39168.7723,-61401.3149,-0.014,0.844,0.486,192,0,0,0,0,0,0,0,0,0,1709547426,0, 2024-03-04 15:47:06.186
79,-72785.25952,-40516.18016,-18216.93995,-17532.19426,-21938.28189,-35262.33557,-39154.86952,-61400.77846,-0.014,0.844,0.486,192,0,0,0,0,0,0,0,0,0,1709547426,0, 2024-03-04 15:47:06.186
80,-72740.44427,-40478.80804,-18223.48901,-17506.04272,-21939.28771,-35243.91773,-39194.94619,-61428.04759,-0.014,0.844,0.486,192,0,0,0,0,0,0,0,0,0,1709547426,0, 2024-03-04 15:47:06.186
81,-72709.37535,-40458.28914,-18317.79102,-17480.7629,-21963.02527,-35224.96345,-39268.46108,-61462.04459,-0.014,0.844,0.486,192,0,0,0,0,0,0,0,0,0,1709547426,0, 2024-03-04 15:47:06.186
82,-72727.65907,-40480.61853,-18345.23897,-17500.05245,-21968.41204,-35240.14029,-39242.44365,-61465.86674,-0.018,0.844,0.488,192,255,112,26,96,15,64,0,0,0,1709547426,0, 2024-03-04 15:47:06.186
83,-72766.19348,-40504.98194,-18285.82803,-17521.13015,-21956.47621,-35262.15676,-39160.4351,-61435.08839,-0.018,0.844,0.488,192,0,0,0,0,0,0,0,0,0,1709547426,0, 2024-03-04 15:47:06.186
84,-72772.92136,-40506.77008,-18192.91183,-17524.32645,-21906.22948,-35267.1859,-39123.17474,-61433.90375,-0.018,0.844,0.488,192,0,0,0,0,0,0,0,0,0,1709547426,0, 2024-03-04 15:47:06.186
85,-72753.72121,-40501.91975,-18230.10513,-17524.28174,-21919.21585,-35269.30931,-39177.22126,-61443.515,-0.018,0.844,0.488,192,0,0,0,0,0,0,0,0,0,1709547426,0, 2024-03-04 15:47:06.186
86,-72707.63191,-40469.75559,-18325.03299,-17483.51216,-21948.98837,-35218.21323,-39254.37948,-61430.84156,-0.018,0.844,0.488,192,0,0,0,0,0,0,0,0,0,1709547426,0, 2024-03-04 15:47:06.186
87,-72720.75238,-40488.10637,-18330.84444,-17477.63365,-21953.36931,-35214.32402,-39227.91502,-61435.44602,-0.018,0.844,0.488,192,0,0,0,0,0,0,0,0,0,1709547426,0, 2024-03-04 15:47:06.186
88,-72761.72313,-40504.75842,-18279.05545,-17519.05143,-21938.99714,-35251.18205,-39167.76647,-61423.77841,-0.018,0.844,0.488,192,0,0,0,0,0,0,0,0,0,1709547426,0, 2024-03-04 15:47:06.186
89,-72751.50839,-40495.41539,-18157.66313,-17523.0524,-21895.97003,-35256.74763,-39118.27971,-61417.38581,-0.018,0.844,0.488,192,0,0,0,0,0,0,0,0,0,1709547426,0, 2024-03-04 15:47:06.186
90,-72732.21883,-40473.39892,-18197.76216,-17490.70942,-21917.8971,-35239.60385,-39171.05218,-61441.97273,-0.018,0.844,0.488,192,0,0,0,0,0,0,0,0,0,1709547426,0, 2024-03-04 15:47:06.186
91,-72717.75725,-40460.9937,-18303.46355,-17466.41308,-21946.88731,-35214.86046,-39244.29884,-61451.69573,-0.018,0.844,0.488,192,0,0,0,0,0,0,0,0,0,1709547426,0, 2024-03-04 15:47:06.186
92,-72740.1537,-40486.20647,-18340.63451,-17481.54521,-21955.89506,-35221.0519,-39224.02581,-61425.5889,-0.014,0.842,0.486,192,255,144,26,80,15,48,0,0,0,1709547426,0, 2024-03-04 15:47:06.186
93,-72784.03017,-40534.24037,-18261.48698,-17518.91732,-21928.15655,-35250.80207,-39141.45847,-61409.22742,-0.014,0.842,0.486,192,0,0,0,0,0,0,0,0,0,1709547426,0, 2024-03-04 15:47:06.186
94,-72797.06124,-40535.46972,-18196.93514,-17538.78803,-21917.80769,-35263.87784,-39124.78407,-61415.86589,-0.014,0.842,0.486,192,0,0,0,0,0,0,0,0,0,1709547426,0, 2024-03-04 15:47:06.186
95,-72754.68233,-40466.51458,-18212.06727,-17490.77648,-21925.74256,-35233.8818,-39163.5867,-61434.32843,-0.014,0.842,0.486,192,0,0,0,0,0,0,0,0,0,1709547426,0, 2024-03-04 15:47:06.186
96,-72728.88842,-40453.43881,-18308.91738,-17473.52093,-21952.65406,-35223.19767,-39222.86352,-61452.36629,-0.014,0.842,0.486,192,0,0,0,0,0,0,0,0,0,1709547426,0, 2024-03-04 15:47:06.186
97,-72736.62212,-40474.29299,-18333.5043,-17485.68028,-21934.30328,-35217.65443,-39185.89374,-61429.76867,-0.014,0.842,0.486,192,0,0,0,0,0,0,0,0,0,1709547426,0, 2024-03-04 15:47:06.186
98,-72775.80473,-40501.42801,-18251.89808,-17503.71814,-21936.09142,-35221.45423,-39167.65471,-61386.36159,-0.014,0.842,0.486,192,0,0,0,0,0,0,0,0,0,1709547426,0, 2024-03-04 15:47:06.186
99,-72800.50341,-40534.55329,-18179.03139,-17532.0825,-21910.81159,-35250.26563,-39119.71022,-61390.45195,-0.014,0.842,0.486,192,0,0,0,0,0,0,0,0,0,1709547426,0, 2024-03-04 15:47:06.186
100,-72766.52876,-40488.08402,-18215.82236,-17514.22346,-21924.69203,-35248.6116,-39176.88598,-61415.3965,-0.014,0.842,0.486,192,0,0,0,0,0,0,0,0,0,1709547426,0, 2024-03-04 15:47:06.186
101,-72726.42973,-40435.17744,-18317.09812,-17457.51708,-21957.16911,-35186.36199,-39241.95191,-61434.37313,-0.014,0.842,0.486,192,0,0,0,0,0,0,0,0,0,1709547426,0, 2024-03-04 15:47:06.186
102,-72733.1129,-40463.43004,-18330.3527,-17467.59772,-21945.36739,-35193.62631,-39220.74011,-61413.80953,-0.012,0.836,0.48,192,255,160,26,32,15,0,0,0,0,1709547426,0, 2024-03-04 15:47:06.186
103,-72781.88441,-40503.81964,-18265.08561,-17510.11074,-21908.75523,-35233.43476,-39155.69653,-61399.70558,-0.012,0.836,0.48,192,0,0,0,0,0,0,0,0,0,1709547426,0, 2024-03-04 15:47:06.186
104,-72788.58993,-40509.60875,-18180.10428,-17523.76765,-21890.4268,-35251.56203,-39109.71899,-61406.47816,-0.012,0.836,0.48,192,0,0,0,0,0,0,0,0,0,1709547426,0, 2024-03-04 15:47:06.186
105,-72749.0944,-40455.62928,-18191.9507,-17481.54521,-21919.8864,-35218.79437,-39162.75968,-61425.74536,-0.012,0.836,0.48,192,0,0,0,0,0,0,0,0,0,1709547426,0, 2024-03-04 15:47:06.186
106,-72721.40059,-40438.03846,-18292.48885,-17440.84268,-21954.46455,-35181.91399,-39231.93833,-61442.79974,-0.012,0.836,0.48,192,0,0,0,0,0,0,0,0,0,1709547426,0, 2024-03-04 15:47:06.187
107,-72733.22466,-40457.81975,-18333.28078,-17461.60745,-21954.35279,-35208.60198,-39232.16185,-61452.20982,-0.012,0.836,0.48,192,0,0,0,0,0,0,0,0,0,1709547426,0, 2024-03-04 15:47:06.187
108,-72773.07782,-40495.46009,-18245.81841,-17494.33041,-21918.81352,-35220.29194,-39143.62659,-61437.32356,-0.012,0.836,0.48,192,0,0,0,0,0,0,0,0,0,1709547426,0, 2024-03-04 15:47:06.187
109,-72782.4432,-40480.05974,-18161.17235,-17498.82311,-21903.8155,-35219.8002,-39119.03967,-61418.16812,-0.012,0.836,0.48,192,0,0,0,0,0,0,0,0,0,1709547426,0, 2024-03-04 15:47:06.187
110,-72749.00499,-40451.74008,-18192.5989,-17467.70948,-21911.99623,-35206.50091,-39161.91031,-61445.52665,-0.012,0.836,0.48,192,0,0,0,0,0,0,0,0,0,1709547426,0, 2024-03-04 15:47:06.187
111,-72720.08183,-40442.30764,-18299.44024,-17453.49377,-21933.40921,-35197.29199,-39242.33189,-61473.46633,-0.012,0.836,0.48,192,0,0,0,0,0,0,0,0,0,1709547426,0, 2024-03-04 15:47:06.187
112,-72730.36363,-40451.00247,-18300.8931,-17458.14293,-21934.54915,-35195.66032,-39232.72064,-61457.30602,-0.014,0.844,0.48,192,255,144,26,96,15,0,0,0,0,1709547426,0, 2024-03-04 15:47:06.187
113,-72770.57442,-40480.05974,-18236.16245,-17496.8338,-21914.7902,-35221.25306,-39146.77818,-61424.35955,-0.014,0.844,0.48,192,0,0,0,0,0,0,0,0,0,1709547426,0, 2024-03-04 15:47:06.187
114,-72783.62784,-40470.5379,-18135.75842,-17498.59959,-21879.42974,-35217.27445,-39099.28073,-61414.7036,-0.014,0.844,0.48,192,0,0,0,0,0,0,0,0,0,1709547426,0, 2024-03-04 15:47:06.187
115,-72749.49673,-40446.50977,-18162.51345,-17465.40725,-21889.91271,-35198.0743,-39142.86663,-61432.78616,-0.014,0.844,0.48,192,0,0,0,0,0,0,0,0,0,1709547426,0, 2024-03-04 15:47:06.187
116,-72723.83693,-40440.65362,-18276.84263,-17446.92236,-21928.24595,-35167.13949,-39232.49712,-61431.84739,-0.014,0.844,0.48,192,0,0,0,0,0,0,0,0,0,1709547426,0, 2024-03-04 15:47:06.187
117,-72733.89521,-40452.81296,-18298.45676,-17460.9816,-21923.75325,-35174.24735,-39215.28628,-61404.69002,-0.014,0.844,0.48,192,0,0,0,0,0,0,0,0,0,1709547426,0, 2024-03-04 15:47:06.187
118,-72788.81345,-40497.58351,-18252.36747,-17506.82503,-21904.5531,-35214.03345,-39110.94834,-61398.36447,-0.014,0.844,0.48,192,0,0,0,0,0,0,0,0,0,1709547426,0, 2024-03-04 15:47:06.187
119,-72809.64527,-40504.40079,-18175.74569,-17525.30992,-21891.09735,-35231.9819,-39104.48868,-61410.99321,-0.014,0.844,0.48,192,0,0,0,0,0,0,0,0,0,1709547426,0, 2024-03-04 15:47:06.187
120,-72761.00788,-40462.60303,-18168.25785,-17486.14967,-21899.3228,-35197.49316,-39176.26013,-61404.39944,-0.014,0.844,0.48,192,0,0,0,0,0,0,0,0,0,1709547426,0, 2024-03-04 15:47:06.187
121,-72728.91077,-40454.86932,-18271.52291,-17462.56858,-21906.49771,-35175.20847,-39235.60402,-61395.45875,-0.014,0.844,0.48,192,0,0,0,0,0,0,0,0,0,1709547426,0, 2024-03-04 15:47:06.187
122,-72746.41219,-40470.69436,-18306.45869,-17470.23522,-21934.07976,-35172.34745,-39228.58557,-61377.37618,-0.014,0.838,0.48,192,255,144,26,48,15,0,0,0,0,1709547426,0, 2024-03-04 15:47:06.187
123,-72791.04862,-40498.0976,-18254.42383,-17514.20111,-21922.18863,-35207.84202,-39148.2087,-61378.00203,-0.014,0.838,0.48,192,0,0,0,0,0,0,0,0,0,1709547426,0, 2024-03-04 15:47:06.187
124,-72809.06413,-40518.25887,-18180.14898,-17529.06502,-21892.10318,-35237.56984,-39112.49061,-61405.74055,-0.014,0.838,0.48,192,0,0,0,0,0,0,0,0,0,1709547426,0, 2024-03-04 15:47:06.187
125,-72772.40727,-40484.50774,-18194.16352,-17503.13699,-21924.08853,-35211.17243,-39189.67118,-61433.2779,-0.014,0.838,0.48,192,0,0,0,0,0,0,0,0,0,1709547426,0, 2024-03-04 15:47:06.187
126,-72742.54534,-40461.53014,-18294.43345,-17482.77455,-21949.03308,-35194.40862,-39256.39114,-61437.52473,-0.014,0.838,0.48,192,0,0,0,0,0,0,0,0,0,1709547426,0, 2024-03-04 15:47:06.187
127,-72751.48603,-40476.90814,-18330.53152,-17480.33821,-21945.83678,-35180.72935,-39229.79256,-61396.33046,-0.014,0.838,0.48,192,0,0,0,0,0,0,0,0,0,1709547426,0, 2024-03-04 15:47:06.187
128,-72787.76291,-40510.70398,-18253.97679,-17513.57526,-21922.56861,-35205.94212,-39165.55365,-61372.21293,-0.014,0.838,0.48,192,0,0,0,0,0,0,0,0,0,1709547426,0, 2024-03-04 15:47:06.187
129,-72796.21187,-40514.95081,-18174.09166,-17533.3789,-21892.43846,-35228.76325,-39107.88615,-61381.3995,-0.014,0.838,0.48,192,0,0,0,0,0,0,0,0,0,1709547426,0, 2024-03-04 15:47:06.187
130,-72761.14199,-40484.0607,-18176.17037,-17510.9601,-21903.97196,-35217.00623,-39169.77813,-61401.76194,-0.014,0.838,0.48,192,0,0,0,0,0,0,0,0,0,1709547426,0, 2024-03-04 15:47:06.187
131,-72728.41903,-40465.79933,-18285.20218,-17476.3596,-21926.90485,-35181.3999,-39258.80513,-61441.0563,-0.014,0.838,0.48,192,0,0,0,0,0,0,0,0,0,1709547426,0, 2024-03-04 15:47:06.187
