Sample Index, EXG Channel 0, EXG Channel 1, EXG Channel 2, EXG Channel 3, EXG Channel 4, EXG Channel 5, EXG Channel 6, EXG Channel 7, Accel Channel 0, Accel Channel 1, Accel Channel 2, Other, Other, Other, Other, Other, Other, Other, Analog Channel 0, Analog Channel 1, Analog Channel 2, Timestamp, Other, Timestamp (Formatted)
0,-65866.47819,-47391.08502,-54629.94333,-39190.63231,-44249.145,-55678.21779,-30105.81048,-50942.28547,-0.026,0.88,0.41,192,255,48,27,128,12,208,0,0,0,1.71E+09,0, 2024-03-15 14:22:17.738
1,-65779.4405,-47308.94235,-54545.38668,-39102.78995,-44161.325,-55617.71162,-30070.65118,-50877.13014,-0.026,0.88,0.41,192,0,0,0,0,0,0,0,0,0,1.71E+09,0, 2024-03-15 14:22:17.738
2,-65722.60001,-47252.12422,-54481.30423,-39037.79108,-44097.86839,-55562.9722,-30009.09448,-50824.24591,-0.026,0.88,0.41,192,0,0,0,0,0,0,0,0,0,1.71E+09,0, 2024-03-15 14:22:17.738
3,-65792.89625,-47313.59152,-54545.72195,-39100.823,-44156.31821,-55599.78552,-30021.23148,-50837.29933,-0.026,0.88,0.41,192,0,0,0,0,0,0,0,0,0,1.71E+09,0, 2024-03-15 14:22:17.738
4,-65876.44707,-47393.11902,-54636.58179,-39192.04047,-44243.51236,-55668.47243,-30080.73182,-50909.04843,-0.026,0.88,0.41,192,0,0,0,0,0,0,0,0,0,1.71E+09,0, 2024-03-15 14:22:17.738
5,-65869.00394,-47393.85663,-54640.53805,-39201.11527,-44251.38018,-55686.6891,-30110.23612,-50942.6431,-0.026,0.88,0.41,192,0,0,0,0,0,0,0,0,0,1.71E+09,0, 2024-03-15 14:22:17.738
6,-65778.65818,-47317.72659,-54556.69666,-39119.82198,-44176.21126,-55633.35784,-30082.47525,-50881.71224,-0.026,0.88,0.41,192,0,0,0,0,0,0,0,0,0,1.71E+09,0, 2024-03-15 14:22:17.738
7,-65724.76813,-47266.36228,-54494.58116,-39059.33816,-44116.26388,-55584.65339,-30026.84176,-50817.83096,-0.026,0.88,0.41,192,0,0,0,0,0,0,0,0,0,1.71E+09,0, 2024-03-15 14:22:17.738
8,-65785.98956,-47317.88305,-54545.92312,-39115.79867,-44161.10148,-55618.98567,-30030.77567,-50838.59573,-0.026,0.88,0.41,192,0,0,0,0,0,0,0,0,0,1.71E+09,0, 2024-03-15 14:22:17.738
9,-65876.11179,-47403.60199,-54632.8267,-39212.49231,-44240.40547,-55699.65311,-30082.20703,-50934.23884,-0.026,0.88,0.41,192,0,0,0,0,0,0,0,0,0,1.71E+09,0, 2024-03-15 14:22:17.738
10,-65865.58412,-47399.22105,-54632.98316,-39213.87812,-44244.07116,-55712.97475,-30108.60444,-50949.84036,-0.024,0.88,0.404,192,255,64,27,128,12,160,0,0,0,1.71E+09,0, 2024-03-15 14:22:17.738
11,-65764.26366,-47300.73926,-54536.15541,-39114.52462,-44155.42414,-55643.34907,-30067.99132,-50864.43435,-0.024,0.88,0.404,192,0,0,0,0,0,0,0,0,0,1.71E+09,0, 2024-03-15 14:22:17.738
12,-65706.70792,-47230.7336,-54470.79891,-39045.90476,-44090.17939,-55588.00615,-30016.78348,-50806.49862,-0.024,0.88,0.404,192,0,0,0,0,0,0,0,0,0,1.71E+09,0, 2024-03-15 14:22:17.738
13,-65770.79037,-47282.72376,-54529.09226,-39102.67819,-44138.41446,-55623.61248,-30024.20426,-50837.61225,-0.024,0.88,0.404,192,0,0,0,0,0,0,0,0,0,1.71E+09,0, 2024-03-15 14:22:17.738
14,-65850.11671,-47355.79161,-54613.0007,-39185.89374,-44220.80299,-55688.99133,-30082.72112,-50923.66647,-0.024,0.88,0.404,192,0,0,0,0,0,0,0,0,0,1.71E+09,0, 2024-03-15 14:22:17.738
15,-65837.26446,-47349.2649,-54609.04445,-39183.36799,-44222.76994,-55697.90968,-30106.05635,-50959.42926,-0.024,0.88,0.404,192,0,0,0,0,0,0,0,0,0,1.71E+09,0, 2024-03-15 14:22:17.738
16,-65748.90801,-47270.89969,-54521.40326,-39094.58686,-44144.33767,-55638.34228,-30073.64632,-50891.52466,-0.024,0.88,0.404,192,0,0,0,0,0,0,0,0,0,1.71E+09,0, 2024-03-15 14:22:17.738
17,-65693.63215,-47216.07086,-54459.95831,-39027.93396,-44086.3796,-55584.11695,-30024.85246,-50825.38585,-0.024,0.88,0.404,192,0,0,0,0,0,0,0,0,0,1.71E+09,0, 2024-03-15 14:22:17.738
18,-65754.45125,-47267.43517,-54513.87072,-39082.31575,-44135.62049,-55616.52698,-30028.80872,-50878.96298,-0.024,0.88,0.404,192,0,0,0,0,0,0,0,0,0,1.71E+09,0, 2024-03-15 14:22:17.738
19,-65835.99041,-47341.5312,-54596.25925,-39165.46424,-44209.56006,-55674.99914,-30077.60257,-50928.00271,-0.024,0.88,0.404,192,0,0,0,0,0,0,0,0,0,1.71E+09,0, 2024-03-15 14:22:17.738
20,-65842.62888,-47349.48842,-54610.02792,-39178.04827,-44224.24516,-55690.51125,-30111.8231,-50940.87731,-0.026,0.888,0.4,192,255,48,27,192,12,128,0,0,0,1.71E+09,0, 2024-03-15 14:22:17.738
21,-65757.62519,-47269.60328,-54524.64426,-39092.5305,-44145.90229,-55631.12266,-30083.32462,-50892.44108,-0.026,0.888,0.4,192,0,0,0,0,0,0,0,0,0,1.71E+09,0, 2024-03-15 14:22:17.738
22,-65708.47371,-47218.73071,-54465.03216,-39031.51024,-44087.60894,-55579.93717,-30032.22853,-50846.55295,-0.026,0.888,0.4,192,0,0,0,0,0,0,0,0,0,1.71E+09,0, 2024-03-15 14:22:17.738
23,-65771.57268,-47270.74322,-54514.04953,-39079.0971,-44129.47376,-55599.22673,-30030.88743,-50861.19334,-0.026,0.888,0.4,192,0,0,0,0,0,0,0,0,0,1.71E+09,0, 2024-03-15 14:22:17.738
24,-65863.21483,-47358.11619,-54601.71307,-39171.34275,-44209.4483,-55665.87963,-30079.68129,-50945.54883,-0.026,0.888,0.4,192,0,0,0,0,0,0,0,0,0,1.71E+09,0, 2024-03-15 14:22:17.738
25,-65862.7678,-47365.62638,-54607.8151,-39183.23388,-44214.5892,-55682.01759,-30104.02234,-50967.25237,-0.026,0.888,0.4,192,0,0,0,0,0,0,0,0,0,1.71E+09,0, 2024-03-15 14:22:17.738
26,-65779.26168,-47293.07262,-54525.60538,-39101.80647,-44137.051,-55623.85835,-30071.20998,-50896.73262,-0.026,0.888,0.4,192,0,0,0,0,0,0,0,0,0,1.71E+09,0, 2024-03-15 14:22:17.738
27,-65729.41729,-47242.60238,-54467.78142,-39038.84161,-44079.47291,-55566.66023,-30018.37045,-50820.2673,-0.026,0.888,0.4,192,0,0,0,0,0,0,0,0,0,1.71E+09,0, 2024-03-15 14:22:17.738
28,-65790.92929,-47294.05609,-54521.76088,-39094.60921,-44125.98689,-55595.73985,-30017.49873,-50848.92223,-0.026,0.888,0.4,192,0,0,0,0,0,0,0,0,0,1.71E+09,0, 2024-03-15 14:22:17.738
29,-65891.42274,-47388.51457,-54623.43897,-39200.15415,-44224.22281,-55675.49088,-30084.46456,-50930.95314,-0.026,0.888,0.4,192,0,0,0,0,0,0,0,0,0,1.71E+09,0, 2024-03-15 14:22:17.738
30,-65891.98153,-47392.29201,-54627.99872,-39211.82176,-44231.88945,-55693.55109,-30117.79101,-50970.53808,-0.026,0.882,0.4,192,255,48,27,144,12,128,0,0,0,1.71E+09,0, 2024-03-15 14:22:17.738
31,-65796.65134,-47304.24849,-54535.32839,-39119.10672,-44148.67391,-55626.58526,-30085.02335,-50875.85609,-0.026,0.882,0.4,192,0,0,0,0,0,0,0,0,0,1.71E+09,0, 2024-03-15 14:22:17.738
32,-65738.98384,-47247.02802,-54470.17306,-39055.87364,-44093.04042,-55575.28801,-30032.40735,-50803.86112,-0.026,0.882,0.4,192,0,0,0,0,0,0,0,0,0,1.71E+09,0, 2024-03-15 14:22:17.738
33,-65806.352,-47304.3826,-54528.06408,-39120.91722,-44149.25506,-55620.79616,-30035.80481,-50856.90181,-0.026,0.882,0.4,192,0,0,0,0,0,0,0,0,0,1.71E+09,0, 2024-03-15 14:22:17.738
34,-65892.8309,-47382.41254,-54619.63917,-39213.72166,-44238.59498,-55694.3781,-30091.05832,-50925.90164,-0.026,0.882,0.4,192,0,0,0,0,0,0,0,0,0,1.71E+09,0, 2024-03-15 14:22:17.738
35,-65889.50049,-47383.75364,-54628.66928,-39222.37178,-44253.92827,-55716.46162,-30131.33617,-50963.07259,-0.026,0.882,0.4,192,0,0,0,0,0,0,0,0,0,1.71E+09,0, 2024-03-15 14:22:17.738
36,-65798.7524,-47302.12507,-54543.24091,-39132.18249,-44177.53001,-55659.66584,-30100.91544,-50906.41092,-0.026,0.882,0.4,192,0,0,0,0,0,0,0,0,0,1.71E+09,0, 2024-03-15 14:22:17.738
37,-65738.13447,-47244.65874,-54473.07878,-39058.46644,-44112.53114,-55602.22186,-30050.73578,-50825.49761,-0.026,0.882,0.4,192,0,0,0,0,0,0,0,0,0,1.71E+09,0, 2024-03-15 14:22:17.738
38,-65797.63482,-47294.1902,-54525.24776,-39107.2603,-44160.69915,-55631.36853,-30050.44521,-50861.21569,-0.026,0.882,0.4,192,0,0,0,0,0,0,0,0,0,1.71E+09,0, 2024-03-15 14:22:17.738
39,-65889.45578,-47377.45045,-54617.404,-39200.84705,-44248.67561,-55706.44804,-30111.08549,-50978.98704,-0.026,0.882,0.4,192,0,0,0,0,0,0,0,0,0,1.71E+09,0, 2024-03-15 14:22:17.738
40,-65885.58893,-47376.60109,-54619.05803,-39204.73626,-44253.52594,-55720.19437,-30139.98629,-51023.84699,-0.026,0.878,0.406,192,255,48,27,112,12,176,0,0,0,1.71E+09,0, 2024-03-15 14:22:17.738
41,-65791.6222,-47286.94824,-54526.27594,-39105.58392,-44167.13645,-55647.5959,-30100.22254,-50941.9502,-0.026,0.878,0.406,192,0,0,0,0,0,0,0,0,0,1.71E+09,0, 2024-03-15 14:22:17.738
42,-65730.31136,-47224.45276,-54453.18573,-39028.62686,-44095.63322,-55582.26175,-30036.09539,-50838.39456,-0.026,0.878,0.406,192,0,0,0,0,0,0,0,0,0,1.71E+09,0, 2024-03-15 14:22:17.738
43,-65781.94389,-47269.15625,-54498.35861,-39073.82209,-44136.62632,-55602.95947,-30031.75915,-50866.22248,-0.026,0.878,0.406,192,0,0,0,0,0,0,0,0,0,1.71E+09,0, 2024-03-15 14:22:17.738
44,-65871.68615,-47355.38928,-54594.24759,-39170.78396,-44227.91084,-55676.49671,-30090.52188,-50954.06484,-0.026,0.878,0.406,192,0,0,0,0,0,0,0,0,0,1.71E+09,0, 2024-03-15 14:22:17.738
45,-65870.90383,-47362.76536,-54604.10471,-39182.63038,-44240.22666,-55693.93107,-30122.23901,-50973.84613,-0.026,0.878,0.406,192,0,0,0,0,0,0,0,0,0,1.71E+09,0, 2024-03-15 14:22:17.738
46,-65779.77577,-47282.58965,-54516.32941,-39093.53633,-44159.00042,-55632.10614,-30087.77262,-50915.19516,-0.026,0.878,0.406,192,0,0,0,0,0,0,0,0,0,1.71E+09,0, 2024-03-15 14:22:17.738
47,-65711.5806,-47215.84734,-54441.96516,-39017.36158,-44088.23479,-55569.05187,-30026.97587,-50867.56359,-0.026,0.878,0.406,192,0,0,0,0,0,0,0,0,0,1.71E+09,0, 2024-03-15 14:22:17.738
48,-65777.04886,-47270.13973,-54498.60448,-39072.88332,-44140.71669,-55600.12079,-30037.81647,-50913.60818,-0.026,0.878,0.406,192,0,0,0,0,0,0,0,0,0,1.71E+09,0, 2024-03-15 14:22:17.738
49,-65879.82218,-47367.7945,-54601.82483,-39177.55654,-44238.84085,-55680.2518,-30104.64819,-50995.79555,-0.026,0.878,0.406,192,0,0,0,0,0,0,0,0,0,1.71E+09,0, 2024-03-15 14:22:17.738
50,-65882.72791,-47376.06464,-54609.49148,-39186.16196,-44245.70283,-55691.62884,-30123.60246,-50973.3991,-0.024,0.88,0.406,192,255,64,27,128,12,176,0,0,0,1.71E+09,0, 2024-03-15 14:22:17.738
51,-65793.96913,-47296.38067,-54523.1914,-39097.64905,-44164.18602,-55628.75338,-30090.29837,-50892.73165,-0.024,0.88,0.406,192,0,0,0,0,0,0,0,0,0,1.71E+09,0, 2024-03-15 14:22:17.738
52,-65731.96539,-47236.96974,-54456.47144,-39029.43153,-44099.2542,-55574.68451,-30038.44232,-50863.38381,-0.024,0.88,0.406,192,0,0,0,0,0,0,0,0,0,1.71E+09,0, 2024-03-15 14:22:17.738
53,-65793.72326,-47290.63628,-54516.21765,-39086.76375,-44153.23367,-55608.30153,-30039.11287,-50909.83074,-0.024,0.88,0.406,192,0,0,0,0,0,0,0,0,0,1.71E+09,0, 2024-03-15 14:22:17.738
54,-65879.21868,-47370.47671,-54605.60228,-39177.66829,-44239.60081,-55671.28875,-30098.27794,-50959.78689,-0.024,0.88,0.406,192,0,0,0,0,0,0,0,0,0,1.71E+09,0, 2024-03-15 14:22:17.738
55,-65876.64823,-47373.00245,-54610.92199,-39185.46905,-44245.50167,-55680.96705,-30121.47905,-50945.10179,-0.024,0.88,0.406,192,0,0,0,0,0,0,0,0,0,1.71E+09,0, 2024-03-15 14:22:17.738
56,-65793.94678,-47302.25918,-54527.61704,-39107.28265,-44167.62819,-55630.34035,-30087.72791,-50904.28751,-0.024,0.88,0.406,192,0,0,0,0,0,0,0,0,0,1.71E+09,0, 2024-03-15 14:22:17.738
57,-65731.20543,-47243.42939,-54452.98457,-39034.68419,-44092.54868,-55572.06936,-30023.04197,-50829.23035,-0.024,0.88,0.406,192,0,0,0,0,0,0,0,0,0,1.71E+09,0, 2024-03-15 14:22:17.738
58,-65796.18195,-47300.78397,-54507.43342,-39091.2788,-44138.07918,-55606.28988,-30025.74653,-50856.72299,-0.024,0.88,0.406,192,0,0,0,0,0,0,0,0,0,1.71E+09,0, 2024-03-15 14:22:17.738
59,-65891.04276,-47391.08502,-54605.15524,-39192.21928,-44226.79326,-55685.52681,-30087.30323,-50963.2067,-0.024,0.88,0.406,192,0,0,0,0,0,0,0,0,0,1.71E+09,0, 2024-03-15 14:22:17.738
60,-65891.17687,-47394.52718,-54613.06776,-39201.91994,-44236.00218,-55701.39655,-30114.55001,-50977.22125,-0.028,0.886,0.4,192,255,32,27,176,12,128,0,0,0,1.71E+09,0, 2024-03-15 14:22:17.738
61,-65802.19457,-47313.63622,-54525.76185,-39115.01635,-44156.09469,-55645.49484,-30082.00587,-50909.78603,-0.028,0.886,0.4,192,0,0,0,0,0,0,0,0,0,1.71E+09,0, 2024-03-15 14:22:17.738
62,-65740.97314,-47252.61596,-54458.99719,-39042.86492,-44095.94614,-55589.9284,-30028.69696,-50842.86491,-0.028,0.886,0.4,192,0,0,0,0,0,0,0,0,0,1.71E+09,0, 2024-03-15 14:22:17.738
63,-65800.47349,-47303.91321,-54513.31192,-39094.85508,-44147.69043,-55623.1878,-30040.49868,-50877.44306,-0.028,0.886,0.4,192,0,0,0,0,0,0,0,0,0,1.71E+09,0, 2024-03-15 14:22:17.738
64,-65885.27601,-47384.29009,-54601.66837,-39185.51376,-44234.05757,-55692.07587,-30094.36638,-50975.47781,-0.028,0.886,0.4,192,0,0,0,0,0,0,0,0,0,1.71E+09,0, 2024-03-15 14:22:17.738
65,-65879.57631,-47384.55831,-54608.21743,-39191.74989,-44243.46766,-55705.68808,-30123.53541,-51000.9141,-0.028,0.886,0.4,192,0,0,0,0,0,0,0,0,0,1.71E+09,0, 2024-03-15 14:22:17.738
66,-65793.11976,-47307.19892,-54522.45379,-39104.57809,-44161.83909,-55645.45013,-30088.48787,-50912.04356,-0.028,0.886,0.4,192,0,0,0,0,0,0,0,0,0,1.71E+09,0, 2024-03-15 14:22:17.738
67,-65732.77005,-47248.19031,-54450.95056,-39032.22549,-44092.70514,-55588.632,-30035.0672,-50860.6569,-0.028,0.886,0.4,192,0,0,0,0,0,0,0,0,0,1.71E+09,0, 2024-03-15 14:22:17.738
68,-65782.81561,-47290.47981,-54490.6249,-39072.99508,-44129.45141,-55609.66499,-30031.53563,-50900.62182,-0.028,0.886,0.4,192,0,0,0,0,0,0,0,0,0,1.71E+09,0, 2024-03-15 14:22:17.738
69,-65875.84357,-47375.88583,-54582.53528,-39164.34665,-44215.70679,-55676.56376,-30082.16233,-50947.98517,-0.028,0.886,0.4,192,0,0,0,0,0,0,0,0,0,1.71E+09,0, 2024-03-15 14:22:17.738
70,-65879.66572,-47383.37366,-54595.43223,-39176.43895,-44232.11297,-55693.50638,-30118.46156,-50960.81507,-0.024,0.892,0.396,192,255,64,27,224,12,96,0,0,0,1.71E+09,0, 2024-03-15 14:22:17.738
71,-65792.94095,-47304.4273,-54512.3508,-39091.70349,-44155.13356,-55636.21886,-30085.80566,-50908.40023,-0.024,0.892,0.396,192,0,0,0,0,0,0,0,0,0,1.71E+09,0, 2024-03-15 14:22:17.739
72,-65730.1102,-47242.98236,-54444.28974,-39019.17207,-44089.21827,-55577.50083,-30029.70279,-50853.37023,-0.024,0.892,0.396,192,0,0,0,0,0,0,0,0,0,1.71E+09,0, 2024-03-15 14:22:17.739
73,-65792.15864,-47297.67708,-54502.65014,-39077.01839,-44143.35419,-55612.10133,-30039.02346,-50901.82881,-0.024,0.892,0.396,192,0,0,0,0,0,0,0,0,0,1.71E+09,0, 2024-03-15 14:22:17.739
74,-65888.53936,-47393.20843,-54599.41084,-39179.72466,-44230.5707,-55686.71145,-30092.75706,-50971.09687,-0.024,0.892,0.396,192,0,0,0,0,0,0,0,0,0,1.71E+09,0, 2024-03-15 14:22:17.739
75,-65894.06024,-47404.60782,-54611.95017,-39193.1357,-44242.55124,-55701.06127,-30118.77449,-50975.07548,-0.024,0.892,0.396,192,0,0,0,0,0,0,0,0,0,1.71E+09,0, 2024-03-15 14:22:17.739
76,-65804.5415,-47323.26982,-54524.59956,-39103.10288,-44160.83326,-55633.84958,-30084.03988,-50876.45958,-0.024,0.892,0.396,192,0,0,0,0,0,0,0,0,0,1.71E+09,0, 2024-03-15 14:22:17.739
77,-65732.83711,-47251.07369,-54447.28487,-39020.75905,-44087.31837,-55565.565,-30022.43847,-50814.76877,-0.024,0.892,0.396,192,0,0,0,0,0,0,0,0,0,1.71E+09,0, 2024-03-15 14:22:17.739
78,-65786.45894,-47295.12898,-54494.75998,-39067.63066,-44129.00437,-55591.04599,-30025.92534,-50845.45771,-0.024,0.892,0.396,192,0,0,0,0,0,0,0,0,0,1.71E+09,0, 2024-03-15 14:22:17.739
79,-65880.80566,-47382.21137,-54594.09113,-39168.28056,-44220.60182,-55667.89128,-30089.31489,-50932.406,-0.024,0.892,0.396,192,0,0,0,0,0,0,0,0,0,1.71E+09,0, 2024-03-15 14:22:17.739
80,-65884.13607,-47390.45917,-54611.88312,-39186.56429,-44240.38312,-55693.05935,-30125.3012,-50988.03949,-0.022,0.882,0.394,192,255,80,27,144,12,80,0,0,0,1.71E+09,0, 2024-03-15 14:22:17.739
81,-65797.14308,-47313.63622,-54529.6734,-39103.81813,-44163.9178,-55639.10224,-30093.897,-50914.90458,-0.022,0.882,0.394,192,0,0,0,0,0,0,0,0,0,1.71E+09,0, 2024-03-15 14:22:17.739
82,-65739.47558,-47259.90263,-54461.94762,-39037.74637,-44099.03069,-55587.04502,-30038.08469,-50818.18859,-0.022,0.882,0.394,192,0,0,0,0,0,0,0,0,0,1.71E+09,0, 2024-03-15 14:22:17.739
83,-65804.02741,-47319.24651,-54516.66469,-39099.97363,-44148.36099,-55630.78739,-30040.87866,-50864.74727,-0.022,0.882,0.394,192,0,0,0,0,0,0,0,0,0,1.71E+09,0, 2024-03-15 14:22:17.739
84,-65890.41691,-47403.28907,-54602.62949,-39195.37088,-44229.76604,-55707.49858,-30084.26339,-50952.58963,-0.022,0.882,0.394,192,0,0,0,0,0,0,0,0,0,1.71E+09,0, 2024-03-15 14:22:17.739
85,-65892.76384,-47412.11801,-54615.01236,-39210.72652,-44246.99923,-55730.52087,-30119.44504,-50978.31648,-0.022,0.882,0.394,192,0,0,0,0,0,0,0,0,0,1.71E+09,0, 2024-03-15 14:22:17.739
86,-65802.28398,-47332.07641,-54530.52277,-39124.49349,-44170.64567,-55675.84851,-30095.75219,-50941.01142,-0.022,0.882,0.394,192,0,0,0,0,0,0,0,0,0,1.71E+09,0, 2024-03-15 14:22:17.739
87,-65734.84877,-47265.75878,-54451.73287,-39042.88728,-44095.78968,-55612.9507,-30041.12453,-50866.75893,-0.022,0.882,0.394,192,0,0,0,0,0,0,0,0,0,1.71E+09,0, 2024-03-15 14:22:17.739
88,-65787.30831,-47308.92,-54492.97184,-39083.18747,-44135.32992,-55632.57553,-30039.24698,-50872.77155,-0.022,0.882,0.394,192,0,0,0,0,0,0,0,0,0,1.71E+09,0, 2024-03-15 14:22:17.739
89,-65880.35862,-47395.19774,-54588.12321,-39180.03758,-44227.41911,-55705.66573,-30100.06608,-50978.78587,-0.022,0.882,0.394,192,0,0,0,0,0,0,0,0,0,1.71E+09,0, 2024-03-15 14:22:17.739
90,-65883.82314,-47401.59034,-54600.93076,-39191.45932,-44243.3112,-55720.5967,-30135.22537,-51017.76731,-0.024,0.886,0.39,192,255,64,27,176,12,48,0,0,0,1.71E+09,0, 2024-03-15 14:22:18.219
91,-65797.43365,-47322.48751,-54516.01649,-39102.7229,-44166.4659,-55658.41414,-30102.43536,-50945.21355,-0.024,0.886,0.39,192,0,0,0,0,0,0,0,0,0,1.71E+09,0, 2024-03-15 14:22:18.219
92,-65734.22292,-47259.23208,-54440.93698,-39023.62007,-44095.43205,-55594.17523,-30047.1595,-50866.93774,-0.024,0.886,0.39,192,0,0,0,0,0,0,0,0,0,1.71E+09,0, 2024-03-15 14:22:18.219
93,-65785.07314,-47298.83937,-54481.72891,-39060.65691,-44129.40671,-55608.5027,-30038.15175,-50873.21858,-0.024,0.886,0.39,192,0,0,0,0,0,0,0,0,0,1.71E+09,0, 2024-03-15 14:22:18.219
94,-65869.49567,-47375.10352,-54565.83852,-39144.47595,-44208.1519,-55666.30431,-30080.77652,-50920.96191,-0.024,0.886,0.39,192,0,0,0,0,0,0,0,0,0,1.71E+09,0, 2024-03-15 14:22:18.219
95,-65876.11179,-47386.99465,-54583.94344,-39162.73733,-44228.55904,-55686.7338,-30115.6676,-50963.63139,-0.024,0.886,0.39,192,0,0,0,0,0,0,0,0,0,1.71E+09,0, 2024-03-15 14:22:18.219
96,-65793.09741,-47315.60317,-54508.70746,-39086.1826,-44161.68263,-55637.76113,-30094.83577,-50937.5916,-0.024,0.886,0.39,192,0,0,0,0,0,0,0,0,0,1.71E+09,0, 2024-03-15 14:22:18.219
97,-65730.91486,-47255.27582,-54442.21103,-39014.88054,-44095.58852,-55582.8429,-30046.93598,-50892.1058,-0.024,0.886,0.39,192,0,0,0,0,0,0,0,0,0,1.71E+09,0, 2024-03-15 14:22:18.219
98,-65782.12271,-47296.82771,-54485.70752,-39056.79006,-44136.44751,-55602.46773,-30044.03025,-50916.35745,-0.024,0.886,0.39,192,0,0,0,0,0,0,0,0,0,1.71E+09,0, 2024-03-15 14:22:18.219
99,-65880.33627,-47388.3581,-54585.21749,-39155.9424,-44230.05661,-55673.63568,-30099.86491,-50980.66342,-0.024,0.886,0.39,192,0,0,0,0,0,0,0,0,0,1.71E+09,0, 2024-03-15 14:22:18.219
100,-65893.36734,-47404.85369,-54606.07166,-39176.70717,-44247.04394,-55696.05448,-30131.135,-50993.29215,-0.026,0.884,0.39,192,255,48,27,160,12,48,0,0,0,1.71E+09,0, 2024-03-15 14:22:18.219
101,-65809.36948,-47330.48944,-54523.1914,-39093.89396,-44163.64958,-55639.32575,-30097.31681,-50931.7578,-0.026,0.884,0.39,192,0,0,0,0,0,0,0,0,0,1.71E+09,0, 2024-03-15 14:22:18.219
102,-65745.44349,-47268.95508,-54448.26835,-39018.32271,-44090.8723,-55578.32784,-30045.55017,-50855.35954,-0.026,0.884,0.39,192,0,0,0,0,0,0,0,0,0,1.71E+09,0, 2024-03-15 14:22:18.219
103,-65796.98662,-47313.85974,-54491.78719,-39061.7745,-44128.22206,-55598.98086,-30038.66584,-50850.46451,-0.026,0.884,0.39,192,0,0,0,0,0,0,0,0,0,1.71E+09,0, 2024-03-15 14:22:18.219
104,-65889.50049,-47403.31142,-54585.95509,-39162.26794,-44216.4444,-55674.30623,-30091.68417,-50930.55081,-0.026,0.884,0.39,192,0,0,0,0,0,0,0,0,0,1.71E+09,0, 2024-03-15 14:22:18.219
105,-65902.79977,-47427.00427,-54608.86563,-39194.23094,-44239.01966,-55710.47136,-30127.71519,-50978.67411,-0.026,0.884,0.39,192,0,0,0,0,0,0,0,0,0,1.71E+09,0, 2024-03-15 14:22:18.219
106,-65820.38889,-47359.14437,-54532.31091,-39122.81711,-44167.31526,-55667.04192,-30097.16035,-50924.80641,-0.026,0.884,0.39,192,0,0,0,0,0,0,0,0,0,1.71E+09,0, 2024-03-15 14:22:18.219
107,-65755.70294,-47299.8899,-54463.57929,-39053.41495,-44101.08705,-55614.73884,-30043.80674,-50843.84839,-0.026,0.884,0.39,192,0,0,0,0,0,0,0,0,0,1.71E+09,0, 2024-03-15 14:22:18.219
108,-65809.10126,-47346.18036,-54509.64624,-39104.064,-44140.04614,-55648.8476,-30043.00207,-50877.62187,-0.026,0.884,0.39,192,0,0,0,0,0,0,0,0,0,1.71E+09,0, 2024-03-15 14:22:18.219
109,-65899.46936,-47431.27345,-54601.3778,-39200.42237,-44228.22377,-55723.52478,-30095.97571,-50941.9502,-0.026,0.884,0.39,192,0,0,0,0,0,0,0,0,0,1.71E+09,0, 2024-03-15 14:22:18.219
110,-65908.27595,-47442.00229,-54620.10856,-39220.36013,-44251.0002,-55750.77155,-30136.63353,-50987.32424,-0.026,0.884,0.39,192,0,0,0,0,0,0,0,0,0,1.71E+09,0, 2024-03-15 14:22:18.219
111,-65828.90491,-47371.23667,-54545.31962,-39146.04058,-44182.64856,-55708.72792,-30113.47712,-50965.82186,-0.02,0.88,0.384,192,255,96,27,128,12,0,0,0,0,1.71E+09,0, 2024-03-15 14:22:18.219
112,-65756.90994,-47299.35346,-54464.89805,-39060.50045,-44105.55739,-55642.36559,-30055.04966,-50890.58589,-0.02,0.88,0.384,192,0,0,0,0,0,0,0,0,0,1.71E+09,0, 2024-03-15 14:22:18.219
113,-65797.74657,-47334.75862,-54496.68223,-39094.45275,-44135.7546,-55657.98946,-30045.75134,-50912.31178,-0.02,0.88,0.384,192,0,0,0,0,0,0,0,0,0,1.71E+09,0, 2024-03-15 14:22:18.219
114,-65882.92907,-47413.66028,-54582.37881,-39180.75284,-44218.85839,-55719.81439,-30092.75706,-50988.95591,-0.02,0.88,0.384,192,0,0,0,0,0,0,0,0,0,1.71E+09,0, 2024-03-15 14:22:18.219
115,-65884.80662,-47417.37067,-54594.4264,-39189.11239,-44237.52209,-55731.68316,-30125.70353,-51015.10745,-0.02,0.88,0.384,192,0,0,0,0,0,0,0,0,0,1.71E+09,0, 2024-03-15 14:22:18.219
116,-65805.7932,-47345.82273,-54517.08937,-39109.38372,-44169.46103,-55679.69301,-30099.41788,-50973.13088,-0.02,0.88,0.384,192,0,0,0,0,0,0,0,0,0,1.71E+09,0, 2024-03-15 14:22:18.219
117,-65739.29676,-47279.99685,-54446.23434,-39032.53842,-44101.86936,-55620.79616,-30057.26249,-50931.84721,-0.02,0.88,0.384,192,0,0,0,0,0,0,0,0,0,1.71E+09,0, 2024-03-15 14:22:18.219
118,-65784.64845,-47312.0716,-54482.46652,-39062.98149,-44134.54761,-55626.16058,-30045.28195,-50895.19035,-0.02,0.88,0.384,192,0,0,0,0,0,0,0,0,0,1.71E+09,0, 2024-03-15 14:22:18.219
119,-65876.91645,-47396.09181,-54575.60624,-39153.79663,-44220.71358,-55687.69493,-30090.52188,-50939.87148,-0.02,0.88,0.384,192,0,0,0,0,0,0,0,0,0,1.71E+09,0, 2024-03-15 14:22:18.219
120,-65893.16617,-47417.68359,-54602.16011,-39182.11629,-44245.92635,-55716.43927,-30123.3566,-51001.80817,-0.02,0.88,0.384,192,0,0,0,0,0,0,0,0,0,1.71E+09,0, 2024-03-15 14:22:18.219
121,-65813.57161,-47346.69445,-54528.39935,-39103.21463,-44178.24527,-55660.82813,-30099.7308,-50938.21745,-0.02,0.884,0.39,192,255,96,27,160,12,48,0,0,0,1.71E+09,0, 2024-03-15 14:22:18.219
122,-65745.35409,-47279.66157,-54452.1799,-39023.12833,-44104.57392,-55594.75638,-30043.11383,-50874.0903,-0.02,0.884,0.39,192,0,0,0,0,0,0,0,0,0,1.71E+09,0, 2024-03-15 14:22:18.219
123,-65791.59984,-47318.10657,-54490.40139,-39058.5335,-44135.82166,-55608.65916,-30032.385,-50871.13987,-0.02,0.884,0.39,192,0,0,0,0,0,0,0,0,0,1.71E+09,0, 2024-03-15 14:22:18.219
124,-65892.58503,-47413.50382,-54592.32534,-39162.91614,-44233.52113,-55686.24207,-30092.15356,-50941.61492,-0.02,0.884,0.39,192,0,0,0,0,0,0,0,0,0,1.71E+09,0, 2024-03-15 14:22:18.219
125,-65912.43338,-47436.79433,-54618.49923,-39192.21928,-44260.56674,-55717.10983,-30130.77737,-50991.39225,-0.02,0.884,0.39,192,0,0,0,0,0,0,0,0,0,1.71E+09,0, 2024-03-15 14:22:18.219
126,-65828.83785,-47362.81006,-54538.27882,-39110.90363,-44185.86721,-55661.87866,-30101.07191,-50928.02506,-0.02,0.884,0.39,192,0,0,0,0,0,0,0,0,0,1.71E+09,0, 2024-03-15 14:22:18.219
127,-65756.90994,-47291.57505,-54459.44422,-39029.34212,-44109.46895,-55596.20924,-30040.78925,-50842.44023,-0.02,0.884,0.39,192,0,0,0,0,0,0,0,0,0,1.71E+09,0, 2024-03-15 14:22:18.219
128,-65803.87095,-47329.64007,-54497.59865,-39068.32356,-44140.69434,-55613.33068,-30033.7261,-50850.95624,-0.02,0.884,0.39,192,0,0,0,0,0,0,0,0,0,1.71E+09,0, 2024-03-15 14:22:18.219
129,-65899.02233,-47422.9586,-54594.09113,-39172.43799,-44231.08479,-55692.79113,-30087.5938,-50937.18927,-0.02,0.884,0.39,192,0,0,0,0,0,0,0,0,0,1.71E+09,0, 2024-03-15 14:22:18.219
130,-65907.5607,-47440.46002,-54614.72179,-39199.05891,-44252.3413,-55725.96112,-30125.65883,-51006.34557,-0.02,0.884,0.39,192,0,0,0,0,0,0,0,0,0,1.71E+09,0, 2024-03-15 14:22:18.219
131,-65826.3121,-47372.53307,-54540.71516,-39124.96288,-44179.96635,-55680.58707,-30107.44215,-50985.49139,-0.026,0.882,0.398,192,255,48,27,144,12,112,0,0,0,1.71E+09,0, 2024-03-15 14:22:18.219
132,-65751.83609,-47304.53906,-54456.6726,-39038.08165,-44100.34944,-55607.94391,-30049.12645,-50843.73663,-0.026,0.882,0.398,192,0,0,0,0,0,0,0,0,0,1.71E+09,0, 2024-03-15 14:22:18.219
133,-65799.19944,-47344.50398,-54496.34695,-39075.47612,-44139.75556,-55623.03133,-30048.05357,-50823.37419,-0.026,0.882,0.398,192,0,0,0,0,0,0,0,0,0,1.71E+09,0, 2024-03-15 14:22:18.219
134,-65887.7347,-47426.93721,-54585.21749,-39169.4652,-44225.27334,-55694.15458,-30096.5345,-50924.94052,-0.026,0.882,0.398,192,0,0,0,0,0,0,0,0,0,1.71E+09,0, 2024-03-15 14:22:18.219
135,-65898.10591,-47440.8847,-54603.90354,-39193.18041,-44248.94384,-55724.4859,-30134.42071,-50988.50888,-0.026,0.882,0.398,192,0,0,0,0,0,0,0,0,0,1.71E+09,0, 2024-03-15 14:22:18.219
136,-65816.85732,-47366.43104,-54528.73463,-39114.56932,-44181.44157,-55676.78728,-30111.06314,-50943.13484,-0.026,0.882,0.398,192,0,0,0,0,0,0,0,0,0,1.71E+09,0, 2024-03-15 14:22:18.219
137,-65736.70396,-47289.94337,-54443.7533,-39024.71531,-44099.67889,-55607.65333,-30053.61915,-50858.17586,-0.026,0.882,0.398,192,0,0,0,0,0,0,0,0,0,1.71E+09,0, 2024-03-15 14:22:18.219
138,-65775.90892,-47318.82183,-54472.36353,-39052.43147,-44122.45531,-55619.09743,-30036.2742,-50878.02421,-0.026,0.882,0.398,192,0,0,0,0,0,0,0,0,0,1.71E+09,0, 2024-03-15 14:22:18.219
139,-65862.05254,-47396.38238,-54558.57421,-39139.268,-44206.09554,-55682.08464,-30081.1565,-50939.04447,-0.026,0.882,0.398,192,0,0,0,0,0,0,0,0,0,1.71E+09,0, 2024-03-15 14:22:18.219
140,-65876.82705,-47413.57087,-54579.20487,-39159.00459,-44228.6708,-55702.69295,-30117.99218,-50935.93758,-0.026,0.882,0.398,192,0,0,0,0,0,0,0,0,0,1.71E+09,0, 2024-03-15 14:22:18.219
141,-65803.96036,-47348.32613,-54512.10493,-39088.28367,-44168.07522,-55658.16828,-30101.98833,-50898.25253,-0.02,0.884,0.398,192,255,96,27,160,12,112,0,0,0,1.71E+09,0, 2024-03-15 14:22:18.219
142,-65725.34927,-47272.17374,-54425.98366,-38998.69788,-44087.0278,-55585.79333,-30041.72802,-50815.37227,-0.02,0.884,0.398,192,0,0,0,0,0,0,0,0,0,1.71E+09,0, 2024-03-15 14:22:18.219
143,-65766.61059,-47306.61777,-54461.85821,-39034.55007,-44119.37077,-55603.02652,-30033.6814,-50851.53739,-0.02,0.884,0.398,192,0,0,0,0,0,0,0,0,0,1.71E+09,0, 2024-03-15 14:22:18.219
144,-65853.1789,-47387.0617,-54551.19813,-39127.15335,-44204.37446,-55669.85824,-30084.12928,-50933.38948,-0.02,0.884,0.398,192,0,0,0,0,0,0,0,0,0,1.71E+09,0, 2024-03-15 14:22:18.219
145,-65882.23617,-47421.55044,-54592.90649,-39172.12506,-44245.61343,-55717.62392,-30134.59952,-51014.63807,-0.02,0.884,0.398,192,0,0,0,0,0,0,0,0,0,1.71E+09,0, 2024-03-15 14:22:18.219
146,-65811.47055,-47359.502,-54528.60052,-39106.70151,-44184.63787,-55679.69301,-30114.17003,-50988.7771,-0.02,0.884,0.398,192,0,0,0,0,0,0,0,0,0,1.71E+09,0, 2024-03-15 14:22:18.219
147,-65736.12282,-47284.75777,-54446.16728,-39017.5851,-44103.59044,-55605.88754,-30050.44521,-50874.7385,-0.02,0.884,0.398,192,0,0,0,0,0,0,0,0,0,1.71E+09,0, 2024-03-15 14:22:18.219
148,-65783.73203,-47322.59927,-54488.05445,-39053.92904,-44140.40376,-55619.4327,-30046.98068,-50879.20885,-0.02,0.884,0.398,192,0,0,0,0,0,0,0,0,0,1.71E+09,0, 2024-03-15 14:22:18.219
149,-65878.63754,-47407.80412,-54584.30106,-39147.29227,-44226.10035,-55684.52098,-30090.94657,-50956.52353,-0.02,0.884,0.398,192,0,0,0,0,0,0,0,0,0,1.71E+09,0, 2024-03-15 14:22:18.219
150,-65899.58112,-47430.6476,-54609.29031,-39171.9239,-44248.02741,-55707.40917,-30130.39739,-50962.5138,-0.02,0.884,0.398,192,0,0,0,0,0,0,0,0,0,1.71E+09,0, 2024-03-15 14:22:18.219
151,-65825.90977,-47366.56515,-54542.39154,-39101.60531,-44179.83224,-55662.63862,-30113.58888,-50927.42156,-0.024,0.88,0.396,192,255,64,27,128,12,96,0,0,0,1.71E+09,0, 2024-03-15 14:22:18.219
152,-65748.70685,-47293.98904,-54460.40535,-39018.07684,-44097.55547,-55598.60088,-30051.54044,-50867.49653,-0.024,0.88,0.396,192,0,0,0,0,0,0,0,0,0,1.71E+09,0, 2024-03-15 14:22:18.219
153,-65785.29665,-47325.12502,-54492.23423,-39051.64916,-44125.36104,-55613.15186,-30036.25185,-50887.00961,-0.024,0.88,0.396,192,0,0,0,0,0,0,0,0,0,1.71E+09,0, 2024-03-15 14:22:18.219
154,-65881.78913,-47417.32596,-54589.01728,-39154.19896,-44217.65139,-55687.38201,-30091.30419,-50941.9949,-0.024,0.88,0.396,192,0,0,0,0,0,0,0,0,0,1.71E+09,0, 2024-03-15 14:22:18.219
155,-65907.40423,-47449.89246,-54624.40009,-39196.9802,-44255.82817,-55731.54905,-30141.9756,-50986.65368,-0.024,0.88,0.396,192,0,0,0,0,0,0,0,0,0,1.71E+09,0, 2024-03-15 14:22:18.219
156,-65831.78828,-47385.94411,-54555.60142,-39127.7345,-44192.28216,-55689.79599,-30124.16126,-50944.29713,-0.024,0.88,0.396,192,0,0,0,0,0,0,0,0,0,1.71E+09,0, 2024-03-15 14:22:18.219
157,-65754.5183,-47312.0716,-54473.70463,-39040.58505,-44112.10646,-55621.44436,-30057.97774,-50866.71422,-0.024,0.88,0.396,192,0,0,0,0,0,0,0,0,0,1.71E+09,0, 2024-03-15 14:22:18.219
158,-65792.42686,-47343.34169,-54499.36444,-39070.53638,-44129.9208,-55631.83792,-30041.28099,-50877.68893,-0.024,0.88,0.396,192,0,0,0,0,0,0,0,0,0,1.71E+09,0, 2024-03-15 14:22:18.219
159,-65888.24879,-47433.55333,-54598.51677,-39173.3097,-44224.1334,-55707.7668,-30094.14287,-50951.94142,-0.024,0.88,0.396,192,0,0,0,0,0,0,0,0,0,1.71E+09,0, 2024-03-15 14:22:18.219
160,-65915.00383,-47466.05277,-54633.45255,-39214.951,-44260.49969,-55750.16806,-30141.34975,-50983.14446,-0.024,0.88,0.396,192,0,0,0,0,0,0,0,0,0,1.71E+09,0, 2024-03-15 14:22:18.219
161,-65830.38012,-47389.83332,-54549.25353,-39130.3273,-44181.93331,-55691.49473,-30109.00678,-50887.36724,-0.024,0.878,0.398,192,255,64,27,112,12,112,0,0,0,1.71E+09,0, 2024-03-15 14:22:18.219
162,-65754.09362,-47315.37966,-54466.75324,-39046.28474,-44104.75273,-55630.83209,-30055.87668,-50838.57338,-0.024,0.878,0.398,192,0,0,0,0,0,0,0,0,0,1.71E+09,0, 2024-03-15 14:22:18.219
163,-65788.26943,-47341.26298,-54493.97767,-39074.06796,-44128.53499,-55644.80193,-30039.78342,-50862.82502,-0.024,0.878,0.398,192,0,0,0,0,0,0,0,0,0,1.71E+09,0, 2024-03-15 14:22:18.219
164,-65882.10206,-47429.32885,-54590.35839,-39175.88016,-44220.2889,-55725.67054,-30093.31585,-50977.31065,-0.024,0.878,0.398,192,0,0,0,0,0,0,0,0,0,1.71E+09,0, 2024-03-15 14:22:18.219
165,-65902.10687,-47453.31227,-54617.18048,-39208.26783,-44248.92148,-55762.77444,-30133.10196,-51018.12494,-0.024,0.878,0.398,192,0,0,0,0,0,0,0,0,0,1.71E+09,0, 2024-03-15 14:22:18.219
166,-65813.75042,-47376.22111,-54534.32256,-39125.49932,-44174.11019,-55708.28089,-30106.48103,-50943.67128,-0.024,0.878,0.398,192,0,0,0,0,0,0,0,0,0,1.71E+09,0, 2024-03-15 14:22:18.219
167,-65727.67386,-47295.15133,-54444.53561,-39032.20314,-44088.9724,-55635.50361,-30045.97486,-50860.25457,-0.024,0.878,0.398,192,0,0,0,0,0,0,0,0,0,1.71E+09,0, 2024-03-15 14:22:18.219
168,-65768.42109,-47327.85193,-54477.21386,-39065.84252,-44118.11908,-55652.0886,-30034.17314,-50887.21077,-0.024,0.878,0.398,192,0,0,0,0,0,0,0,0,0,1.71E+09,0, 2024-03-15 14:22:18.219
169,-65864.42183,-47415.9178,-54576.05327,-39163.45259,-44212.84577,-55724.21768,-30089.89603,-50989.84998,-0.024,0.878,0.398,192,0,0,0,0,0,0,0,0,0,1.71E+09,0, 2024-03-15 14:22:18.219
170,-65890.19339,-47443.07517,-54604.99878,-39194.07448,-44241.07602,-55753.85609,-30134.04073,-51028.94318,-0.024,0.878,0.398,192,0,0,0,0,0,0,0,0,0,1.71E+09,0, 2024-03-15 14:22:18.219
171,-65816.72321,-47375.50585,-54535.17193,-39116.82685,-44177.12768,-55699.56371,-30111.15254,-50950.39915,-0.02,0.88,0.398,192,255,96,27,128,12,112,0,0,0,1.71E+09,0, 2024-03-15 14:22:18.219
172,-65737.50862,-47297.07358,-54451.95639,-39021.60841,-44096.79551,-55620.77381,-30051.22752,-50854.42076,-0.02,0.88,0.398,192,0,0,0,0,0,0,0,0,0,1.71E+09,0, 2024-03-15 14:22:18.219
173,-65778.56878,-47328.63424,-54486.66864,-39049.86102,-44129.22789,-55630.78739,-30048.5006,-50887.90368,-0.02,0.88,0.398,192,0,0,0,0,0,0,0,0,0,1.71E+09,0, 2024-03-15 14:22:18.219
174,-65874.36835,-47414.80022,-54586.40213,-39143.87246,-44225.02747,-55696.90385,-30105.18463,-50955.13772,-0.02,0.88,0.398,192,0,0,0,0,0,0,0,0,0,1.71E+09,0, 2024-03-15 14:22:18.219
175,-65888.65112,-47431.98871,-54607.7704,-39165.93363,-44244.47349,-55718.58504,-30132.07378,-50987.77127,-0.02,0.88,0.398,192,0,0,0,0,0,0,0,0,0,1.71E+09,0, 2024-03-15 14:22:18.219
176,-65812.85635,-47365.49227,-54536.73655,-39093.73749,-44177.17238,-55671.3558,-30107.06217,-50942.88897,-0.02,0.88,0.398,192,0,0,0,0,0,0,0,0,0,1.71E+09,0, 2024-03-15 14:22:18.219
177,-65737.41922,-47293.96669,-54456.04675,-39009.47142,-44100.68471,-55602.69125,-30051.89807,-50858.80171,-0.02,0.88,0.398,192,0,0,0,0,0,0,0,0,0,1.71E+09,0, 2024-03-15 14:22:18.219
178,-65773.33847,-47324.18624,-54482.64533,-39039.48981,-44123.99758,-55612.92834,-30036.14009,-50864.27788,-0.02,0.88,0.398,192,0,0,0,0,0,0,0,0,0,1.71E+09,0, 2024-03-15 14:22:18.219
179,-65868.93688,-47414.10731,-54577.32732,-39139.02213,-44211.9964,-55682.68814,-30090.00779,-50929.43322,-0.02,0.88,0.398,192,0,0,0,0,0,0,0,0,0,1.71E+09,0, 2024-03-15 14:22:18.219
180,-65890.3275,-47440.92941,-54604.95408,-39173.68968,-44240.1596,-55716.68514,-30132.87844,-50973.84613,-0.02,0.88,0.398,192,0,0,0,0,0,0,0,0,0,1.71E+09,0, 2024-03-15 14:22:18.219
181,-65815.53856,-47377.56221,-54532.28856,-39104.28752,-44172.99261,-55672.80867,-30107.77743,-50920.15724,-0.026,0.882,0.404,192,255,48,27,144,12,160,0,0,0,1.71E+09,0, 2024-03-15 14:22:18.219
182,-65736.43574,-47305.43313,-54445.63084,-39017.22747,-44088.41361,-55605.68638,-30045.81839,-50809.76198,-0.026,0.882,0.404,192,0,0,0,0,0,0,0,0,0,1.71E+09,0, 2024-03-15 14:22:18.220
183,-65777.36178,-47342.44762,-54479.24787,-39055.56071,-44118.07437,-55631.86027,-30034.84369,-50857.17003,-0.026,0.882,0.404,192,0,0,0,0,0,0,0,0,0,1.71E+09,0, 2024-03-15 14:22:18.220
184,-65869.13805,-47427.4066,-54573.59458,-39154.35543,-44211.16939,-55710.29254,-30096.22158,-50968.8617,-0.026,0.882,0.404,192,0,0,0,0,0,0,0,0,0,1.71E+09,0, 2024-03-15 14:22:18.220
185,-65887.7794,-47451.1218,-54602.96477,-39188.24067,-44242.64064,-55747.5976,-30138.7793,-51001.13761,-0.026,0.882,0.404,192,0,0,0,0,0,0,0,0,0,1.71E+09,0, 2024-03-15 14:22:18.220
186,-65810.44237,-47384.55831,-54526.90178,-39114.18934,-44169.1034,-55699.29548,-30103.86587,-50919.91138,-0.026,0.882,0.404,192,0,0,0,0,0,0,0,0,0,1.71E+09,0, 2024-03-15 14:22:18.220
187,-65734.44643,-47310.8646,-54445.34027,-39029.14095,-44091.60991,-55636.6659,-30050.02052,-50863.38381,-0.026,0.882,0.404,192,0,0,0,0,0,0,0,0,0,1.71E+09,0, 2024-03-15 14:22:18.220
188,-65773.02555,-47342.58173,-54475.2022,-39061.28276,-44119.61664,-55654.65905,-30044.99138,-50885.93672,-0.026,0.882,0.404,192,0,0,0,0,0,0,0,0,0,1.71E+09,0, 2024-03-15 14:22:18.220
189,-65870.47915,-47431.65343,-54571.80644,-39160.56921,-44210.23061,-55729.73856,-30103.03886,-50987.54775,-0.026,0.882,0.404,192,0,0,0,0,0,0,0,0,0,1.71E+09,0, 2024-03-15 14:22:18.220
190,-65891.80272,-47453.60284,-54599.58966,-39187.83834,-44239.5561,-55757.58883,-30139.69572,-51024.09286,-0.026,0.882,0.404,192,0,0,0,0,0,0,0,0,0,1.71E+09,0, 2024-03-15 14:22:18.220
191,-65813.30339,-47383.08309,-54525.56068,-39110.03192,-44173.17142,-55706.13512,-30119.33328,-50963.36317,-0.02,0.88,0.394,192,255,96,27,128,12,80,0,0,0,1.71E+09,0, 2024-03-15 14:22:18.220
192,-65736.52515,-47308.69649,-54442.97098,-39021.69782,-44095.52146,-55639.16929,-30063.2304,-50884.01447,-0.02,0.88,0.394,192,0,0,0,0,0,0,0,0,0,1.71E+09,0, 2024-03-15 14:22:18.220
193,-65762.49787,-47326.44377,-54459.60068,-39038.7522,-44108.06079,-55637.93995,-30035.29072,-50877.68893,-0.02,0.88,0.394,192,0,0,0,0,0,0,0,0,0,1.71E+09,0, 2024-03-15 14:22:18.220
194,-65855.48113,-47413.57087,-54555.08733,-39134.50708,-44198.98769,-55704.97283,-30087.43734,-50950.57797,-0.02,0.88,0.394,192,0,0,0,0,0,0,0,0,0,1.71E+09,0, 2024-03-15 14:22:18.220
195,-65874.43541,-47437.6437,-54586.11156,-39164.99486,-44231.8671,-55734.723,-30130.03977,-51000.53412,-0.02,0.88,0.394,192,0,0,0,0,0,0,0,0,0,1.71E+09,0, 2024-03-15 14:22:18.220
196,-65795.71257,-47367.68274,-54511.12145,-39086.94256,-44161.48146,-55678.91069,-30102.9718,-50925.11933,-0.02,0.88,0.394,192,0,0,0,0,0,0,0,0,0,1.71E+09,0, 2024-03-15 14:22:18.220
197,-65723.60584,-47296.7383,-54433.06916,-39002.2071,-44084.50205,-55612.19074,-30047.09244,-50862.31093,-0.02,0.88,0.394,192,0,0,0,0,0,0,0,0,0,1.71E+09,0, 2024-03-15 14:22:18.220
198,-65762.69904,-47325.43794,-54463.33342,-39027.48692,-44111.10063,-55619.56681,-30036.20714,-50887.99308,-0.02,0.88,0.394,192,0,0,0,0,0,0,0,0,0,1.71E+09,0, 2024-03-15 14:22:18.220
199,-65857.53749,-47408.47467,-54556.13787,-39119.73257,-44195.45611,-55682.59873,-30085.06806,-50961.68679,-0.02,0.88,0.394,192,0,0,0,0,0,0,0,0,0,1.71E+09,0, 2024-03-15 14:22:18.220
200,-65890.3275,-47441.66701,-54593.82291,-39159.51868,-44234.90694,-55718.67445,-30132.05142,-50994.65561,-0.02,0.88,0.394,192,0,0,0,0,0,0,0,0,0,1.71E+09,0, 2024-03-15 14:22:18.220
201,-65813.83983,-47374.16475,-54520.77741,-39086.62964,-44169.68455,-55668.1148,-30111.30901,-50925.43226,-0.02,0.882,0.4,192,255,96,27,144,12,128,0,0,0,1.71E+09,0, 2024-03-15 14:22:18.220
202,-65731.00427,-47297.05123,-54431.83982,-38996.99914,-44083.27271,-55597.21507,-30045.34901,-50835.95822,-0.02,0.882,0.4,192,0,0,0,0,0,0,0,0,0,1.71E+09,0, 2024-03-15 14:22:18.220
203,-65768.68931,-47329.26009,-54462.9758,-39030.79498,-44108.8431,-55614.00123,-30032.56381,-50861.21569,-0.02,0.882,0.4,192,0,0,0,0,0,0,0,0,0,1.71E+09,0, 2024-03-15 14:22:18.220
204,-65866.76876,-47420.67873,-54556.94253,-39133.4789,-44197.66893,-55686.80086,-30079.61423,-50927.42156,-0.02,0.882,0.4,192,0,0,0,0,0,0,0,0,0,1.71E+09,0, 2024-03-15 14:22:18.220
205,-65898.44118,-47458.25201,-54595.18636,-39180.50697,-44236.38215,-55730.47617,-30127.44696,-50968.81699,-0.02,0.882,0.4,192,0,0,0,0,0,0,0,0,0,1.71E+09,0, 2024-03-15 14:22:18.220
206,-65829.32959,-47401.25506,-54531.21567,-39122.28067,-44177.30649,-55697.01561,-30107.53156,-50942.08431,-0.02,0.882,0.4,192,0,0,0,0,0,0,0,0,0,1.71E+09,0, 2024-03-15 14:22:18.220
207,-65745.75642,-47322.97925,-54447.57544,-39037.18758,-44098.40484,-55634.63189,-30048.88058,-50882.29339,-0.02,0.882,0.4,192,0,0,0,0,0,0,0,0,0,1.71E+09,0, 2024-03-15 14:22:18.220
208,-65780.24516,-47348.70611,-54476.43155,-39064.74728,-44123.77407,-55649.80872,-30043.2703,-50888.03779,-0.02,0.882,0.4,192,0,0,0,0,0,0,0,0,0,1.71E+09,0, 2024-03-15 14:22:18.220
209,-65872.69197,-47431.87695,-54569.4148,-39159.51868,-44214.23158,-55722.02721,-30098.21088,-50969.95693,-0.02,0.882,0.4,192,0,0,0,0,0,0,0,0,0,1.71E+09,0, 2024-03-15 14:22:18.220
210,-65897.90474,-47458.05084,-54601.71307,-39191.7946,-44249.32382,-55756.02421,-30141.01447,-50988.7324,-0.02,0.882,0.4,192,0,0,0,0,0,0,0,0,0,1.71E+09,0, 2024-03-15 14:22:18.699
211,-65809.593,-47376.24346,-54516.61998,-39102.14175,-44172.38911,-55694.86984,-30113.74535,-50894.6539,-0.016,0.882,0.396,192,255,128,27,144,12,96,0,0,0,1.71E+09,0, 2024-03-15 14:22:18.699
212,-65724.32109,-47291.86562,-54426.00601,-39008.10796,-44087.29602,-55626.83113,-30052.45686,-50842.19436,-0.016,0.882,0.396,192,0,0,0,0,0,0,0,0,0,1.71E+09,0, 2024-03-15 14:22:18.699
213,-65759.50274,-47317.12309,-54453.11868,-39034.01363,-44110.85476,-55639.54927,-30036.49772,-50862.86972,-0.016,0.882,0.396,192,0,0,0,0,0,0,0,0,0,1.71E+09,0, 2024-03-15 14:22:18.699
214,-65858.20804,-47407.60295,-54551.04167,-39132.18249,-44202.07223,-55710.09138,-30088.44317,-50943.17954,-0.016,0.882,0.396,192,0,0,0,0,0,0,0,0,0,1.71E+09,0, 2024-03-15 14:22:18.699
215,-65891.28863,-47444.6398,-54594.9852,-39177.57889,-44246.5522,-55753.31965,-30141.50621,-51009.8995,-0.016,0.882,0.396,192,0,0,0,0,0,0,0,0,0,1.71E+09,0, 2024-03-15 14:22:18.699
216,-65811.13527,-47373.94123,-54517.40229,-39102.00764,-44174.28901,-55701.01657,-30107.79978,-50951.06971,-0.016,0.882,0.396,192,0,0,0,0,0,0,0,0,0,1.71E+09,0, 2024-03-15 14:22:18.699
217,-65734.55819,-47301.85685,-54433.35973,-39017.24982,-44094.64974,-55637.60467,-30051.16046,-50892.26227,-0.016,0.882,0.396,192,0,0,0,0,0,0,0,0,0,1.71E+09,0, 2024-03-15 14:22:18.699
218,-65766.6553,-47326.7567,-54455.80089,-39038.90867,-44114.43104,-55641.71739,-30037.43649,-50884.21564,-0.016,0.882,0.396,192,0,0,0,0,0,0,0,0,0,1.71E+09,0, 2024-03-15 14:22:18.699
219,-65865.38295,-47420.43286,-54554.14856,-39140.36323,-44204.97795,-55715.38874,-30090.27601,-50971.61096,-0.016,0.882,0.396,192,0,0,0,0,0,0,0,0,0,1.71E+09,0, 2024-03-15 14:22:18.699
220,-65900.78812,-47460.28602,-54596.19219,-39184.7538,-44247.93801,-55754.95133,-30136.20885,-51015.75566,-0.016,0.882,0.396,192,0,0,0,0,0,0,0,0,0,1.71E+09,0, 2024-03-15 14:22:18.699
221,-65826.20035,-47393.78958,-54523.63843,-39108.44494,-44178.78171,-55698.84845,-30108.7162,-50941.23494,-0.014,0.89,0.398,192,255,144,27,208,12,112,0,0,0,1.71E+09,0, 2024-03-15 14:22:18.699
222,-65739.67674,-47312.80921,-54431.6163,-39012.06422,-44087.81011,-55623.1878,-30042.33152,-50859.56167,-0.014,0.89,0.398,192,0,0,0,0,0,0,0,0,0,1.71E+09,0, 2024-03-15 14:22:18.699
223,-65774.65722,-47338.96075,-54457.2761,-39034.14774,-44109.37954,-55628.52986,-30028.27227,-50867.80946,-0.014,0.89,0.398,192,0,0,0,0,0,0,0,0,0,1.71E+09,0, 2024-03-15 14:22:18.699
224,-65870.72502,-47428.63595,-54553.41095,-39132.02603,-44200.97699,-55698.33436,-30082.38585,-50951.22617,-0.014,0.89,0.398,192,0,0,0,0,0,0,0,0,0,1.71E+09,0, 2024-03-15 14:22:18.699
225,-65904.34204,-47464.62225,-54595.25342,-39174.04731,-44241.09837,-55736.71231,-30130.17388,-50997.8072,-0.014,0.89,0.398,192,0,0,0,0,0,0,0,0,0,1.71E+09,0, 2024-03-15 14:22:18.699
226,-65834.40344,-47404.22784,-54527.59469,-39111.01539,-44179.47461,-55697.01561,-30113.00774,-50979.32231,-0.014,0.89,0.398,192,0,0,0,0,0,0,0,0,0,1.71E+09,0, 2024-03-15 14:22:18.699
227,-65756.03822,-47328.38837,-54440.71346,-39024.08946,-44098.02486,-55629.87097,-30054.28971,-50909.47311,-0.014,0.89,0.398,192,0,0,0,0,0,0,0,0,0,1.71E+09,0, 2024-03-15 14:22:18.699
228,-65789.67759,-47350.15897,-54462.23819,-39042.32848,-44112.95582,-55625.73589,-30037.54825,-50860.32162,-0.014,0.89,0.398,192,0,0,0,0,0,0,0,0,0,1.71E+09,0, 2024-03-15 14:22:18.699
229,-65883.15259,-47433.93331,-54553.76858,-39135.24468,-44196.30548,-55683.15753,-30077.98255,-50887.07666,-0.014,0.89,0.398,192,0,0,0,0,0,0,0,0,0,1.71E+09,0, 2024-03-15 14:22:18.699
230,-65918.31188,-47471.95363,-54598.33796,-39186.31842,-44238.93025,-55729.17977,-30124.85416,-50928.15917,-0.014,0.89,0.398,192,0,0,0,0,0,0,0,0,0,1.71E+09,0, 2024-03-15 14:22:18.699
231,-65858.09628,-47419.0247,-54548.65003,-39137.23399,-44193.28799,-55705.33046,-30117.56749,-50918.41381,-0.02,0.892,0.408,192,255,96,27,224,12,192,0,0,0,1.71E+09,0, 2024-03-15 14:22:18.699
232,-65780.58043,-47345.86744,-54470.17306,-39058.75701,-44121.76241,-55652.37917,-30071.5229,-50897.00084,-0.02,0.892,0.408,192,0,0,0,0,0,0,0,0,0,1.71E+09,0, 2024-03-15 14:22:18.699
233,-65807.26842,-47363.92765,-54487.22744,-39077.37602,-44136.91689,-55659.1741,-30051.49574,-50903.39344,-0.02,0.892,0.408,192,0,0,0,0,0,0,0,0,0,1.71E+09,0, 2024-03-15 14:22:18.699
234,-65900.5199,-47447.09849,-54578.4002,-39168.68289,-44225.3851,-55723.92711,-30100.55782,-50939.20093,-0.02,0.892,0.408,192,0,0,0,0,0,0,0,0,0,1.71E+09,0, 2024-03-15 14:22:18.699
235,-65928.28076,-47474.56878,-54614.76649,-39205.60798,-44264.90298,-55762.90855,-30148.63642,-51008.24547,-0.02,0.892,0.408,192,0,0,0,0,0,0,0,0,0,1.71E+09,0, 2024-03-15 14:22:18.699
236,-65856.08463,-47409.68167,-54544.76083,-39135.80348,-44199.09945,-55721.17784,-30125.77058,-50981.51278,-0.02,0.892,0.408,192,0,0,0,0,0,0,0,0,0,1.71E+09,0, 2024-03-15 14:22:18.699
237,-65769.2481,-47326.95786,-54446.90489,-39038.28282,-44106.63028,-55648.60173,-30067.20901,-50905.74037,-0.02,0.892,0.408,192,0,0,0,0,0,0,0,0,0,1.71E+09,0, 2024-03-15 14:22:18.699
238,-65788.91764,-47334.35629,-54455.26444,-39044.04957,-44113.31345,-55641.56093,-30043.29265,-50900.62182,-0.02,0.892,0.408,192,0,0,0,0,0,0,0,0,0,1.71E+09,0, 2024-03-15 14:22:18.699
239,-65881.85619,-47417.75065,-54550.1476,-39136.74225,-44204.97795,-55707.05154,-30092.37708,-50961.1727,-0.02,0.892,0.408,192,0,0,0,0,0,0,0,0,0,1.71E+09,0, 2024-03-15 14:22:18.699
240,-65909.90763,-47450.33949,-54588.57025,-39175.83545,-44245.23345,-55744.04368,-30136.09709,-51011.64293,-0.02,0.892,0.408,192,0,0,0,0,0,0,0,0,0,1.71E+09,0, 2024-03-15 14:22:18.699
241,-65832.74941,-47384.93829,-54518.7881,-39106.47799,-44181.10629,-55698.89315,-30115.93582,-50984.08323,-0.02,0.892,0.408,192,0,0,0,0,0,0,0,0,0,1.71E+09,0, 2024-03-15 14:22:18.699
242,-65750.91967,-47312.0716,-54432.17509,-39018.00978,-44097.93545,-55630.83209,-30057.66482,-50905.4498,-0.022,0.88,0.404,192,255,80,27,128,12,160,0,0,0,1.71E+09,0, 2024-03-15 14:22:18.699
243,-65773.00319,-47330.73531,-54443.90976,-39029.96797,-44106.2056,-55624.93123,-30027.91465,-50893.51396,-0.022,0.88,0.404,192,0,0,0,0,0,0,0,0,0,1.71E+09,0, 2024-03-15 14:22:18.699
244,-65876.53647,-47425.17143,-54544.93964,-39130.75198,-44199.34531,-55694.19929,-30081.00004,-50975.41076,-0.022,0.88,0.404,192,0,0,0,0,0,0,0,0,0,1.71E+09,0, 2024-03-15 14:22:18.699
245,-65910.62288,-47461.47066,-54581.48474,-39169.62167,-44234.23639,-55725.89406,-30113.90181,-51004.06569,-0.022,0.88,0.404,192,0,0,0,0,0,0,0,0,0,1.71E+09,0, 2024-03-15 14:22:18.699
246,-65843.18767,-47404.31725,-54513.80366,-39102.56643,-44172.81379,-55679.13421,-30094.5899,-50941.32435,-0.022,0.88,0.404,192,0,0,0,0,0,0,0,0,0,1.71E+09,0, 2024-03-15 14:22:18.699
247,-65760.37446,-47327.38254,-54422.11681,-39010.07491,-44083.8315,-55608.70386,-30041.4598,-50858.15351,-0.022,0.88,0.404,192,0,0,0,0,0,0,0,0,0,1.71E+09,0, 2024-03-15 14:22:18.699
248,-65781.76508,-47341.73236,-54435.59491,-39021.72017,-44094.04625,-55607.98861,-30015.55413,-50861.64038,-0.022,0.88,0.404,192,0,0,0,0,0,0,0,0,0,1.71E+09,0, 2024-03-15 14:22:18.699
249,-65883.57727,-47437.15196,-54540.80457,-39128.22624,-44193.62327,-55688.6337,-30074.071,-50973.17558,-0.022,0.88,0.404,192,0,0,0,0,0,0,0,0,0,1.71E+09,0, 2024-03-15 14:22:18.699
250,-65915.69673,-47472.11009,-54584.01049,-39173.10854,-44238.01383,-55728.73273,-30123.60246,-51017.09676,-0.022,0.88,0.404,192,0,0,0,0,0,0,0,0,0,1.71E+09,0, 2024-03-15 14:22:18.699
251,-65843.03121,-47409.81578,-54518.47518,-39108.78022,-44178.80406,-55687.04673,-30105.25168,-50953.39429,-0.022,0.88,0.404,192,0,0,0,0,0,0,0,0,0,1.71E+09,0, 2024-03-15 14:22:18.699
252,-65754.94298,-47328.07545,-54428.91174,-39016.75809,-44092.66044,-55615.83407,-30044.5667,-50863.42852,-0.018,0.874,0.394,192,255,112,27,80,12,80,0,0,0,1.71E+09,0, 2024-03-15 14:22:18.699
253,-65772.4891,-47338.46901,-54439.08178,-39025.51997,-44100.37179,-55608.94973,-30017.47638,-50835.44413,-0.018,0.874,0.394,192,0,0,0,0,0,0,0,0,0,1.71E+09,0, 2024-03-15 14:22:18.699
254,-65869.69684,-47427.58541,-54535.26134,-39124.5829,-44193.55621,-55681.41409,-30068.95245,-50894.96683,-0.018,0.874,0.394,192,0,0,0,0,0,0,0,0,0,1.71E+09,0, 2024-03-15 14:22:18.699
255,-65902.03981,-47462.63295,-54578.64607,-39170.6275,-44240.38312,-55725.58114,-30120.29441,-50957.23879,-0.018,0.874,0.394,192,0,0,0,0,0,0,0,0,0,1.71E+09,0, 2024-03-15 14:22:18.699
0,-65845.42285,-47416.02956,-54528.62287,-39123.39826,-44202.04988,-55705.37516,-30122.01549,-50961.32916,-0.018,0.874,0.394,192,0,0,0,0,0,0,0,0,0,1.71E+09,0, 2024-03-15 14:22:18.699
1,-65766.63295,-47341.24063,-54442.12162,-39036.1594,-44121.5836,-55641.40447,-30068.46071,-50890.42942,-0.018,0.874,0.394,192,0,0,0,0,0,0,0,0,0,1.71E+09,0, 2024-03-15 14:22:18.699
2,-65784.87197,-47350.65071,-54450.54823,-39042.32848,-44127.52916,-55633.02256,-30034.48606,-50869.35173,-0.018,0.874,0.394,192,0,0,0,0,0,0,0,0,0,1.71E+09,0, 2024-03-15 14:22:18.699
3,-65878.8387,-47436.83904,-54548.44887,-39139.84914,-44222.2782,-55703.38585,-30090.49953,-50967.49824,-0.018,0.874,0.394,192,0,0,0,0,0,0,0,0,0,1.71E+09,0, 2024-03-15 14:22:18.699
4,-65928.45958,-47488.49392,-54609.67029,-39203.28339,-44283.52198,-55763.28853,-30156.37012,-51043.60593,-0.018,0.874,0.394,192,0,0,0,0,0,0,0,0,0,1.71E+09,0, 2024-03-15 14:22:18.699
5,-65860.10794,-47429.03828,-54547.46539,-39141.9055,-44225.07217,-55725.33527,-30140.85801,-50992.5769,-0.018,0.874,0.394,192,0,0,0,0,0,0,0,0,0,1.71E+09,0, 2024-03-15 14:22:18.699
6,-65761.38029,-47335.25036,-54441.56282,-39035.89118,-44121.40478,-55642.96909,-30063.81155,-50901.82881,-0.02,0.88,0.4,192,255,96,27,128,12,128,0,0,0,1.71E+09,0, 2024-03-15 14:22:18.699
7,-65784.80491,-47350.69541,-54449.5871,-39046.37415,-44125.22693,-55640.64451,-30031.7815,-50889.75887,-0.02,0.88,0.4,192,0,0,0,0,0,0,0,0,0,1.71E+09,0, 2024-03-15 14:22:18.699
8,-65879.28574,-47437.71075,-54541.98921,-39141.12319,-44211.97405,-55707.96796,-30077.73669,-50975.58957,-0.02,0.88,0.4,192,0,0,0,0,0,0,0,0,0,1.71E+09,0, 2024-03-15 14:22:18.699
9,-65915.85319,-47478.41328,-54585.91039,-39187.23484,-44258.06335,-55750.63744,-30129.59273,-51016.3815,-0.02,0.88,0.4,192,0,0,0,0,0,0,0,0,0,1.71E+09,0, 2024-03-15 14:22:18.699
10,-65849.2897,-47422.98096,-54524.28663,-39122.30302,-44205.31323,-55709.0632,-30119.84737,-50939.26799,-0.02,0.88,0.4,192,0,0,0,0,0,0,0,0,0,1.71E+09,0, 2024-03-15 14:22:18.699
11,-65760.77679,-47339.34073,-54427.52593,-39022.77071,-44110.87711,-55632.19555,-30058.0895,-50854.64428,-0.02,0.88,0.4,192,0,0,0,0,0,0,0,0,0,1.71E+09,0, 2024-03-15 14:22:18.699
12,-65782.79326,-47356.28335,-54440.66875,-39036.62879,-44120.53306,-55633.76017,-30028.6299,-50880.03586,-0.02,0.88,0.4,192,0,0,0,0,0,0,0,0,0,1.71E+09,0, 2024-03-15 14:22:18.699
13,-65874.27895,-47441.37644,-54532.89205,-39129.16501,-44207.25783,-55697.21677,-30078.34018,-50943.67128,-0.02,0.88,0.4,192,0,0,0,0,0,0,0,0,0,1.71E+09,0, 2024-03-15 14:22:18.699
14,-65905.77256,-47475.70872,-54573.8181,-39169.08522,-44245.47931,-55731.32553,-30115.26526,-50991.25814,-0.02,0.88,0.4,192,0,0,0,0,0,0,0,0,0,1.71E+09,0, 2024-03-15 14:22:18.699
15,-65843.36649,-47424.83615,-54515.99413,-39113.74231,-44195.29965,-55701.59771,-30106.14575,-50983.79266,-0.02,0.88,0.4,192,0,0,0,0,0,0,0,0,0,1.71E+09,0, 2024-03-15 14:22:18.699
16,-65756.12763,-47342.38056,-54423.56967,-39014.72408,-44106.96555,-55626.58526,-30046.64541,-50888.88715,-0.02,0.884,0.404,192,255,96,27,160,12,160,0,0,0,1.71E+09,0, 2024-03-15 14:22:18.699
17,-65772.06442,-47348.32613,-54429.93992,-39014.07588,-44110.02774,-55610.55906,-30018.10223,-50847.7823,-0.02,0.884,0.404,192,0,0,0,0,0,0,0,0,0,1.71E+09,0, 2024-03-15 14:22:18.699
18,-65868.73572,-47435.92262,-54530.18749,-39111.99887,-44206.47552,-55678.55307,-30071.65701,-50921.94538,-0.02,0.884,0.404,192,0,0,0,0,0,0,0,0,0,1.71E+09,0, 2024-03-15 14:22:18.699
19,-65912.791,-47481.1849,-54585.84333,-39168.03469,-44261.12554,-55728.10688,-30126.88817,-50987.72657,-0.02,0.884,0.404,192,0,0,0,0,0,0,0,0,0,1.71E+09,0, 2024-03-15 14:22:18.699
20,-65835.11869,-47412.16271,-54516.32941,-39100.77829,-44194.45028,-55684.58804,-30095.99806,-50960.83742,-0.02,0.884,0.404,192,0,0,0,0,0,0,0,0,0,1.71E+09,0, 2024-03-15 14:22:18.699
21,-65750.0703,-47333.66338,-54430.76693,-39014.29939,-44115.30276,-55619.388,-30046.48895,-50865.57428,-0.02,0.884,0.404,192,0,0,0,0,0,0,0,0,0,1.71E+09,0, 2024-03-15 14:22:18.699
22,-65774.29959,-47354.38345,-54448.69303,-39035.35474,-44130.18902,-55630.13919,-30028.56285,-50873.19623,-0.02,0.884,0.404,192,0,0,0,0,0,0,0,0,0,1.71E+09,0, 2024-03-15 14:22:18.699
23,-65877.56465,-47448.37254,-54552.31572,-39138.95507,-44227.79909,-55707.07389,-30081.40237,-50943.13484,-0.02,0.884,0.404,192,0,0,0,0,0,0,0,0,0,1.71E+09,0, 2024-03-15 14:22:18.699
24,-65916.25552,-47485.31997,-54595.83456,-39183.74797,-44272.45787,-55749.31869,-30129.05629,-50984.9773,-0.02,0.884,0.404,192,0,0,0,0,0,0,0,0,0,1.71E+09,0, 2024-03-15 14:22:18.699
25,-65849.75908,-47426.95957,-54537.49651,-39122.75006,-44218.21019,-55713.93588,-30117.20987,-50956.74705,-0.02,0.884,0.404,192,0,0,0,0,0,0,0,0,0,1.71E+09,0, 2024-03-15 14:22:18.699
26,-65765.91769,-47352.30474,-54450.8388,-39039.60157,-44137.76626,-55658.32474,-30069.04186,-50918.77144,-0.022,0.884,0.4,192,255,80,27,160,12,128,0,0,0,1.71E+09,0, 2024-03-15 14:22:18.699
27,-65784.69316,-47364.70996,-54459.93596,-39050.10689,-44145.07528,-55656.89423,-30046.46659,-50904.68984,-0.022,0.884,0.4,192,0,0,0,0,0,0,0,0,0,1.71E+09,0, 2024-03-15 14:22:18.699
28,-65880.62684,-47452.73113,-54555.48967,-39148.32045,-44234.39285,-55726.09523,-30097.33916,-50965.1066,-0.022,0.884,0.4,192,0,0,0,0,0,0,0,0,0,1.71E+09,0, 2024-03-15 14:22:18.699
29,-65914.98147,-47489.99148,-54599.32144,-39195.0803,-44277.71053,-55767.62477,-30149.08345,-51012.62641,-0.022,0.884,0.4,192,0,0,0,0,0,0,0,0,0,1.71E+09,0, 2024-03-15 14:22:18.699
30,-65849.60262,-47435.52028,-54537.94355,-39136.09405,-44222.90405,-55733.87363,-30135.40419,-50985.80432,-0.022,0.884,0.4,192,0,0,0,0,0,0,0,0,0,1.71E+09,0, 2024-03-15 14:22:18.699
31,-65758.4075,-47350.42719,-54438.7018,-39035.62296,-44124.51167,-55657.63183,-30066.78433,-50890.18355,-0.022,0.884,0.4,192,0,0,0,0,0,0,0,0,0,1.71E+09,0, 2024-03-15 14:22:18.699
32,-65772.04207,-47357.98208,-54437.98655,-39035.5559,-44120.60012,-55645.85246,-30034.44136,-50876.48194,-0.022,0.884,0.4,192,0,0,0,0,0,0,0,0,0,1.71E+09,0, 2024-03-15 14:22:18.699
33,-65862.29841,-47442.49403,-54524.08546,-39125.02994,-44200.17233,-55706.53745,-30069.55595,-50932.38365,-0.022,0.884,0.4,192,0,0,0,0,0,0,0,0,0,1.71E+09,0, 2024-03-15 14:22:18.699
34,-65908.83474,-47490.95261,-54575.62859,-39178.47296,-44251.29077,-55753.65493,-30122.30606,-50980.41755,-0.022,0.884,0.4,192,0,0,0,0,0,0,0,0,0,1.71E+09,0, 2024-03-15 14:22:18.699
35,-65844.97581,-47435.1403,-54515.36828,-39117.58681,-44197.2666,-55716.08165,-30111.2196,-50952.65668,-0.022,0.884,0.4,192,0,0,0,0,0,0,0,0,0,1.71E+09,0, 2024-03-15 14:22:18.699
36,-65752.93133,-47345.50981,-54419.99339,-39016.73573,-44107.36789,-55641.18095,-30051.09341,-50904.60043,-0.018,0.888,0.394,192,255,112,27,192,12,80,0,0,0,1.71E+09,0, 2024-03-15 14:22:18.699
37,-65782.16741,-47366.05106,-54436.26546,-39031.33142,-44120.55542,-55644.48901,-30031.28976,-50905.62861,-0.018,0.888,0.394,192,0,0,0,0,0,0,0,0,0,1.71E+09,0, 2024-03-15 14:22:18.699
38,-65877.00586,-47450.00421,-54529.49459,-39122.6383,-44208.88951,-55707.00684,-30074.80861,-50973.24264,-0.018,0.888,0.394,192,0,0,0,0,0,0,0,0,0,1.71E+09,0, 2024-03-15 14:22:18.699
39,-65922.53636,-47493.81363,-54583.04937,-39173.24265,-44262.22077,-55750.68215,-30127.2458,-51039.24734,-0.018,0.888,0.394,192,0,0,0,0,0,0,0,0,0,1.71E+09,0, 2024-03-15 14:22:18.699
40,-65856.48696,-47436.12378,-54520.86681,-39110.76952,-44203.94977,-55710.73958,-30116.42755,-51020.7848,-0.018,0.888,0.394,192,0,0,0,0,0,0,0,0,0,1.71E+09,0, 2024-03-15 14:22:18.699
41,-65762.72139,-47345.30864,-54421.11098,-39003.97289,-44109.87128,-55622.629,-30055.09437,-50874.11265,-0.018,0.888,0.394,192,0,0,0,0,0,0,0,0,0,1.71E+09,0, 2024-03-15 14:22:18.699
42,-65770.94683,-47344.54868,-54420.14985,-38998.47436,-44106.22795,-55601.64071,-30017.11875,-50831.17495,-0.018,0.888,0.394,192,0,0,0,0,0,0,0,0,0,1.71E+09,0, 2024-03-15 14:22:18.699
43,-65869.36156,-47434.08977,-54520.6433,-39098.02903,-44201.44638,-55672.16047,-30070.89705,-50926.90747,-0.018,0.888,0.394,192,0,0,0,0,0,0,0,0,0,1.71E+09,0, 2024-03-15 14:22:18.699
44,-65907.85127,-47476.33457,-54577.52849,-39153.41665,-44259.18093,-55720.55199,-30129.72684,-51006.27852,-0.018,0.888,0.394,192,0,0,0,0,0,0,0,0,0,1.71E+09,0, 2024-03-15 14:22:18.700
45,-65850.07201,-47430.69231,-54535.57426,-39112.58001,-44225.85448,-55703.16234,-30138.71224,-51009.96655,-0.018,0.888,0.394,192,0,0,0,0,0,0,0,0,0,1.71E+09,0, 2024-03-15 14:22:18.700
46,-65769.56102,-47352.66237,-54447.75426,-39023.9777,-44140.60493,-55639.28105,-30080.84358,-50915.46338,-0.02,0.882,0.392,192,255,96,27,144,12,64,0,0,0,1.71E+09,0, 2024-03-15 14:22:18.700
47,-65789.65524,-47354.45051,-54446.45786,-39021.58606,-44133.2065,-55626.71937,-30040.54338,-50850.24099,-0.02,0.882,0.392,192,0,0,0,0,0,0,0,0,0,1.71E+09,0, 2024-03-15 14:22:18.700
48,-65882.72791,-47437.84487,-54536.80361,-39116.53627,-44215.75149,-55696.2333,-30079.74834,-50921.99009,-0.02,0.882,0.392,192,0,0,0,0,0,0,0,0,0,1.71E+09,0, 2024-03-15 14:22:18.700
49,-65922.44696,-47482.12367,-54589.37491,-39174.89668,-44267.65225,-55753.92315,-30130.33034,-51008.51369,-0.02,0.882,0.392,192,0,0,0,0,0,0,0,0,0,1.71E+09,0, 2024-03-15 14:22:18.700
50,-65857.93982,-47429.44061,-54530.12044,-39122.23597,-44209.31419,-55727.81631,-30127.2011,-50996.66727,-0.02,0.882,0.392,192,0,0,0,0,0,0,0,0,0,1.71E+09,0, 2024-03-15 14:22:18.700
51,-65766.36473,-47344.66044,-54436.28781,-39025.81054,-44117.47087,-55656.98363,-30074.85331,-50900.46536,-0.02,0.882,0.392,192,0,0,0,0,0,0,0,0,0,1.71E+09,0, 2024-03-15 14:22:18.700
52,-65774.90309,-47345.19688,-54435.68432,-39021.29549,-44113.73813,-55641.51623,-30037.01181,-50871.05046,-0.02,0.882,0.392,192,0,0,0,0,0,0,0,0,0,1.71E+09,0, 2024-03-15 14:22:18.700
53,-65862.27606,-47424.94791,-54520.95622,-39108.75787,-44195.07613,-55701.30714,-30077.93785,-50939.93854,-0.02,0.882,0.392,192,0,0,0,0,0,0,0,0,0,1.71E+09,0, 2024-03-15 14:22:18.700
54,-65907.87362,-47470.65723,-54569.52656,-39159.60809,-44244.31702,-55744.73658,-30126.91052,-50982.67507,-0.02,0.882,0.392,192,0,0,0,0,0,0,0,0,0,1.71E+09,0, 2024-03-15 14:22:18.700
55,-65855.88346,-47429.66413,-54521.51501,-39115.10576,-44204.35211,-55724.32944,-30125.16709,-50992.71101,-0.02,0.882,0.392,192,0,0,0,0,0,0,0,0,0,1.71E+09,0, 2024-03-15 14:22:18.700
56,-65768.13051,-47350.24838,-54432.9574,-39026.41404,-44120.57777,-55663.39858,-30075.79208,-50960.45744,-0.02,0.88,0.394,192,255,96,27,128,12,80,0,0,0,1.71E+09,0, 2024-03-15 14:22:18.700
57,-65782.39093,-47358.13854,-54437.3607,-39030.83969,-44116.10742,-55657.85535,-30045.34901,-50944.40889,-0.02,0.88,0.394,192,0,0,0,0,0,0,0,0,0,1.71E+09,0, 2024-03-15 14:22:18.700
58,-65868.82512,-47436.03437,-54519.65982,-39112.91529,-44190.29286,-55709.53258,-30073.64632,-50960.25627,-0.02,0.88,0.394,192,0,0,0,0,0,0,0,0,0,1.71E+09,0, 2024-03-15 14:22:18.700
59,-65912.52278,-47480.82727,-54568.58779,-39164.14549,-44239.53375,-55753.23024,-30120.13794,-51011.01709,-0.02,0.88,0.394,192,0,0,0,0,0,0,0,0,0,1.71E+09,0, 2024-03-15 14:22:18.700
60,-65845.26638,-47424.8138,-54506.29348,-39102.45467,-44180.83807,-55713.04181,-30107.28569,-50971.36509,-0.02,0.88,0.394,192,0,0,0,0,0,0,0,0,0,1.71E+09,0, 2024-03-15 14:22:18.700
61,-65755.85941,-47345.26394,-54412.59496,-39005.15753,-44094.47093,-55639.52692,-30058.06715,-50891.43525,-0.02,0.88,0.394,192,0,0,0,0,0,0,0,0,0,1.71E+09,0, 2024-03-15 14:22:18.700
62,-65774.97015,-47356.46216,-54420.95452,-39008.66675,-44100.5059,-55632.10614,-30034.50841,-50891.50231,-0.02,0.88,0.394,192,0,0,0,0,0,0,0,0,0,1.71E+09,0, 2024-03-15 14:22:18.700
63,-65864.17596,-47438.71658,-54509.8027,-39096.64322,-44183.0956,-55690.17597,-30068.25955,-50962.4691,-0.02,0.88,0.394,192,0,0,0,0,0,0,0,0,0,1.71E+09,0, 2024-03-15 14:22:18.700
64,-65904.38675,-47483.62124,-54562.75398,-39148.05223,-44236.2704,-55731.45965,-30122.44017,-51001.22702,-0.02,0.88,0.394,192,0,0,0,0,0,0,0,0,0,1.71E+09,0, 2024-03-15 14:22:18.700
65,-65840.68428,-47428.54654,-54505.15354,-39085.64616,-44185.30842,-55688.96898,-30113.74535,-50937.77042,-0.02,0.88,0.394,192,0,0,0,0,0,0,0,0,0,1.71E+09,0, 2024-03-15 14:22:18.700
66,-65741.0849,-47333.21635,-54400.2568,-38974.6474,-44086.64782,-55602.95947,-30049.77465,-50851.31387,-0.024,0.886,0.394,192,255,64,27,176,12,80,0,0,0,1.71E+09,0, 2024-03-15 14:22:18.700
67,-65754.65241,-47340.03363,-54409.35396,-38978.73777,-44095.09678,-55597.63975,-30027.48996,-50868.25649,-0.024,0.886,0.394,192,0,0,0,0,0,0,0,0,0,1.71E+09,0, 2024-03-15 14:22:18.700
68,-65855.59289,-47431.13934,-54512.55196,-39082.44986,-44194.6291,-55672.85337,-30083.43638,-50973.4438,-0.024,0.886,0.394,192,0,0,0,0,0,0,0,0,0,1.71E+09,0, 2024-03-15 14:22:18.700
69,-65897.54711,-47474.837,-54563.78216,-39137.92689,-44242.12655,-55721.44606,-30129.50333,-51042.84597,-0.024,0.886,0.394,192,0,0,0,0,0,0,0,0,0,1.71E+09,0, 2024-03-15 14:22:18.700
70,-65840.32665,-47424.94791,-54513.53544,-39086.76375,-44197.60188,-55690.19832,-30121.99314,-50969.17462,-0.024,0.886,0.394,192,0,0,0,0,0,0,0,0,0,1.71E+09,0, 2024-03-15 14:22:18.700
71,-65747.74572,-47338.2902,-54420.14985,-38991.3218,-44109.96069,-55622.80782,-30068.39366,-50882.31574,-0.024,0.886,0.394,192,0,0,0,0,0,0,0,0,0,1.71E+09,0, 2024-03-15 14:22:18.700
72,-65757.82636,-47341.64296,-54422.6309,-38996.66387,-44110.67594,-55622.65135,-30041.12453,-50899.92892,-0.024,0.886,0.394,192,0,0,0,0,0,0,0,0,0,1.71E+09,0, 2024-03-15 14:22:18.700
73,-65847.72508,-47425.61846,-54515.65886,-39092.97753,-44196.97603,-55692.94759,-30079.05544,-50968.63818,-0.024,0.886,0.394,192,0,0,0,0,0,0,0,0,0,1.71E+09,0, 2024-03-15 14:22:18.700
74,-65893.43439,-47472.33361,-54569.75008,-39150.06389,-44247.1557,-55742.92609,-30122.7978,-50991.50401,-0.024,0.886,0.394,192,0,0,0,0,0,0,0,0,0,1.71E+09,0, 2024-03-15 14:22:19.179
75,-65835.27515,-47425.01496,-54514.02718,-39103.05817,-44199.03239,-55720.97668,-30116.20404,-50967.61,-0.024,0.886,0.394,192,0,0,0,0,0,0,0,0,0,1.71E+09,0, 2024-03-15 14:22:19.179
76,-65741.19666,-47338.02197,-54416.95355,-39006.34217,-44107.92668,-55652.15566,-30062.76102,-50888.52953,-0.022,0.888,0.402,192,255,80,27,192,12,144,0,0,0,1.71E+09,0, 2024-03-15 14:22:19.179
77,-65752.10431,-47343.90048,-54420.37337,-39010.23138,-44104.88684,-55647.66296,-30035.96127,-50873.62091,-0.022,0.888,0.402,192,0,0,0,0,0,0,0,0,0,1.71E+09,0, 2024-03-15 14:22:19.179
78,-65849.78144,-47434.4027,-54519.90569,-39113.98817,-44194.80791,-55724.99999,-30086.92325,-50983.83736,-0.022,0.888,0.402,192,0,0,0,0,0,0,0,0,0,1.71E+09,0, 2024-03-15 14:22:19.179
79,-65892.20505,-47479.285,-54568.23016,-39166.51477,-44240.65134,-55769.77054,-30131.71615,-51039.62732,-0.022,0.888,0.402,192,0,0,0,0,0,0,0,0,0,1.71E+09,0, 2024-03-15 14:22:19.179
80,-65835.47632,-47432.34634,-54513.6919,-39113.0941,-44191.83513,-55737.36051,-30118.39451,-50995.52733,-0.022,0.888,0.402,192,0,0,0,0,0,0,0,0,0,1.71E+09,0, 2024-03-15 14:22:19.179
81,-65741.88957,-47344.32517,-54410.94093,-39008.13031,-44094.09095,-55657.27421,-30055.5414,-50901.56059,-0.022,0.888,0.402,192,0,0,0,0,0,0,0,0,0,1.71E+09,0, 2024-03-15 14:22:19.179
82,-65746.69519,-47342.31351,-54404.50363,-38998.58612,-44084.36794,-55636.82236,-30015.88941,-50875.14083,-0.022,0.888,0.402,192,0,0,0,0,0,0,0,0,0,1.71E+09,0, 2024-03-15 14:22:19.179
83,-65844.95346,-47430.6476,-54498.2692,-39092.95518,-44172.12089,-55700.63659,-30054.13324,-50948.70042,-0.022,0.888,0.402,192,0,0,0,0,0,0,0,0,0,1.71E+09,0, 2024-03-15 14:22:19.179
84,-65895.82603,-47482.03426,-54559.42357,-39152.41082,-44233.38702,-55751.26329,-30115.93582,-51018.05788,-0.022,0.888,0.402,192,0,0,0,0,0,0,0,0,0,1.71E+09,0, 2024-03-15 14:22:19.179
85,-65840.9525,-47437.0402,-54514.31775,-39105.76273,-44193.3327,-55726.07287,-30112.65011,-51014.83923,-0.022,0.888,0.402,192,0,0,0,0,0,0,0,0,0,1.71E+09,0, 2024-03-15 14:22:19.179
86,-65746.69519,-47346.22506,-54421.3345,-39004.0623,-44108.12785,-55649.16052,-30060.95052,-50945.30296,-0.022,0.88,0.4,192,255,80,27,128,12,128,0,0,0,1.71E+09,0, 2024-03-15 14:22:19.179
87,-65747.16458,-47334.66921,-54408.5493,-38984.9292,-44096.21437,-55617.06342,-30024.36072,-50871.38574,-0.022,0.88,0.4,192,0,0,0,0,0,0,0,0,0,1.71E+09,0, 2024-03-15 14:22:19.179
88,-65842.56182,-47419.47173,-54500.95141,-39076.30313,-44185.44253,-55676.60846,-30065.46558,-50926.90747,-0.022,0.88,0.4,192,0,0,0,0,0,0,0,0,0,1.71E+09,0, 2024-03-15 14:22:19.179
89,-65894.8649,-47473.07121,-54561.65875,-39140.78792,-44246.93218,-55733.53836,-30123.98244,-51025.59042,-0.022,0.88,0.4,192,0,0,0,0,0,0,0,0,0,1.71E+09,0, 2024-03-15 14:22:19.179
90,-65843.36649,-47430.78171,-54518.45283,-39096.48676,-44210.0965,-55709.13025,-30123.446,-51003.66336,-0.022,0.88,0.4,192,0,0,0,0,0,0,0,0,0,1.71E+09,0, 2024-03-15 14:22:19.179
91,-65747.45515,-47339.676,-54418.47347,-38989.3325,-44118.45435,-55623.63483,-30068.21484,-50871.72101,-0.022,0.88,0.4,192,0,0,0,0,0,0,0,0,0,1.71E+09,0, 2024-03-15 14:22:19.179
92,-65753.35601,-47338.62547,-54415.29952,-38981.12941,-44112.10646,-55601.77482,-30033.16731,-50815.70754,-0.022,0.88,0.4,192,0,0,0,0,0,0,0,0,0,1.71E+09,0, 2024-03-15 14:22:19.179
93,-65853.2236,-47428.52419,-54513.49074,-39080.81819,-44202.38515,-55673.54628,-30070.49472,-50912.37884,-0.022,0.88,0.4,192,0,0,0,0,0,0,0,0,0,1.71E+09,0, 2024-03-15 14:22:19.179
94,-65914.60149,-47491.31024,-54583.60816,-39155.31655,-44270.62503,-55740.78032,-30133.88427,-51006.52438,-0.022,0.88,0.4,192,0,0,0,0,0,0,0,0,0,1.71E+09,0, 2024-03-15 14:22:19.179
95,-65861.4714,-47447.43376,-54539.97756,-39113.36233,-44230.86127,-55722.42954,-30133.14666,-51001.89757,-0.022,0.88,0.4,192,0,0,0,0,0,0,0,0,0,1.71E+09,0, 2024-03-15 14:22:19.179
96,-65755.01004,-47351.18715,-54432.68918,-39005.47046,-44128.93732,-55644.01962,-30064.4374,-50910.56835,-0.016,0.88,0.392,192,255,128,27,128,12,64,0,0,0,1.71E+09,0, 2024-03-15 14:22:19.179
97,-65759.0557,-47353.73525,-54429.20231,-39004.01759,-44124.15405,-55638.36463,-30035.35778,-50872.25746,-0.016,0.88,0.392,192,0,0,0,0,0,0,0,0,0,1.71E+09,0, 2024-03-15 14:22:19.179
98,-65856.91164,-47443.79043,-54527.6841,-39106.41093,-44215.59503,-55715.67931,-30084.86689,-50946.42054,-0.016,0.88,0.392,192,0,0,0,0,0,0,0,0,0,1.71E+09,0, 2024-03-15 14:22:19.179
99,-65901.01163,-47488.60568,-54579.36133,-39165.41954,-44267.6746,-55770.48579,-30132.09613,-51032.65357,-0.016,0.88,0.392,192,0,0,0,0,0,0,0,0,0,1.71E+09,0, 2024-03-15 14:22:19.179
100,-65845.02051,-47441.95759,-54530.54512,-39120.82781,-44227.39675,-55750.61509,-30134.8901,-51044.43294,-0.016,0.88,0.392,192,0,0,0,0,0,0,0,0,0,1.71E+09,0, 2024-03-15 14:22:19.179
101,-65743.70006,-47344.39222,-54422.22857,-39010.25373,-44120.75658,-55665.4773,-30069.28773,-50930.81903,-0.016,0.88,0.392,192,0,0,0,0,0,0,0,0,0,1.71E+09,0, 2024-03-15 14:22:19.179
102,-65743.56595,-47336.88204,-54411.99147,-38996.44035,-44108.93251,-55639.16929,-30032.40735,-50850.62097,-0.016,0.88,0.392,192,0,0,0,0,0,0,0,0,0,1.71E+09,0, 2024-03-15 14:22:19.179
103,-65835.07399,-47419.20351,-54503.85714,-39090.65295,-44196.52899,-55704.36933,-30075.79208,-50951.89672,-0.016,0.88,0.392,192,0,0,0,0,0,0,0,0,0,1.71E+09,0, 2024-03-15 14:22:19.179
104,-65884.5384,-47472.55712,-54564.56447,-39155.51772,-44256.74459,-55762.17094,-30131.40322,-51046.82458,-0.016,0.88,0.392,192,0,0,0,0,0,0,0,0,0,1.71E+09,0, 2024-03-15 14:22:19.179
105,-65824.68043,-47424.36676,-54510.96499,-39102.92406,-44206.96726,-55728.75508,-30119.28858,-50998.65657,-0.016,0.88,0.392,192,0,0,0,0,0,0,0,0,0,1.71E+09,0, 2024-03-15 14:22:19.179
106,-65734.28997,-47341.86647,-54414.02548,-39004.24111,-44114.85572,-55654.83787,-30063.90096,-50898.18548,-0.016,0.882,0.396,192,255,128,27,144,12,96,0,0,0,1.71E+09,0, 2024-03-15 14:22:19.179
107,-65731.20543,-47333.2834,-54402.51433,-38989.46661,-44102.65167,-55632.1732,-30024.51718,-50866.91539,-0.016,0.882,0.396,192,0,0,0,0,0,0,0,0,0,1.71E+09,0, 2024-03-15 14:22:19.179
108,-65827.69791,-47419.13645,-54499.65501,-39084.39447,-44193.06447,-55698.44612,-30068.3713,-50945.25825,-0.016,0.882,0.396,192,0,0,0,0,0,0,0,0,0,1.71E+09,0, 2024-03-15 14:22:19.179
109,-65884.60545,-47473.80882,-54557.90365,-39146.12998,-44249.03324,-55751.75503,-30117.92512,-51008.67015,-0.016,0.882,0.396,192,0,0,0,0,0,0,0,0,0,1.71E+09,0, 2024-03-15 14:22:19.179
110,-65833.9117,-47429.75353,-54508.26043,-39094.67627,-44199.88176,-55718.76385,-30107.95624,-50956.59059,-0.016,0.882,0.396,192,0,0,0,0,0,0,0,0,0,1.71E+09,0, 2024-03-15 14:22:19.179
111,-65741.53194,-47342.69349,-54409.75629,-38992.21587,-44099.96946,-55642.09737,-30052.12159,-50877.9795,-0.016,0.882,0.396,192,0,0,0,0,0,0,0,0,0,1.71E+09,0, 2024-03-15 14:22:19.179
112,-65745.10822,-47339.78776,-54402.112,-38981.77761,-44090.2241,-55624.77477,-30014.83888,-50872.16805,-0.016,0.882,0.396,192,0,0,0,0,0,0,0,0,0,1.71E+09,0, 2024-03-15 14:22:19.179
113,-65838.42675,-47423.71856,-54494.38,-39073.10683,-44176.85946,-55686.77851,-30052.3451,-50956.47883,-0.016,0.882,0.396,192,0,0,0,0,0,0,0,0,0,1.71E+09,0, 2024-03-15 14:22:19.179
114,-65894.23906,-47480.15672,-54559.96001,-39137.54691,-44240.13725,-55739.2604,-30110.12436,-51005.11622,-0.016,0.882,0.396,192,0,0,0,0,0,0,0,0,0,1.71E+09,0, 2024-03-15 14:22:19.179
115,-65842.27125,-47435.67675,-54514.2954,-39090.96588,-44201.33462,-55713.57825,-30109.38676,-50993.02393,-0.016,0.882,0.396,192,0,0,0,0,0,0,0,0,0,1.71E+09,0, 2024-03-15 14:22:19.179
116,-65739.81085,-47341.5312,-54410.94093,-38982.69403,-44104.46216,-55631.90498,-30048.70177,-50905.36039,-0.016,0.882,0.396,192,0,0,0,0,0,0,0,0,0,1.71E+09,0, 2024-03-15 14:22:19.179
117,-65742.20249,-47338.35725,-54403.25193,-38971.07112,-44095.65557,-55611.90016,-30016.98464,-50866.78128,-0.018,0.882,0.398,192,255,112,27,144,12,112,0,0,0,1.71E+09,0, 2024-03-15 14:22:19.179
118,-65838.33734,-47427.11603,-54495.34112,-39065.50724,-44182.42504,-55676.83198,-30063.16335,-50928.58385,-0.018,0.882,0.398,192,0,0,0,0,0,0,0,0,0,1.71E+09,0, 2024-03-15 14:22:19.179
119,-65894.03789,-47484.4259,-54560.92114,-39133.68006,-44246.03811,-55737.42756,-30119.19917,-51008.0443,-0.018,0.882,0.398,192,0,0,0,0,0,0,0,0,0,1.71E+09,0, 2024-03-15 14:22:19.179
120,-65835.2081,-47435.34147,-54508.99804,-39084.1933,-44201.24521,-55708.61616,-30111.77839,-50985.51375,-0.018,0.882,0.398,192,0,0,0,0,0,0,0,0,0,1.71E+09,0, 2024-03-15 14:22:19.179
121,-65738.35799,-47349.46607,-54412.84083,-38986.96321,-44110.20656,-55638.5658,-30062.47044,-50906.56738,-0.018,0.882,0.398,192,0,0,0,0,0,0,0,0,0,1.71E+09,0, 2024-03-15 14:22:19.179
122,-65735.11699,-47346.85091,-54406.02355,-38978.31309,-44102.65167,-55624.23833,-30029.81454,-50878.96298,-0.018,0.882,0.398,192,0,0,0,0,0,0,0,0,0,1.71E+09,0, 2024-03-15 14:22:19.179
123,-65831.65417,-47439.81182,-54502.98542,-39077.13015,-44196.55135,-55694.66867,-30072.97576,-50945.86175,-0.018,0.882,0.398,192,0,0,0,0,0,0,0,0,0,1.71E+09,0, 2024-03-15 14:22:19.179
124,-65880.47038,-47492.45018,-54557.81425,-39136.69755,-44253.25772,-55745.69771,-30124.83181,-50982.67507,-0.018,0.882,0.398,192,0,0,0,0,0,0,0,0,0,1.71E+09,0, 2024-03-15 14:22:19.179
125,-65823.1158,-47444.57274,-54504.28182,-39086.29436,-44206.02849,-55717.62392,-30116.29344,-50948.83453,-0.018,0.882,0.398,192,0,0,0,0,0,0,0,0,0,1.71E+09,0, 2024-03-15 14:22:19.179
126,-65738.87208,-47367.77215,-54418.16055,-38998.25084,-44125.56221,-55658.50355,-30070.2712,-50898.16313,-0.018,0.882,0.398,192,0,0,0,0,0,0,0,0,0,1.71E+09,0, 2024-03-15 14:22:19.179
127,-65743.633,-47367.34746,-54415.25482,-38995.63569,-44121.18126,-55650.63574,-30040.45398,-50912.62471,-0.016,0.882,0.402,192,255,128,27,144,12,144,0,0,0,1.71E+09,0, 2024-03-15 14:22:19.179
128,-65845.98164,-47459.23548,-54511.59084,-39095.90561,-44208.7554,-55720.90962,-30081.84941,-50988.1736,-0.016,0.882,0.402,192,0,0,0,0,0,0,0,0,0,1.71E+09,0, 2024-03-15 14:22:19.179
129,-65899.55877,-47511.78444,-54567.60431,-39156.88117,-44262.35488,-55769.34585,-30132.29729,-51023.3776,-0.016,0.882,0.402,192,0,0,0,0,0,0,0,0,0,1.71E+09,0, 2024-03-15 14:22:19.179
130,-65847.92624,-47470.85839,-54519.52571,-39113.83171,-44216.37734,-55744.73658,-30117.67925,-50988.62064,-0.016,0.882,0.402,192,0,0,0,0,0,0,0,0,0,1.71E+09,0, 2024-03-15 14:22:19.179
131,-65753.11014,-47385.18416,-54419.25578,-39013.00299,-44119.19196,-55668.89711,-30052.3451,-50880.03586,-0.016,0.882,0.402,192,0,0,0,0,0,0,0,0,0,1.71E+09,0, 2024-03-15 14:22:19.179
132,-65756.57466,-47385.00534,-54408.99633,-39005.76103,-44102.58461,-55654.99433,-30014.19068,-50869.84347,-0.016,0.882,0.402,192,0,0,0,0,0,0,0,0,0,1.71E+09,0, 2024-03-15 14:22:19.179
133,-65848.44033,-47466.81273,-54497.93392,-39092.66461,-44185.42018,-55713.39944,-30050.3558,-50929.165,-0.016,0.882,0.402,192,0,0,0,0,0,0,0,0,0,1.71E+09,0, 2024-03-15 14:22:19.179
134,-65906.89014,-47525.55311,-54559.75885,-39156.34473,-44247.78154,-55768.22826,-30106.7716,-50989.55941,-0.016,0.882,0.402,192,0,0,0,0,0,0,0,0,0,1.71E+09,0, 2024-03-15 14:22:19.179
135,-65855.14585,-47481.02844,-54514.2507,-39108.71316,-44208.77775,-55740.48975,-30108.068,-50963.13965,-0.016,0.882,0.402,192,0,0,0,0,0,0,0,0,0,1.71E+09,0, 2024-03-15 14:22:19.179
136,-65754.25008,-47387.39698,-54413.66785,-39002.40827,-44115.03453,-55661.29752,-30054.96026,-50883.61214,-0.016,0.882,0.402,192,0,0,0,0,0,0,0,0,0,1.71E+09,0, 2024-03-15 14:22:19.179
137,-65747.79043,-47376.7352,-54399.16157,-38986.1362,-44098.06956,-55640.64451,-30013.40836,-50880.61701,-0.018,0.882,0.396,192,255,112,27,144,12,96,0,0,0,1.71E+09,0, 2024-03-15 14:22:19.179
138,-65836.37039,-47455.03336,-54484.41112,-39071.89984,-44178.46879,-55695.71921,-30048.99234,-50917.81031,-0.018,0.882,0.396,192,0,0,0,0,0,0,0,0,0,1.71E+09,0, 2024-03-15 14:22:19.179
139,-65891.80272,-47509.9963,-54545.76666,-39136.56344,-44241.18778,-55750.1457,-30107.28569,-50969.06286,-0.018,0.882,0.396,192,0,0,0,0,0,0,0,0,0,1.71E+09,0, 2024-03-15 14:22:19.179
140,-65844.86405,-47471.23837,-54505.64528,-39096.66557,-44205.11206,-55730.40911,-30108.26917,-50953.50605,-0.018,0.882,0.396,192,0,0,0,0,0,0,0,0,0,1.71E+09,0, 2024-03-15 14:22:19.179
141,-65749.84679,-47382.94898,-54408.86222,-38994.04871,-44114.05106,-55653.07208,-30056.8378,-50843.75898,-0.018,0.882,0.396,192,0,0,0,0,0,0,0,0,0,1.71E+09,0, 2024-03-15 14:22:19.179
142,-65742.15779,-47370.61082,-54396.07702,-38978.17898,-44099.74594,-55632.37436,-30018.90689,-50845.83769,-0.018,0.882,0.396,192,0,0,0,0,0,0,0,0,0,1.71E+09,0, 2024-03-15 14:22:19.179
143,-65840.12548,-47459.36959,-54493.70944,-39077.04074,-44182.67091,-55702.87176,-30062.47044,-50943.96185,-0.018,0.882,0.396,192,0,0,0,0,0,0,0,0,0,1.71E+09,0, 2024-03-15 14:22:19.179
144,-65893.54615,-47513.05849,-54555.40026,-39141.01143,-44237.09741,-55755.33131,-30113.72299,-50997.94131,-0.018,0.882,0.396,192,0,0,0,0,0,0,0,0,0,1.71E+09,0, 2024-03-15 14:22:19.179
145,-65845.4452,-47471.90892,-54512.77548,-39099.25838,-44200.48525,-55730.58793,-30115.04175,-50966.15713,-0.018,0.882,0.396,192,0,0,0,0,0,0,0,0,0,1.71E+09,0, 2024-03-15 14:22:19.179
146,-65758.16164,-47390.3027,-54423.972,-39006.27512,-44116.12977,-55662.23629,-30068.14779,-50884.77443,-0.018,0.882,0.396,192,0,0,0,0,0,0,0,0,0,1.71E+09,0, 2024-03-15 14:22:19.179
147,-65761.49205,-47387.97812,-54417.37824,-38997.0215,-44108.53018,-55646.65713,-30041.07982,-50861.41686,-0.016,0.896,0.396,192,255,128,28,0,12,96,0,0,0,1.71E+09,0, 2024-03-15 14:22:19.179
148,-65850.89902,-47468.60087,-54503.65597,-39084.97561,-44187.40948,-55705.15164,-30069.10891,-50929.63438,-0.016,0.896,0.396,192,0,0,0,0,0,0,0,0,0,1.71E+09,0, 2024-03-15 14:22:19.179
149,-65904.76673,-47523.18383,-54565.14562,-39150.55563,-44245.09934,-55759.84636,-30117.34398,-50990.81111,-0.016,0.896,0.396,192,0,0,0,0,0,0,0,0,0,1.71E+09,0, 2024-03-15 14:22:19.179
150,-65853.67064,-47480.26848,-54519.63747,-39105.47216,-44204.55327,-55731.99609,-30113.92416,-50946.06292,-0.016,0.896,0.396,192,0,0,0,0,0,0,0,0,0,1.71E+09,0, 2024-03-15 14:22:19.179
151,-65764.68834,-47398.30463,-54423.30145,-39008.51029,-44116.17447,-55662.48216,-30061.95635,-50883.45568,-0.016,0.896,0.396,192,0,0,0,0,0,0,0,0,0,1.71E+09,0, 2024-03-15 14:22:19.179
152,-65757.0217,-47384.29009,-54401.66496,-38990.0701,-44097.44371,-55640.66686,-30021.11972,-50865.66369,-0.016,0.896,0.396,192,0,0,0,0,0,0,0,0,0,1.71E+09,0, 2024-03-15 14:22:19.179
153,-65851.21195,-47468.57851,-54492.92713,-39085.17678,-44185.46488,-55705.9563,-30067.45488,-50923.73352,-0.016,0.896,0.396,192,0,0,0,0,0,0,0,0,0,1.71E+09,0, 2024-03-15 14:22:19.179
154,-65905.41493,-47519.22757,-54553.05333,-39148.49927,-44243.15473,-55755.75599,-30120.07089,-50962.69261,-0.016,0.896,0.396,192,0,0,0,0,0,0,0,0,0,1.71E+09,0, 2024-03-15 14:22:19.179
155,-65863.59481,-47484.98469,-54515.65886,-39117.47505,-44211.3929,-55744.42366,-30119.37798,-50971.94624,-0.016,0.896,0.396,192,0,0,0,0,0,0,0,0,0,1.71E+09,0, 2024-03-15 14:22:19.179
156,-65769.65043,-47397.47761,-54413.66785,-39018.97091,-44115.39216,-55675.1556,-30062.24693,-50913.92111,-0.016,0.896,0.396,192,0,0,0,0,0,0,0,0,0,1.71E+09,0, 2024-03-15 14:22:19.179
157,-65762.09554,-47383.8207,-54394.73592,-38999.23432,-44095.76733,-55650.36752,-30021.79027,-50885.78026,-0.016,0.884,0.398,192,255,128,27,160,12,112,0,0,0,1.71E+09,0, 2024-03-15 14:22:19.179
158,-65853.11185,-47462.29767,-54480.65603,-39084.86385,-44175.71952,-55706.93978,-30052.38981,-50948.27574,-0.016,0.884,0.398,192,0,0,0,0,0,0,0,0,0,1.71E+09,0, 2024-03-15 14:22:19.179
159,-65913.998,-47518.89229,-54542.95034,-39150.06389,-44237.43269,-55763.5791,-30103.41884,-51045.05879,-0.016,0.884,0.398,192,0,0,0,0,0,0,0,0,0,1.71E+09,0, 2024-03-15 14:22:19.179
160,-65874.05543,-47482.74952,-54506.53935,-39111.52948,-44208.7107,-55745.653,-30114.03592,-51039.98495,-0.016,0.884,0.398,192,0,0,0,0,0,0,0,0,0,1.71E+09,0, 2024-03-15 14:22:19.180
161,-65776.69123,-47388.9616,-54403.90014,-39001.80477,-44113.31345,-55662.45981,-30059.3859,-50948.14163,-0.016,0.884,0.398,192,0,0,0,0,0,0,0,0,0,1.71E+09,0, 2024-03-15 14:22:19.180
162,-65765.62712,-47370.96845,-54380.31904,-38973.79803,-44090.20175,-55628.06048,-30018.59397,-50895.68208,-0.016,0.884,0.398,192,0,0,0,0,0,0,0,0,0,1.71E+09,0, 2024-03-15 14:22:19.180
163,-65848.66385,-47445.95855,-54461.50058,-39053.75022,-44164.63306,-55676.67552,-30043.09148,-50917.76561,-0.016,0.884,0.398,192,0,0,0,0,0,0,0,0,0,1.71E+09,0, 2024-03-15 14:22:19.180
164,-65906.71133,-47502.19554,-54526.34299,-39120.0902,-44228.0226,-55730.49852,-30098.63557,-50987.68186,-0.016,0.884,0.398,192,0,0,0,0,0,0,0,0,0,1.71E+09,0, 2024-03-15 14:22:19.180
165,-65858.38686,-47463.23645,-54489.46261,-39083.36628,-44198.4736,-55713.82412,-30104.80465,-51001.89757,-0.016,0.884,0.398,192,0,0,0,0,0,0,0,0,0,1.71E+09,0, 2024-03-15 14:22:19.180
166,-65760.82149,-47373.65065,-54392.09841,-38984.9292,-44105.62445,-55644.46666,-30055.02731,-50939.78208,-0.016,0.884,0.398,192,0,0,0,0,0,0,0,0,0,1.71E+09,0, 2024-03-15 14:22:19.180
167,-65749.08683,-47358.04914,-54370.41722,-38961.28106,-44079.3388,-55613.46479,-30008.26746,-50872.01159,-0.02,0.882,0.406,192,255,96,27,144,12,176,0,0,0,1.71E+09,0, 2024-03-15 14:22:19.180
168,-65846.49573,-47444.39393,-54465.34508,-39054.7784,-44169.7516,-55676.67552,-30052.07688,-50919.48669,-0.02,0.882,0.406,192,0,0,0,0,0,0,0,0,0,1.71E+09,0, 2024-03-15 14:22:19.180
169,-65910.75699,-47508.0964,-54539.39641,-39130.88609,-44243.11003,-55741.74145,-30117.14281,-51002.12109,-0.02,0.882,0.406,192,0,0,0,0,0,0,0,0,0,1.71E+09,0, 2024-03-15 14:22:19.180
170,-65868.66866,-47475.12757,-54505.55587,-39098.05138,-44212.30933,-55727.27987,-30113.36537,-51003.4622,-0.02,0.882,0.406,192,0,0,0,0,0,0,0,0,0,1.71E+09,0, 2024-03-15 14:22:19.180
171,-65768.48814,-47383.30661,-54407.2529,-38995.65804,-44120.44366,-55652.22271,-30064.57151,-50922.28066,-0.02,0.882,0.406,192,0,0,0,0,0,0,0,0,0,1.71E+09,0, 2024-03-15 14:22:19.180
172,-65758.74278,-47368.4874,-54389.975,-38976.45789,-44102.31639,-55626.89818,-30027.69113,-50881.44402,-0.02,0.882,0.406,192,0,0,0,0,0,0,0,0,0,1.71E+09,0, 2024-03-15 14:22:19.180
173,-65848.17211,-47449.51248,-54477.77265,-39066.8707,-44181.1957,-55690.5783,-30063.69979,-50944.14067,-0.02,0.882,0.406,192,0,0,0,0,0,0,0,0,0,1.71E+09,0, 2024-03-15 14:22:19.180
174,-65906.10783,-47509.3481,-54546.43721,-39141.10084,-44244.78641,-55757.36532,-30122.64134,-51042.6001,-0.02,0.882,0.406,192,0,0,0,0,0,0,0,0,0,1.71E+09,0, 2024-03-15 14:22:19.180
175,-65865.04768,-47479.19559,-54518.7881,-39114.88224,-44222.25585,-55752.6938,-30134.8901,-51066.00238,-0.02,0.882,0.406,192,0,0,0,0,0,0,0,0,0,1.71E+09,0, 2024-03-15 14:22:19.180
176,-65767.75053,-47389.92272,-54419.90398,-39013.7853,-44129.85374,-55679.67065,-30084.3528,-50949.84036,-0.02,0.882,0.406,192,0,0,0,0,0,0,0,0,0,1.71E+09,0, 2024-03-15 14:22:19.180
177,-65751.09848,-47365.78284,-54389.57267,-38982.26934,-44094.73915,-55644.17608,-30034.30725,-50865.95426,-0.018,0.882,0.404,192,255,112,27,144,12,160,0,0,0,1.71E+09,0, 2024-03-15 14:22:19.180
178,-65843.07591,-47449.71364,-54478.21969,-39075.83375,-44179.2958,-55712.86299,-30070.65118,-50969.62165,-0.018,0.882,0.404,192,0,0,0,0,0,0,0,0,0,1.71E+09,0, 2024-03-15 14:22:19.180
179,-65907.71716,-47515.38307,-54548.62768,-39149.97448,-44247.75919,-55774.39735,-30128.16222,-51046.26579,-0.018,0.882,0.404,192,0,0,0,0,0,0,0,0,0,1.71E+09,0, 2024-03-15 14:22:19.180
180,-65855.92817,-47474.12175,-54500.63849,-39106.18742,-44204.84384,-55748.53638,-30122.03784,-51016.56032,-0.018,0.882,0.404,192,0,0,0,0,0,0,0,0,0,1.71E+09,0, 2024-03-15 14:22:19.180
181,-65756.3735,-47383.23955,-54395.51823,-38999.50254,-44104.05983,-55667.31014,-30058.20126,-50902.56642,-0.018,0.882,0.404,192,0,0,0,0,0,0,0,0,0,1.71E+09,0, 2024-03-15 14:22:19.180
182,-65754.07127,-47378.18806,-54379.02264,-38984.72804,-44087.74305,-55649.69696,-30025.67947,-50894.5645,-0.018,0.882,0.404,192,0,0,0,0,0,0,0,0,0,1.71E+09,0, 2024-03-15 14:22:19.180
183,-65847.36745,-47464.86812,-54467.78142,-39077.35367,-44170.86919,-55715.88048,-30058.42478,-50990.94522,-0.018,0.882,0.404,192,0,0,0,0,0,0,0,0,0,1.71E+09,0, 2024-03-15 14:22:19.180
184,-65908.83474,-47524.10025,-54536.08835,-39146.71113,-44239.62316,-55774.21853,-30116.49461,-51076.66416,-0.018,0.882,0.404,192,0,0,0,0,0,0,0,0,0,1.71E+09,0, 2024-03-15 14:22:19.180
185,-65865.53942,-47485.69995,-54498.2692,-39105.53922,-44207.99544,-55750.97272,-30116.58402,-51054.37947,-0.018,0.882,0.404,192,0,0,0,0,0,0,0,0,0,1.71E+09,0, 2024-03-15 14:22:19.180
186,-65768.75636,-47394.43778,-54396.25584,-38995.27806,-44111.52531,-55662.79509,-30056.54723,-50920.42547,-0.018,0.882,0.404,192,0,0,0,0,0,0,0,0,0,1.71E+09,0, 2024-03-15 14:22:19.180
187,-65752.41724,-47372.95775,-54373.3006,-38966.28785,-44086.84898,-55630.22859,-30012.44724,-50897.93961,-0.016,0.89,0.396,192,255,128,27,208,12,96,0,0,0,1.71E+09,0, 2024-03-15 14:22:19.180
188,-65844.57348,-47456.66503,-54464.51807,-39057.59472,-44167.73995,-55694.44516,-30046.13132,-51002.56813,-0.016,0.89,0.396,192,0,0,0,0,0,0,0,0,0,1.71E+09,0, 2024-03-15 14:22:19.180
189,-65907.82892,-47517.93117,-54533.36144,-39126.37104,-44235.24222,-55747.79877,-30101.69776,-51057.2852,-0.016,0.89,0.396,192,0,0,0,0,0,0,0,0,0,1.71E+09,0, 2024-03-15 14:22:19.180
190,-65872.46846,-47491.5114,-54503.58892,-39096.15148,-44209.71652,-55729.96208,-30109.85614,-51006.81496,-0.016,0.89,0.396,192,0,0,0,0,0,0,0,0,0,1.71E+09,0, 2024-03-15 14:22:19.180
191,-65777.85352,-47406.26185,-54410.62801,-39000.15074,-44122.67883,-55658.68237,-30066.4267,-50920.55958,-0.016,0.89,0.396,192,0,0,0,0,0,0,0,0,0,1.71E+09,0, 2024-03-15 14:22:19.180
192,-65758.42986,-47382.16667,-54381.25782,-38969.81942,-44095.23089,-55624.81947,-30025.81358,-50879.45472,-0.016,0.89,0.396,192,0,0,0,0,0,0,0,0,0,1.71E+09,0, 2024-03-15 14:22:19.180
193,-65843.43354,-47457.17912,-54463.0205,-39052.38677,-44174.87015,-55678.15073,-30063.52098,-50944.81122,-0.016,0.89,0.396,192,0,0,0,0,0,0,0,0,0,1.71E+09,0, 2024-03-15 14:22:19.180
194,-65896.18366,-47507.04587,-54521.35855,-39112.51296,-44230.16837,-55726.45285,-30101.31778,-50998.54481,-0.016,0.89,0.396,192,0,0,0,0,0,0,0,0,0,1.71E+09,0, 2024-03-15 14:22:19.661
195,-65861.85138,-47481.56488,-54494.20118,-39086.92021,-44206.8108,-55719.76968,-30107.28569,-50984.35145,-0.016,0.89,0.396,192,0,0,0,0,0,0,0,0,0,1.71E+09,0, 2024-03-15 14:22:19.661
196,-65771.43857,-47398.46109,-54402.96136,-38991.9253,-44119.0802,-55654.05555,-30063.81155,-50900.3089,-0.016,0.89,0.396,192,0,0,0,0,0,0,0,0,0,1.71E+09,0, 2024-03-15 14:22:19.661
197,-65757.42403,-47377.96454,-54380.83313,-38968.45597,-44093.75567,-55632.12849,-30021.36559,-50886.8755,-0.02,0.892,0.396,192,255,96,27,224,12,96,0,0,0,1.71E+09,0, 2024-03-15 14:22:19.661
198,-65855.30232,-47464.82342,-54477.48208,-39067.87653,-44185.24136,-55707.87855,-30060.61525,-50988.24066,-0.02,0.892,0.396,192,0,0,0,0,0,0,0,0,0,1.71E+09,0, 2024-03-15 14:22:19.661
199,-65911.4499,-47520.56867,-54543.62089,-39136.7199,-44249.97202,-55764.67434,-30114.03592,-51061.42027,-0.02,0.892,0.396,192,0,0,0,0,0,0,0,0,0,1.71E+09,0, 2024-03-15 14:22:19.661
200,-65870.88148,-47488.58332,-54508.59571,-39105.06983,-44221.5853,-55749.63161,-30121.00966,-51037.72742,-0.02,0.892,0.396,192,0,0,0,0,0,0,0,0,0,1.71E+09,0, 2024-03-15 14:22:19.661
201,-65782.6815,-47407.93823,-54416.03713,-39013.00299,-44136.44751,-55684.47628,-30076.48499,-50940.81026,-0.02,0.892,0.396,192,0,0,0,0,0,0,0,0,0,1.71E+09,0, 2024-03-15 14:22:19.661
202,-65766.99057,-47392.04614,-54396.56876,-38992.77466,-44116.75562,-55662.63862,-30039.78342,-50925.70048,-0.02,0.892,0.396,192,0,0,0,0,0,0,0,0,0,1.71E+09,0, 2024-03-15 14:22:19.661
203,-65850.67551,-47469.42788,-54477.37032,-39076.41489,-44193.01977,-55718.76385,-30070.40531,-50990.96757,-0.02,0.892,0.396,192,0,0,0,0,0,0,0,0,0,1.71E+09,0, 2024-03-15 14:22:19.661
204,-65907.27012,-47524.99432,-54536.20011,-39137.63632,-44251.11195,-55766.52953,-30115.91346,-51036.58748,-0.02,0.892,0.396,192,0,0,0,0,0,0,0,0,0,1.71E+09,0, 2024-03-15 14:22:19.661
205,-65871.90966,-47498.23928,-54505.71233,-39110.47895,-44225.51921,-55758.59466,-30119.40034,-51041.72838,-0.02,0.892,0.396,192,0,0,0,0,0,0,0,0,0,1.71E+09,0, 2024-03-15 14:22:19.661
206,-65781.22864,-47415.60488,-54408.70576,-39014.54526,-44126.05394,-55689.52777,-30066.67257,-50943.06778,-0.02,0.892,0.396,192,0,0,0,0,0,0,0,0,0,1.71E+09,0, 2024-03-15 14:22:19.661
207,-65762.74374,-47392.22495,-54380.36375,-38982.85049,-44089.91117,-55653.40735,-30019.08571,-50883.27687,-0.02,0.884,0.396,192,255,96,27,160,12,96,0,0,0,1.71E+09,0, 2024-03-15 14:22:19.661
208,-65855.81641,-47475.59696,-54470.91066,-39073.17389,-44172.03148,-55715.90283,-30053.48504,-50965.03955,-0.02,0.884,0.396,192,0,0,0,0,0,0,0,0,0,1.71E+09,0, 2024-03-15 14:22:19.661
209,-65924.48097,-47543.74743,-54545.0067,-39147.49344,-44243.4006,-55775.17966,-30110.39258,-51041.9519,-0.02,0.884,0.396,192,0,0,0,0,0,0,0,0,0,1.71E+09,0, 2024-03-15 14:22:19.661
210,-65885.72304,-47511.35975,-54512.17199,-39112.55766,-44215.75149,-55755.51012,-30122.1496,-51041.48251,-0.02,0.884,0.396,192,0,0,0,0,0,0,0,0,0,1.71E+09,0, 2024-03-15 14:22:19.661
211,-65781.09452,-47416.38719,-54406.76116,-39000.24015,-44113.58167,-55668.60654,-30057.75423,-50948.27574,-0.02,0.884,0.396,192,0,0,0,0,0,0,0,0,0,1.71E+09,0, 2024-03-15 14:22:19.661
212,-65772.84673,-47405.47954,-54386.46577,-38977.28491,-44092.52633,-55638.90107,-30018.77278,-50882.15928,-0.02,0.884,0.396,192,0,0,0,0,0,0,0,0,0,1.71E+09,0, 2024-03-15 14:22:19.661
213,-65864.22066,-47488.06923,-54470.35187,-39063.85321,-44170.15394,-55694.17694,-30047.83005,-50928.87442,-0.02,0.884,0.396,192,0,0,0,0,0,0,0,0,0,1.71E+09,0, 2024-03-15 14:22:19.661
214,-65932.617,-47554.61038,-54545.63255,-39139.15624,-44242.61829,-55753.20789,-30107.68802,-50996.26493,-0.02,0.884,0.396,192,0,0,0,0,0,0,0,0,0,1.71E+09,0, 2024-03-15 14:22:19.661
215,-65893.18852,-47523.58616,-54516.59763,-39111.99887,-44221.27238,-55745.5636,-30123.24484,-51029.32316,-0.02,0.884,0.396,192,0,0,0,0,0,0,0,0,0,1.71E+09,0, 2024-03-15 14:22:19.661
216,-65789.61054,-47428.14421,-54413.19846,-39008.08561,-44126.29981,-55672.40634,-30073.48985,-50946.68876,-0.02,0.884,0.396,192,0,0,0,0,0,0,0,0,0,1.71E+09,0, 2024-03-15 14:22:19.661
217,-65765.29184,-47400.91978,-54380.05082,-38973.3957,-44092.74985,-55636.33062,-30019.75626,-50884.84149,-0.018,0.884,0.394,192,255,112,27,160,12,80,0,0,0,1.71E+09,0, 2024-03-15 14:22:19.661
218,-65845.73577,-47469.83021,-54458.50545,-39050.44217,-44166.97999,-55685.63857,-30048.79118,-50929.27676,-0.018,0.884,0.394,192,0,0,0,0,0,0,0,0,0,1.71E+09,0, 2024-03-15 14:22:19.661
219,-65904.65497,-47525.59781,-54526.36534,-39119.26319,-44232.4259,-55742.65787,-30107.93389,-51005.25034,-0.018,0.884,0.394,192,0,0,0,0,0,0,0,0,0,1.71E+09,0, 2024-03-15 14:22:19.661
220,-65869.8533,-47499.49098,-54501.5102,-39096.12913,-44214.79037,-55738.03106,-30121.56846,-51012.64876,-0.018,0.884,0.394,192,0,0,0,0,0,0,0,0,0,1.71E+09,0, 2024-03-15 14:22:19.661
221,-65769.80689,-47408.76525,-54404.92832,-38997.44618,-44127.32799,-55667.4666,-30077.60257,-50926.25927,-0.018,0.884,0.394,192,0,0,0,0,0,0,0,0,0,1.71E+09,0, 2024-03-15 14:22:19.661
222,-65748.34922,-47387.12876,-54382.19659,-38973.50746,-44105.22212,-55643.43848,-30038.50937,-50894.94448,-0.018,0.884,0.394,192,0,0,0,0,0,0,0,0,0,1.71E+09,0, 2024-03-15 14:22:19.661
223,-65840.46076,-47473.13827,-54476.81153,-39074.13501,-44194.42793,-55721.53547,-30083.97282,-51026.08216,-0.018,0.884,0.394,192,0,0,0,0,0,0,0,0,0,1.71E+09,0, 2024-03-15 14:22:19.661
224,-65910.35466,-47543.14393,-54554.21562,-39158.69166,-44271.67556,-55797.08437,-30151.76566,-51140.50074,-0.018,0.884,0.394,192,0,0,0,0,0,0,0,0,0,1.71E+09,0, 2024-03-15 14:22:19.661
225,-65869.7639,-47508.94576,-54514.56362,-39117.85503,-44232.67177,-55769.54702,-30142.60145,-51045.03644,-0.018,0.884,0.394,192,0,0,0,0,0,0,0,0,0,1.71E+09,0, 2024-03-15 14:22:19.661
226,-65767.61642,-47416.96834,-54409.44337,-39009.31496,-44130.74781,-55688.29843,-30081.00004,-50924.82876,-0.018,0.884,0.394,192,0,0,0,0,0,0,0,0,0,1.71E+09,0, 2024-03-15 14:22:19.661
227,-65742.76128,-47392.40377,-54378.35209,-38978.22368,-44099.07539,-55656.46954,-30034.84369,-50897.53728,-0.022,0.88,0.396,192,255,80,27,128,12,96,0,0,0,1.71E+09,0, 2024-03-15 14:22:19.661
228,-65834.85047,-47474.47937,-54465.32273,-39067.00481,-44179.58637,-55714.65113,-30063.76684,-50943.91715,-0.022,0.88,0.396,192,0,0,0,0,0,0,0,0,0,1.71E+09,0, 2024-03-15 14:22:19.661
229,-65906.80074,-47545.87085,-54540.29048,-39144.83358,-44248.34034,-55777.50424,-30124.0495,-50994.23093,-0.022,0.88,0.396,192,0,0,0,0,0,0,0,0,0,1.71E+09,0, 2024-03-15 14:22:19.661
230,-65865.9194,-47512.94673,-54508.43924,-39112.84824,-44220.9371,-55763.24383,-30133.0349,-51003.5516,-0.022,0.88,0.396,192,0,0,0,0,0,0,0,0,0,1.71E+09,0, 2024-03-15 14:22:19.661
231,-65769.31516,-47423.27153,-54413.13141,-39013.18181,-44133.67589,-55693.28287,-30088.39847,-50949.7286,-0.022,0.88,0.396,192,0,0,0,0,0,0,0,0,0,1.71E+09,0, 2024-03-15 14:22:19.661
232,-65743.45419,-47393.43195,-54374.37348,-38973.10513,-44092.03459,-55652.7368,-30030.73097,-50903.46049,-0.022,0.88,0.396,192,0,0,0,0,0,0,0,0,0,1.71E+09,0, 2024-03-15 14:22:19.661
233,-65829.86603,-47472.2442,-54456.6279,-39058.24292,-44165.14715,-55710.38195,-30055.47435,-50974.11436,-0.022,0.88,0.396,192,0,0,0,0,0,0,0,0,0,1.71E+09,0, 2024-03-15 14:22:19.661
234,-65893.36734,-47534.04677,-54525.8289,-39126.86278,-44232.73882,-55763.5344,-30104.60348,-51044.38824,-0.022,0.88,0.396,192,0,0,0,0,0,0,0,0,0,1.71E+09,0, 2024-03-15 14:22:19.661
235,-65864.19831,-47512.70086,-54502.87366,-39101.5159,-44212.75636,-55751.68797,-30117.14281,-51026.99858,-0.022,0.88,0.396,192,0,0,0,0,0,0,0,0,0,1.71E+09,0, 2024-03-15 14:22:19.661
236,-65773.94197,-47430.33468,-54407.56582,-39002.8106,-44121.71771,-55678.37425,-30069.53359,-50936.76459,-0.022,0.88,0.396,192,0,0,0,0,0,0,0,0,0,1.71E+09,0, 2024-03-15 14:22:19.661
237,-65751.16554,-47404.85369,-54368.98671,-38963.78445,-44080.92577,-55635.95064,-30017.58814,-50878.27008,-0.018,0.882,0.386,192,255,112,27,144,12,16,0,0,0,1.71E+09,0, 2024-03-15 14:22:19.661
238,-65844.28291,-47490.63969,-54456.80671,-39053.23613,-44160.92267,-55696.85914,-30049.93111,-50956.63529,-0.018,0.882,0.386,192,0,0,0,0,0,0,0,0,0,1.71E+09,0, 2024-03-15 14:22:19.661
239,-65911.69577,-47556.80085,-54528.51111,-39128.20388,-44228.35788,-55758.63937,-30106.57044,-51055.22884,-0.018,0.882,0.386,192,0,0,0,0,0,0,0,0,0,1.71E+09,0, 2024-03-15 14:22:19.661
240,-65876.42472,-47528.07886,-54499.81147,-39098.58782,-44201.82636,-55744.02133,-30112.91833,-51034.2182,-0.018,0.882,0.386,192,0,0,0,0,0,0,0,0,0,1.71E+09,0, 2024-03-15 14:22:19.661
241,-65780.51338,-47437.37548,-54404.23541,-38997.28972,-44113.46991,-55670.41703,-30066.47141,-50937.52455,-0.018,0.882,0.386,192,0,0,0,0,0,0,0,0,0,1.71E+09,0, 2024-03-15 14:22:19.661
242,-65753.71364,-47407.13357,-54372.60769,-38963.65034,-44082.93743,-55638.49874,-30017.40933,-50917.47503,-0.018,0.882,0.386,192,0,0,0,0,0,0,0,0,0,1.71E+09,0, 2024-03-15 14:22:19.661
243,-65830.62599,-47475.08287,-54449.05066,-39043.1555,-44154.66418,-55690.06421,-30039.96224,-50969.44284,-0.018,0.882,0.386,192,0,0,0,0,0,0,0,0,0,1.71E+09,0, 2024-03-15 14:22:19.661
244,-65899.17879,-47539.38884,-54528.26524,-39120.53724,-44230.14602,-55750.7492,-30101.69776,-51009.2513,-0.018,0.882,0.386,192,0,0,0,0,0,0,0,0,0,1.71E+09,0, 2024-03-15 14:22:19.661
245,-65864.53359,-47509.90689,-54503.54421,-39095.0339,-44211.05763,-55742.21083,-30114.37119,-51012.42525,-0.018,0.882,0.386,192,0,0,0,0,0,0,0,0,0,1.71E+09,0, 2024-03-15 14:22:19.661
246,-65772.04207,-47426.44548,-54413.6902,-39001.82712,-44130.32313,-55678.06133,-30082.16233,-50934.52942,-0.018,0.882,0.386,192,0,0,0,0,0,0,0,0,0,1.71E+09,0, 2024-03-15 14:22:19.661
247,-65747.23163,-47402.01502,-54385.54935,-38972.45693,-44104.77508,-55650.23341,-30046.57835,-50888.12719,-0.018,0.882,0.386,192,0,0,0,0,0,0,0,0,0,1.71E+09,0, 2024-03-15 14:22:19.661
248,-65830.1566,-47477.80978,-54470.28482,-39057.01358,-44185.84486,-55708.23618,-30079.97186,-50960.30098,-0.02,0.88,0.39,192,255,96,27,128,12,48,0,0,0,1.71E+09,0, 2024-03-15 14:22:19.661
249,-65900.5646,-47547.65899,-54548.13594,-39138.15041,-44261.46081,-55777.30307,-30144.14372,-51077.35706,-0.02,0.88,0.39,192,0,0,0,0,0,0,0,0,0,1.71E+09,0, 2024-03-15 14:22:19.661
250,-65862.25371,-47518.26644,-54512.03787,-39107.32735,-44231.28596,-55764.58493,-30149.86576,-51084.01788,-0.02,0.88,0.39,192,0,0,0,0,0,0,0,0,0,1.71E+09,0, 2024-03-15 14:22:19.661
251,-65768.6446,-47435.58734,-54412.70672,-39006.29747,-44138.79444,-55690.93593,-30101.07191,-50949.19216,-0.02,0.88,0.39,192,0,0,0,0,0,0,0,0,0,1.71E+09,0, 2024-03-15 14:22:19.661
252,-65739.22971,-47405.88187,-54375.91575,-38968.16539,-44100.59531,-55653.72028,-30051.54044,-50892.08345,-0.02,0.88,0.39,192,0,0,0,0,0,0,0,0,0,1.71E+09,0, 2024-03-15 14:22:19.661
253,-65816.6338,-47474.56878,-54450.52587,-39043.71429,-44167.47173,-55702.46943,-30070.56178,-50954.64599,-0.02,0.88,0.39,192,0,0,0,0,0,0,0,0,0,1.71E+09,0, 2024-03-15 14:22:19.661
254,-65886.77357,-47542.58514,-54525.27011,-39120.40313,-44238.215,-55763.75792,-30125.16709,-51031.73715,-0.02,0.88,0.39,192,0,0,0,0,0,0,0,0,0,1.71E+09,0, 2024-03-15 14:22:19.661
255,-65852.28483,-47515.71834,-54498.29155,-39093.46927,-44214.52215,-55751.55386,-30125.54707,-51029.65844,-0.02,0.88,0.39,192,0,0,0,0,0,0,0,0,0,1.71E+09,0, 2024-03-15 14:22:19.661
0,-65756.21703,-47427.13838,-54401.82142,-38994.29458,-44123.21527,-55680.52002,-30073.95924,-50944.67711,-0.02,0.88,0.39,192,0,0,0,0,0,0,0,0,0,1.71E+09,0, 2024-03-15 14:22:19.661
1,-65730.89251,-47400.38334,-54367.06446,-38959.58232,-44087.78776,-55645.60659,-30024.67364,-50883.96977,-0.02,0.88,0.39,192,0,0,0,0,0,0,0,0,0,1.71E+09,0, 2024-03-15 14:22:19.661
2,-65820.61241,-47479.39676,-54453.52101,-39047.44703,-44168.54461,-55706.67156,-30053.19447,-50960.77036,-0.02,0.884,0.39,192,255,96,27,160,12,48,0,0,0,1.71E+09,0, 2024-03-15 14:22:19.661
3,-65895.31194,-47547.99426,-54534.47903,-39129.34382,-44244.85347,-55774.68792,-30115.04175,-51072.21616,-0.02,0.884,0.39,192,0,0,0,0,0,0,0,0,0,1.71E+09,0, 2024-03-15 14:22:19.661
4,-65859.43739,-47517.99822,-54506.44994,-39099.72776,-44223.5299,-55760.9863,-30124.58594,-51070.91976,-0.02,0.884,0.39,192,0,0,0,0,0,0,0,0,0,1.71E+09,0, 2024-03-15 14:22:19.661
5,-65765.09068,-47430.04411,-54414.56192,-38999.12256,-44136.06753,-55686.44323,-30079.39071,-50976.5954,-0.02,0.884,0.39,192,0,0,0,0,0,0,0,0,0,1.71E+09,0, 2024-03-15 14:22:19.661
6,-65746.09169,-47409.30169,-54386.80105,-38968.79124,-44107.09967,-55655.21784,-30030.19452,-50929.38851,-0.02,0.884,0.39,192,0,0,0,0,0,0,0,0,0,1.71E+09,0, 2024-03-15 14:22:19.661
7,-65823.29462,-47475.08287,-54456.71731,-39036.78525,-44171.04801,-55691.31591,-30041.83978,-50929.09794,-0.02,0.884,0.39,192,0,0,0,0,0,0,0,0,0,1.71E+09,0, 2024-03-15 14:22:19.661
8,-65893.97083,-47543.07688,-54530.79099,-39111.61889,-44241.90304,-55748.2011,-30096.08747,-50979.88111,-0.02,0.884,0.39,192,0,0,0,0,0,0,0,0,0,1.71E+09,0, 2024-03-15 14:22:19.661
9,-65871.48498,-47528.50354,-54514.20599,-39097.0232,-44230.34718,-55748.46932,-30118.77449,-51003.61866,-0.02,0.884,0.39,192,0,0,0,0,0,0,0,0,0,1.71E+09,0, 2024-03-15 14:22:19.661
10,-65774.16548,-47438.18014,-54414.80779,-38996.03802,-44137.09571,-55677.41313,-30069.39948,-50950.55562,-0.02,0.884,0.39,192,0,0,0,0,0,0,0,0,0,1.71E+09,0, 2024-03-15 14:22:19.661
11,-65746.98576,-47408.85465,-54380.11788,-38960.67756,-44103.72455,-55643.32672,-30026.19356,-50900.53241,-0.02,0.884,0.39,192,0,0,0,0,0,0,0,0,0,1.71E+09,0, 2024-03-15 14:22:19.661
12,-65827.60851,-47480.67081,-54452.89516,-39038.50633,-44172.81379,-55690.98064,-30047.42772,-50919.66551,-0.024,0.884,0.394,192,255,64,27,160,12,80,0,0,0,1.71E+09,0, 2024-03-15 14:22:19.661
13,-65896.04955,-47546.20612,-54526.65592,-39116.91625,-44244.18291,-55754.43724,-30109.43146,-50990.45348,-0.024,0.884,0.394,192,0,0,0,0,0,0,0,0,0,1.71E+09,0, 2024-03-15 14:22:19.661
14,-65863.84068,-47521.50744,-54505.64528,-39097.55964,-44229.05078,-55753.14084,-30122.32842,-51015.42038,-0.024,0.884,0.394,192,0,0,0,0,0,0,0,0,0,1.71E+09,0, 2024-03-15 14:22:19.661
15,-65768.68931,-47433.39687,-54410.31509,-39003.10117,-44140.82845,-55688.94663,-30080.35184,-50956.7694,-0.024,0.884,0.394,192,0,0,0,0,0,0,0,0,0,1.71E+09,0, 2024-03-15 14:22:19.661
16,-65734.46879,-47393.54371,-54369.32199,-38961.61633,-44101.1988,-55650.43457,-30030.03806,-50930.14847,-0.024,0.884,0.394,192,0,0,0,0,0,0,0,0,0,1.71E+09,0, 2024-03-15 14:22:19.661
17,-65812.45402,-47460.37542,-54446.4355,-39036.06999,-44175.42895,-55696.278,-30058.60359,-50954.24365,-0.024,0.884,0.394,192,0,0,0,0,0,0,0,0,0,1.71E+09,0, 2024-03-15 14:22:19.661
18,-65889.34402,-47534.51616,-54529.13696,-39119.21848,-44257.12457,-55763.62381,-30126.17292,-51002.52342,-0.024,0.884,0.394,192,0,0,0,0,0,0,0,0,0,1.71E+09,0, 2024-03-15 14:22:19.661
19,-65853.00009,-47505.48124,-54505.60057,-39093.33516,-44238.05854,-55756.13597,-30137.75112,-51011.50882,-0.024,0.884,0.394,192,0,0,0,0,0,0,0,0,0,1.71E+09,0, 2024-03-15 14:22:19.661
20,-65751.23259,-47411.51451,-54405.86709,-38989.9807,-44146.32698,-55685.92914,-30089.53841,-50951.44969,-0.024,0.884,0.394,192,0,0,0,0,0,0,0,0,0,1.71E+09,0, 2024-03-15 14:22:19.661
21,-65725.48338,-47383.66424,-54372.98767,-38953.525,-44113.3358,-55655.06138,-30043.00207,-50909.54017,-0.024,0.884,0.394,192,0,0,0,0,0,0,0,0,0,1.71E+09,0, 2024-03-15 14:22:19.661
22,-65806.57551,-47448.55135,-54451.01761,-39032.3149,-44187.54359,-55707.09624,-30069.82417,-50972.46033,-0.024,0.882,0.4,192,255,64,27,144,12,128,0,0,0,1.71E+09,0, 2024-03-15 14:22:19.661
23,-65889.05345,-47523.5191,-54540.87163,-39124.98523,-44274.31307,-55782.35457,-30139.29339,-51050.84789,-0.024,0.882,0.4,192,0,0,0,0,0,0,0,0,0,1.71E+09,0, 2024-03-15 14:22:19.661
24,-65863.32659,-47506.42002,-54518.85516,-39108.22142,-44252.85539,-55778.13009,-30149.48578,-51038.35327,-0.024,0.882,0.4,192,0,0,0,0,0,0,0,0,0,1.71E+09,0, 2024-03-15 14:22:19.661
25,-65759.52509,-47411.06748,-54415.05366,-39001.42479,-44153.65835,-55698.46847,-30091.9971,-50950.71208,-0.024,0.882,0.4,192,0,0,0,0,0,0,0,0,0,1.71E+09,0, 2024-03-15 14:22:19.662
26,-65730.08784,-47378.18806,-54373.47941,-38959.67173,-44110.65359,-55658.81648,-30040.99042,-50906.7462,-0.024,0.882,0.4,192,0,0,0,0,0,0,0,0,0,1.71E+09,0, 2024-03-15 14:22:19.662
27,-65800.67465,-47440.01298,-54436.98072,-39028.58216,-44163.9625,-55700.41307,-30039.33639,-50954.62363,-0.024,0.882,0.4,192,0,0,0,0,0,0,0,0,0,1.71E+09,0, 2024-03-15 14:22:19.662
28,-65879.79983,-47519.78636,-54524.89013,-39121.54306,-44246.37338,-55774.66557,-30101.80951,-51037.32509,-0.024,0.882,0.4,192,0,0,0,0,0,0,0,0,0,1.71E+09,0, 2024-03-15 14:22:19.662
29,-65853.8271,-47503.58135,-54510.11562,-39107.52852,-44234.3705,-55772.34099,-30118.9533,-51024.87517,-0.024,0.882,0.4,192,0,0,0,0,0,0,0,0,0,1.71E+09,0, 2024-03-15 14:22:19.662
30,-65767.43761,-47414.46494,-54413.93607,-39006.67745,-44141.47665,-55699.76487,-30066.87374,-50950.51091,-0.024,0.882,0.4,192,0,0,0,0,0,0,0,0,0,1.71E+09,0, 2024-03-15 14:22:19.662
31,-65738.84973,-47371.97427,-54367.93618,-38956.94482,-44097.33195,-55651.64157,-30014.07892,-50908.15436,-0.024,0.882,0.4,192,0,0,0,0,0,0,0,0,0,1.71E+09,0, 2024-03-15 14:22:19.662
32,-65820.12067,-47441.33174,-54445.7426,-39034.43832,-44167.1141,-55699.22843,-30037.05651,-50948.65572,-0.026,0.882,0.404,192,255,48,27,144,12,160,0,0,0,1.71E+09,0, 2024-03-15 14:22:19.662
33,-65897.77063,-47515.00309,-54527.6841,-39118.97261,-44244.02645,-55765.25548,-30097.27211,-51026.50684,-0.026,0.882,0.404,192,0,0,0,0,0,0,0,0,0,1.71E+09,0, 2024-03-15 14:22:19.662
34,-65871.01559,-47493.12073,-54506.5617,-39099.77247,-44227.95555,-55760.74043,-30111.55487,-51048.92564,-0.026,0.882,0.404,192,0,0,0,0,0,0,0,0,0,1.71E+09,0, 2024-03-15 14:22:19.662
35,-65780.26751,-47405.50189,-54411.99147,-39002.54238,-44135.44168,-55692.88053,-30067.83486,-50979.05409,-0.026,0.882,0.404,192,0,0,0,0,0,0,0,0,0,1.71E+09,0, 2024-03-15 14:22:19.662
36,-65745.51055,-47363.59237,-54366.37156,-38952.51917,-44079.87524,-55642.25383,-30006.74754,-50863.62968,-0.026,0.882,0.404,192,0,0,0,0,0,0,0,0,0,1.71E+09,0, 2024-03-15 14:22:19.662
37,-65824.90394,-47433.50863,-54442.63571,-39027.84455,-44147.2434,-55690.13127,-30027.75818,-50900.59947,-0.026,0.882,0.404,192,0,0,0,0,0,0,0,0,0,1.71E+09,0, 2024-03-15 14:22:19.662
38,-65897.3236,-47502.84374,-54520.82211,-39108.42259,-44223.64166,-55757.79,-30089.06902,-51006.83731,-0.026,0.882,0.404,192,0,0,0,0,0,0,0,0,0,1.71E+09,0, 2024-03-15 14:22:19.662
39,-65860.37616,-47470.83604,-54494.75998,-39083.47804,-44203.07806,-55749.76572,-30099.50728,-51017.6332,-0.026,0.882,0.404,192,0,0,0,0,0,0,0,0,0,1.71E+09,0, 2024-03-15 14:22:19.662
40,-65765.60477,-47383.64188,-54405.91179,-38991.65708,-44120.9801,-55689.01368,-30059.05063,-50951.89672,-0.026,0.882,0.404,192,0,0,0,0,0,0,0,0,0,1.71E+09,0, 2024-03-15 14:22:19.662
41,-65728.83615,-47342.29116,-54363.1529,-38943.06438,-44079.49526,-55645.94187,-30016.22468,-50874.55969,-0.026,0.882,0.404,192,0,0,0,0,0,0,0,0,0,1.71E+09,0, 2024-03-15 14:22:19.662
42,-65802.21692,-47401.94796,-54438.14301,-39013.45003,-44152.29489,-55692.4335,-30041.52686,-50942.24077,-0.032,0.884,0.402,192,255,0,27,160,12,144,0,0,0,1.71E+09,0, 2024-03-15 14:22:19.662
43,-65873.40723,-47466.67862,-54518.56458,-39091.99406,-44232.38119,-55757.56648,-30102.41301,-51037.99564,-0.032,0.884,0.402,192,0,0,0,0,0,0,0,0,0,1.71E+09,0, 2024-03-15 14:22:19.662
44,-65851.86015,-47450.11597,-54508.03691,-39075.36436,-44226.70385,-55755.10779,-30128.72101,-51024.80811,-0.032,0.884,0.402,192,0,0,0,0,0,0,0,0,0,1.71E+09,0, 2024-03-15 14:22:19.662
45,-65747.65632,-47352.88588,-54406.06825,-38966.66783,-44133.27356,-55676.16143,-30086.52092,-50921.25248,-0.032,0.884,0.402,192,0,0,0,0,0,0,0,0,0,1.71E+09,0, 2024-03-15 14:22:19.662
46,-65702.23757,-47305.74606,-54357.34145,-38914.87884,-44087.89952,-55629.87097,-30033.79316,-50881.30991,-0.032,0.884,0.402,192,0,0,0,0,0,0,0,0,0,1.71E+09,0, 2024-03-15 14:22:19.662
47,-65776.80299,-47370.29789,-54427.14595,-38987.18673,-44152.87604,-55674.66386,-30054.44617,-50938.55273,-0.032,0.884,0.402,192,0,0,0,0,0,0,0,0,0,1.71E+09,0, 2024-03-15 14:22:19.662
48,-65853.20125,-47445.62327,-54503.09718,-39070.067,-44222.85935,-55740.02036,-30104.26821,-51000.24354,-0.032,0.884,0.402,192,0,0,0,0,0,0,0,0,0,1.71E+09,0, 2024-03-15 14:22:19.662
49,-65824.68043,-47423.6068,-54477.61619,-39048.45286,-44198.42889,-55733.49365,-30109.90085,-51001.89757,-0.032,0.884,0.402,192,0,0,0,0,0,0,0,0,0,1.71E+09,0, 2024-03-15 14:22:19.662
50,-65735.49697,-47340.19009,-54384.16354,-38954.1285,-44109.35719,-55668.42773,-30066.15848,-50958.55754,-0.032,0.884,0.402,192,0,0,0,0,0,0,0,0,0,1.71E+09,0, 2024-03-15 14:22:19.662
51,-65710.99945,-47312.47393,-54347.59609,-38914.54356,-44071.73921,-55632.41907,-30020.06918,-50932.04837,-0.032,0.884,0.402,192,0,0,0,0,0,0,0,0,0,1.71E+09,0, 2024-03-15 14:22:19.662
52,-65796.58428,-47389.74391,-54426.22953,-38992.6182,-44137.49804,-55682.8446,-30039.93989,-50983.16681,-0.028,0.882,0.402,192,255,32,27,144,12,144,0,0,0,1.71E+09,0, 2024-03-15 14:22:19.662
53,-65876.82705,-47462.90117,-54509.71329,-39075.76669,-44217.11495,-55745.63065,-30100.20019,-51034.75464,-0.028,0.882,0.402,192,0,0,0,0,0,0,0,0,0,1.71E+09,0, 2024-03-15 14:22:19.662
54,-65853.93886,-47442.06934,-54486.71335,-39053.92904,-44193.89149,-55731.99609,-30101.6754,-50983.65855,-0.028,0.882,0.402,192,0,0,0,0,0,0,0,0,0,1.71E+09,0, 2024-03-15 14:22:19.662
55,-65759.45804,-47356.99861,-54388.27627,-38955.3802,-44105.57975,-55658.34709,-30050.48991,-50907.70732,-0.028,0.882,0.402,192,0,0,0,0,0,0,0,0,0,1.71E+09,0, 2024-03-15 14:22:19.662
56,-65722.66706,-47322.59927,-54346.45615,-38912.50955,-44065.9501,-55617.77867,-30004.13239,-50879.96881,-0.028,0.882,0.402,192,0,0,0,0,0,0,0,0,0,1.71E+09,0, 2024-03-15 14:22:19.662
57,-65795.5561,-47390.12389,-54417.24413,-38983.47634,-44129.3173,-55656.96128,-30010.63675,-50904.04164,-0.028,0.882,0.402,192,0,0,0,0,0,0,0,0,0,1.71E+09,0, 2024-03-15 14:22:19.662
58,-65871.21676,-47466.07512,-54502.09135,-39069.23998,-44211.43761,-55723.793,-30074.36157,-50973.64497,-0.028,0.882,0.402,192,0,0,0,0,0,0,0,0,0,1.71E+09,0, 2024-03-15 14:22:19.662
59,-65850.40728,-47451.65824,-54487.45096,-39058.82407,-44200.75347,-55725.62584,-30094.56755,-50995.19205,-0.028,0.882,0.402,192,0,0,0,0,0,0,0,0,0,1.71E+09,0, 2024-03-15 14:22:20.142
60,-65757.91577,-47367.16865,-54395.33942,-38965.61729,-44114.20752,-55658.72707,-30053.5968,-50917.92207,-0.028,0.882,0.402,192,0,0,0,0,0,0,0,0,0,1.71E+09,0, 2024-03-15 14:22:20.142
61,-65723.22586,-47332.43404,-54355.44155,-38925.71943,-44072.65563,-55623.97011,-30001.78546,-50875.96785,-0.028,0.882,0.402,192,0,0,0,0,0,0,0,0,0,1.71E+09,0, 2024-03-15 14:22:20.142
62,-65797.03132,-47396.29297,-54425.98366,-38998.42966,-44140.60493,-55670.17116,-30022.55023,-50916.53626,-0.028,0.88,0.398,192,255,32,27,128,12,112,0,0,0,1.71E+09,0, 2024-03-15 14:22:20.142
63,-65874.63658,-47469.76316,-54506.5617,-39082.3381,-44219.86422,-55738.07576,-30085.53744,-50978.65176,-0.028,0.88,0.398,192,0,0,0,0,0,0,0,0,0,1.71E+09,0, 2024-03-15 14:22:20.142
64,-65855.05645,-47457.80497,-54490.69196,-39071.67632,-44204.50857,-55743.59664,-30103.82117,-50980.28344,-0.028,0.88,0.398,192,0,0,0,0,0,0,0,0,0,1.71E+09,0, 2024-03-15 14:22:20.142
65,-65761.49205,-47375.28233,-54399.94388,-38979.45302,-44121.06951,-55684.0963,-30063.2304,-50918.63733,-0.028,0.88,0.398,192,0,0,0,0,0,0,0,0,0,1.71E+09,0, 2024-03-15 14:22:20.142
66,-65728.61263,-47340.07833,-54363.48818,-38939.55516,-44087.27367,-55652.26741,-30023.93604,-50904.8016,-0.028,0.88,0.398,192,0,0,0,0,0,0,0,0,0,1.71E+09,0, 2024-03-15 14:22:20.142
67,-65803.96036,-47403.0432,-54435.75137,-39009.13614,-44151.37847,-55694.15458,-30038.03999,-50935.04351,-0.028,0.88,0.398,192,0,0,0,0,0,0,0,0,0,1.71E+09,0, 2024-03-15 14:22:20.142
68,-65889.74635,-47484.09062,-54523.8843,-39100.48772,-44235.10811,-55767.17773,-30101.92127,-51003.59631,-0.028,0.88,0.398,192,0,0,0,0,0,0,0,0,0,1.71E+09,0, 2024-03-15 14:22:20.142
69,-65875.26242,-47472.04303,-54514.92125,-39091.34586,-44232.56001,-55772.5645,-30133.75016,-51011.35236,-0.028,0.88,0.398,192,0,0,0,0,0,0,0,0,0,1.71E+09,0, 2024-03-15 14:22:20.142
70,-65773.31612,-47376.7352,-54410.89623,-38987.87963,-44135.68755,-55701.68712,-30081.78235,-50963.43022,-0.028,0.88,0.398,192,0,0,0,0,0,0,0,0,0,1.71E+09,0, 2024-03-15 14:22:20.142
71,-65732.83711,-47335.04919,-54365.6563,-38941.03038,-44093.68862,-55660.22464,-30037.28003,-50935.98228,-0.028,0.88,0.398,192,0,0,0,0,0,0,0,0,0,1.71E+09,0, 2024-03-15 14:22:20.142
72,-65809.61535,-47400.07042,-54437.27129,-39012.42185,-44155.33473,-55701.86594,-30057.86598,-50954.10954,-0.03,0.884,0.4,192,255,16,27,160,12,128,0,0,0,1.71E+09,0, 2024-03-15 14:22:20.142
73,-65889.81341,-47470.9925,-54511.52378,-39090.34003,-44224.7369,-55756.67241,-30104.37996,-50989.09002,-0.03,0.884,0.4,192,0,0,0,0,0,0,0,0,0,1.71E+09,0, 2024-03-15 14:22:20.142
74,-65870.5015,-47456.8215,-54491.1837,-39075.54317,-44208.17425,-55752.38088,-30116.76283,-50999.48359,-0.03,0.884,0.4,192,0,0,0,0,0,0,0,0,0,1.71E+09,0, 2024-03-15 14:22:20.142
75,-65773.27141,-47367.7945,-54394.35594,-38976.88257,-44117.02384,-55681.48114,-30072.10405,-50941.79373,-0.03,0.884,0.4,192,0,0,0,0,0,0,0,0,0,1.71E+09,0, 2024-03-15 14:22:20.142
76,-65744.57177,-47335.00449,-54354.03339,-38936.04594,-44075.38254,-55644.15373,-30025.14303,-50906.52268,-0.03,0.884,0.4,192,0,0,0,0,0,0,0,0,0,1.71E+09,0, 2024-03-15 14:22:20.142
77,-65825.26157,-47399.44457,-54424.84372,-39007.05743,-44137.85567,-55686.37618,-30031.58033,-50960.90447,-0.03,0.884,0.4,192,0,0,0,0,0,0,0,0,0,1.71E+09,0, 2024-03-15 14:22:20.142
78,-65913.01452,-47476.0887,-54512.26139,-39094.40805,-44220.31125,-55751.75503,-30088.97961,-51032.78768,-0.03,0.884,0.4,192,0,0,0,0,0,0,0,0,0,1.71E+09,0, 2024-03-15 14:22:20.142
79,-65898.0165,-47462.96823,-54495.49758,-39077.8454,-44206.69904,-55743.26137,-30103.82117,-51009.78774,-0.03,0.884,0.4,192,0,0,0,0,0,0,0,0,0,1.71E+09,0, 2024-03-15 14:22:20.142
80,-65802.28398,-47376.89166,-54396.25584,-38977.66489,-44112.06175,-55670.08175,-30051.74161,-50938.32921,-0.03,0.884,0.4,192,0,0,0,0,0,0,0,0,0,1.71E+09,0, 2024-03-15 14:22:20.142
81,-65766.6553,-47345.3757,-54354.52513,-38937.65526,-44071.02395,-55634.47543,-30009.09448,-50919.71021,-0.03,0.884,0.4,192,0,0,0,0,0,0,0,0,0,1.71E+09,0, 2024-03-15 14:22:20.142
82,-65840.21489,-47411.40275,-54424.41904,-39009.8961,-44134.52526,-55677.56959,-30026.26062,-50981.64689,-0.022,0.886,0.394,192,255,80,27,176,12,80,0,0,0,1.71E+09,0, 2024-03-15 14:22:20.142
83,-65924.05628,-47490.43852,-54510.07092,-39097.00085,-44217.0479,-55742.72492,-30084.82219,-51036.02869,-0.022,0.886,0.394,192,0,0,0,0,0,0,0,0,0,1.71E+09,0, 2024-03-15 14:22:20.142
84,-65905.16906,-47478.21212,-54496.21284,-39084.97561,-44205.91673,-55741.83085,-30102.54712,-51027.2221,-0.022,0.886,0.394,192,0,0,0,0,0,0,0,0,0,1.71E+09,0, 2024-03-15 14:22:20.142
85,-65808.14014,-47388.13459,-54391.8749,-38977.44137,-44109.17838,-55658.4365,-30057.82128,-50892.37403,-0.022,0.886,0.394,192,0,0,0,0,0,0,0,0,0,1.71E+09,0, 2024-03-15 14:22:20.142
86,-65766.6553,-47343.98989,-54340.33177,-38919.84092,-44059.13282,-55604.47938,-30003.12656,-50809.94079,-0.022,0.886,0.394,192,0,0,0,0,0,0,0,0,0,1.71E+09,0, 2024-03-15 14:22:20.142
87,-65837.06329,-47407.33473,-54410.29273,-38991.59002,-44124.06464,-55652.98267,-30017.96812,-50888.2613,-0.022,0.886,0.394,192,0,0,0,0,0,0,0,0,0,1.71E+09,0, 2024-03-15 14:22:20.142
88,-65914.10976,-47484.62707,-54495.1176,-39080.9523,-44206.54258,-55724.37414,-30077.98255,-50978.02591,-0.022,0.886,0.394,192,0,0,0,0,0,0,0,0,0,1.71E+09,0, 2024-03-15 14:22:20.142
89,-65897.94945,-47475.52991,-54490.80372,-39075.61023,-44206.63198,-55734.27597,-30104.1341,-51004.95976,-0.022,0.886,0.394,192,0,0,0,0,0,0,0,0,0,1.71E+09,0, 2024-03-15 14:22:20.142
90,-65801.27815,-47385.51943,-54391.8749,-38972.97102,-44117.60498,-55662.70568,-30062.5375,-50914.61401,-0.022,0.886,0.394,192,0,0,0,0,0,0,0,0,0,1.71E+09,0, 2024-03-15 14:22:20.142
91,-65758.85454,-47341.66531,-54342.56695,-38921.69612,-44067.85,-55620.48323,-30013.74364,-50868.12238,-0.022,0.886,0.394,192,0,0,0,0,0,0,0,0,0,1.71E+09,0, 2024-03-15 14:22:20.142
92,-65832.90587,-47404.85369,-54414.58427,-38991.43356,-44138.21329,-55666.61723,-30037.68236,-50917.36328,-0.016,0.882,0.396,192,255,128,27,144,12,96,0,0,0,1.71E+09,0, 2024-03-15 14:22:20.142
93,-65914.84736,-47481.45312,-54503.34305,-39078.82888,-44227.64262,-55737.71813,-30111.8678,-50993.00158,-0.016,0.882,0.396,192,0,0,0,0,0,0,0,0,0,1.71E+09,0, 2024-03-15 14:22:20.142
94,-65887.1759,-47457.67086,-54482.8912,-39064.16614,-44212.62225,-55740.19918,-30122.70839,-51012.42525,-0.016,0.882,0.396,192,0,0,0,0,0,0,0,0,0,1.71E+09,0, 2024-03-15 14:22:20.142
95,-65785.60958,-47366.40869,-54383.18007,-38969.26063,-44118.52141,-55679.13421,-30075.05448,-50944.61005,-0.016,0.882,0.396,192,0,0,0,0,0,0,0,0,0,1.71E+09,0, 2024-03-15 14:22:20.142
96,-65739.29676,-47323.51569,-54332.26279,-38918.2763,-44068.4535,-55639.01283,-30018.83984,-50922.10185,-0.016,0.882,0.396,192,0,0,0,0,0,0,0,0,0,1.71E+09,0, 2024-03-15 14:22:20.142
97,-65811.85053,-47385.87706,-54397.52989,-38987.27614,-44130.21137,-55684.94566,-30032.74262,-51004.37862,-0.016,0.882,0.396,192,0,0,0,0,0,0,0,0,0,1.71E+09,0, 2024-03-15 14:22:20.142
98,-65895.26724,-47464.19757,-54481.19247,-39072.99508,-44209.94004,-55748.64814,-30093.62878,-51058.13456,-0.016,0.882,0.396,192,0,0,0,0,0,0,0,0,0,1.71E+09,0, 2024-03-15 14:22:20.142
99,-65878.95046,-47454.3628,-54474.77752,-39065.90957,-44205.04501,-55750.19041,-30113.34301,-51056.74875,-0.016,0.882,0.396,192,0,0,0,0,0,0,0,0,0,1.71E+09,0, 2024-03-15 14:22:20.142
100,-65785.34136,-47370.67787,-54386.64459,-38975.04973,-44125.67396,-55685.61622,-30079.41307,-50979.21055,-0.016,0.882,0.396,192,0,0,0,0,0,0,0,0,0,1.71E+09,0, 2024-03-15 14:22:20.142
101,-65741.48723,-47326.06379,-54331.77106,-38917.47164,-44068.85583,-55632.2626,-30023.35489,-50901.87352,-0.016,0.882,0.396,192,0,0,0,0,0,0,0,0,0,1.71E+09,0, 2024-03-15 14:22:20.142
102,-65814.19746,-47392.24731,-54400.2568,-38985.21977,-44132.33478,-55671.86989,-30035.38013,-50945.81705,-0.014,0.886,0.394,192,255,144,27,176,12,80,0,0,0,1.71E+09,0, 2024-03-15 14:22:20.142
103,-65895.28959,-47469.6961,-54484.70169,-39070.93871,-44216.33264,-55737.04758,-30095.21575,-51026.46214,-0.014,0.886,0.394,192,0,0,0,0,0,0,0,0,0,1.71E+09,0, 2024-03-15 14:22:20.142
104,-65879.4422,-47455.92743,-54469.79308,-39055.58307,-44205.02266,-55732.53253,-30106.61514,-51035.20167,-0.014,0.886,0.394,192,0,0,0,0,0,0,0,0,0,1.71E+09,0, 2024-03-15 14:22:20.142
105,-65787.68829,-47373.27068,-54374.84287,-38958.48709,-44114.56515,-55661.92337,-30057.73187,-50961.95501,-0.014,0.886,0.394,192,0,0,0,0,0,0,0,0,0,1.71E+09,0, 2024-03-15 14:22:20.142
106,-65752.6184,-47338.46901,-54330.65347,-38911.05669,-44070.91219,-55617.4881,-30014.5036,-50885.89202,-0.014,0.886,0.394,192,0,0,0,0,0,0,0,0,0,1.71E+09,0, 2024-03-15 14:22:20.142
107,-65819.20425,-47397.43291,-54395.96527,-38974.37918,-44128.33382,-55650.45692,-30016.31409,-50901.56059,-0.014,0.886,0.394,192,0,0,0,0,0,0,0,0,0,1.71E+09,0, 2024-03-15 14:22:20.142
108,-65899.64818,-47476.98277,-54484.36642,-39066.62483,-44214.5445,-55722.38484,-30081.87176,-51006.94907,-0.014,0.886,0.394,192,0,0,0,0,0,0,0,0,0,1.71E+09,0, 2024-03-15 14:22:20.142
109,-65887.64529,-47472.06539,-54476.11862,-39063.7191,-44209.58241,-55730.96791,-30105.29639,-51029.94901,-0.014,0.886,0.394,192,0,0,0,0,0,0,0,0,0,1.71E+09,0, 2024-03-15 14:22:20.142
110,-65796.8078,-47389.58745,-54379.84966,-38967.53955,-44115.81685,-55662.9739,-30052.3451,-50933.97062,-0.014,0.886,0.394,192,0,0,0,0,0,0,0,0,0,1.71E+09,0, 2024-03-15 14:22:20.142
111,-65744.68353,-47337.77611,-54319.11997,-38903.97118,-44054.66247,-55607.40746,-29990.85545,-50861.9533,-0.014,0.886,0.394,192,0,0,0,0,0,0,0,0,0,1.71E+09,0, 2024-03-15 14:22:20.142
112,-65827.07206,-47413.86144,-54399.34038,-38986.06914,-44127.43975,-55665.00791,-30020.04683,-50928.98618,-0.014,0.884,0.398,192,255,144,27,160,12,112,0,0,0,1.71E+09,0, 2024-03-15 14:22:20.142
113,-65909.23708,-47491.57846,-54490.80372,-39079.23121,-44218.03137,-55740.08742,-30088.53258,-51016.85089,-0.014,0.884,0.398,192,0,0,0,0,0,0,0,0,0,1.71E+09,0, 2024-03-15 14:22:20.142
114,-65889.50049,-47474.47937,-54477.83971,-39067.6083,-44207.5037,-55738.79102,-30099.39553,-51004.13275,-0.014,0.884,0.398,192,0,0,0,0,0,0,0,0,0,1.71E+09,0, 2024-03-15 14:22:20.142
115,-65792.04688,-47386.54761,-54384.07414,-38970.06529,-44118.52141,-55668.60654,-30055.20613,-50909.58487,-0.014,0.884,0.398,192,0,0,0,0,0,0,0,0,0,1.71E+09,0, 2024-03-15 14:22:20.142
116,-65743.38713,-47338.55842,-54335.10147,-38915.48233,-44071.60509,-55624.01481,-30009.63092,-50872.21275,-0.014,0.884,0.398,192,0,0,0,0,0,0,0,0,0,1.71E+09,0, 2024-03-15 14:22:20.142
117,-65815.15858,-47399.73514,-54407.63288,-38985.17507,-44140.51552,-55671.98165,-30031.71444,-50954.02014,-0.014,0.884,0.398,192,0,0,0,0,0,0,0,0,0,1.71E+09,0, 2024-03-15 14:22:20.142
118,-65897.59182,-47477.87684,-54497.50924,-39075.74434,-44228.31318,-55745.49654,-30094.65696,-51033.32413,-0.014,0.884,0.398,192,0,0,0,0,0,0,0,0,0,1.71E+09,0, 2024-03-15 14:22:20.142
119,-65871.44028,-47460.39778,-54481.68421,-39061.84155,-44220.2889,-55746.07769,-30117.56749,-51031.35717,-0.014,0.884,0.398,192,0,0,0,0,0,0,0,0,0,1.71E+09,0, 2024-03-15 14:22:20.142
120,-65770.41039,-47367.81685,-54382.15189,-38958.21887,-44124.04229,-55673.61333,-30074.071,-50961.59738,-0.014,0.884,0.398,192,0,0,0,0,0,0,0,0,0,1.71E+09,0, 2024-03-15 14:22:20.142
121,-65724.00817,-47319.67119,-54327.14424,-38902.11599,-44069.97342,-55627.92636,-30026.79706,-50920.89485,-0.014,0.884,0.398,192,0,0,0,0,0,0,0,0,0,1.71E+09,0, 2024-03-15 14:22:20.142
122,-65795.95844,-47385.89941,-54402.17905,-38979.1848,-44141.65546,-55681.34703,-30053.46269,-51008.06666,-0.014,0.884,0.398,192,0,0,0,0,0,0,0,0,0,1.71E+09,0, 2024-03-15 14:22:20.142
123,-65873.92132,-47463.9517,-54489.77554,-39068.32356,-44226.83796,-55747.68701,-30116.18169,-51060.70501,-0.01,0.886,0.398,192,255,176,27,176,12,112,0,0,0,1.71E+09,0, 2024-03-15 14:22:20.142
124,-65855.19056,-47448.99839,-54475.2022,-39053.37024,-44216.64556,-55740.84738,-30129.10099,-51034.17349,-0.01,0.886,0.398,192,0,0,0,0,0,0,0,0,0,1.71E+09,0, 2024-03-15 14:22:20.142
125,-65771.46092,-47367.30276,-54384.00708,-38957.16834,-44128.49028,-55669.99235,-30082.3635,-50945.52647,-0.01,0.886,0.398,192,0,0,0,0,0,0,0,0,0,1.71E+09,0, 2024-03-15 14:22:20.142
126,-65728.65733,-47322.26399,-54325.40081,-38898.11503,-44068.52055,-55617.04107,-30021.79027,-50879.03003,-0.01,0.886,0.398,192,0,0,0,0,0,0,0,0,0,1.71E+09,0, 2024-03-15 14:22:20.142
127,-65799.24414,-47383.79835,-54385.68346,-38963.69504,-44121.53889,-55657.58713,-30020.27035,-50926.81806,-0.01,0.886,0.398,192,0,0,0,0,0,0,0,0,0,1.71E+09,0, 2024-03-15 14:22:20.142
128,-65889.83576,-47468.19853,-54479.11376,-39057.68413,-44208.86716,-55730.8338,-30081.67059,-51007.70903,-0.01,0.886,0.398,192,0,0,0,0,0,0,0,0,0,1.71E+09,0, 2024-03-15 14:22:20.142
129,-65877.00586,-47461.06833,-54475.64923,-39052.90086,-44208.93421,-55734.38772,-30108.89502,-51013.05109,-0.01,0.886,0.398,192,0,0,0,0,0,0,0,0,0,1.71E+09,0, 2024-03-15 14:22:20.142
130,-65784.89432,-47377.91984,-54386.19755,-38961.95161,-44122.00828,-55670.72996,-30071.90288,-50950.08623,-0.01,0.886,0.398,192,0,0,0,0,0,0,0,0,0,1.71E+09,0, 2024-03-15 14:22:20.142
131,-65737.41922,-47330.10946,-54333.62625,-38906.7875,-44073.05796,-55623.90305,-30025.09833,-50909.58487,-0.01,0.886,0.398,192,0,0,0,0,0,0,0,0,0,1.71E+09,0, 2024-03-15 14:22:20.142
132,-65817.70668,-47401.16565,-54405.80003,-38981.30822,-44139.08501,-55673.09924,-30040.20811,-50971.78977,-0.01,0.886,0.398,192,0,0,0,0,0,0,0,0,0,1.71E+09,0, 2024-03-15 14:22:20.142
133,-65900.00581,-47479.53087,-54485.88633,-39064.72493,-44212.89047,-55735.17003,-30091.72888,-51019.89073,-0.02,0.888,0.394,192,255,96,27,192,12,80,0,0,0,1.71E+09,0, 2024-03-15 14:22:20.142
134,-65874.43541,-47460.59894,-54465.18862,-39047.29057,-44193.3327,-55728.57627,-30097.80855,-51020.51658,-0.02,0.888,0.394,192,0,0,0,0,0,0,0,0,0,1.71E+09,0, 2024-03-15 14:22:20.142
135,-65780.75925,-47377.11518,-54374.52994,-38956.56484,-44108.37371,-55667.64541,-30062.11282,-50958.15521,-0.02,0.888,0.394,192,0,0,0,0,0,0,0,0,0,1.71E+09,0, 2024-03-15 14:22:20.142
136,-65727.98678,-47325.16972,-54315.16371,-38897.42212,-44047.53227,-55618.33747,-29999.25971,-50882.02517,-0.02,0.888,0.394,192,0,0,0,0,0,0,0,0,0,1.71E+09,0, 2024-03-15 14:22:20.142
137,-65805.03324,-47389.43099,-54385.68346,-38971.04877,-44113.3358,-55668.04775,-30020.44916,-50935.5576,-0.02,0.888,0.394,192,0,0,0,0,0,0,0,0,0,1.71E+09,0, 2024-03-15 14:22:20.142
138,-65890.75218,-47470.61252,-54475.64923,-39067.85417,-44198.71947,-55743.32842,-30081.87176,-51038.91206,-0.02,0.888,0.394,192,0,0,0,0,0,0,0,0,0,1.71E+09,0, 2024-03-15 14:22:20.142
