Sample Index, EXG Channel 0, EXG Channel 1, EXG Channel 2, EXG Channel 3, EXG Channel 4, EXG Channel 5, EXG Channel 6, EXG Channel 7, Accel Channel 0, Accel Channel 1, Accel Channel 2, Other, Other, Other, Other, Other, Other, Other, Analog Channel 0, Analog Channel 1, Analog Channel 2, Timestamp, Other, Timestamp (Formatted)
0,-64924.79919,-26843.19339,-558.5030387,12332.88793,-6702.818776,-31407.2855,-47408.89936,-43138.17389,0.156,0.856,0.432,192,4,224,26,192,13,128,0,0,0,1.71E+09,0, 2024-03-05 15:23:40.096
1,-64936.44445,-26851.41884,-576.2056203,12322.42731,-6725.349334,-31413.56634,-47414.95668,-43148.36629,0.156,0.856,0.432,192,0,0,0,0,0,0,0,0,0,1.71E+09,0, 2024-03-05 15:23:40.096
2,-64935.25981,-26849.98832,-578.8878296,12319.67805,-6729.506758,-31416.44972,-47419.42703,-43155.42944,0.156,0.856,0.432,192,0,0,0,0,0,0,0,0,0,1.71E+09,0, 2024-03-05 15:23:40.096
3,-64923.36868,-26839.10302,-561.0734893,12329.69163,-6710.418369,-31409.27481,-47414.77786,-43159.45276,0.156,0.856,0.432,192,0,0,0,0,0,0,0,0,0,1.71E+09,0, 2024-03-05 15:23:40.096
4,-64922.63108,-26840.15356,-552.9598061,12329.22224,-6698.191964,-31411.86761,-47410.48633,-43172.46147,0.156,0.856,0.432,192,0,0,0,0,0,0,0,0,0,1.71E+09,0, 2024-03-05 15:23:40.096
5,-64933.35991,-26848.82603,-561.4981725,12323.34373,-6705.43393,-31412.40405,-47417.23656,-43155.76472,0.156,0.856,0.432,192,0,0,0,0,0,0,0,0,0,1.71E+09,0, 2024-03-05 15:23:40.096
6,-64940.08779,-26853.4752,-576.6526552,12318.06872,-6724.432912,-31415.95798,-47426.35607,-43145.75114,0.156,0.856,0.432,192,0,0,0,0,0,0,0,0,0,1.71E+09,0, 2024-03-05 15:23:40.096
7,-64928.75545,-26842.0311,-572.1376028,12322.65083,-6727.450398,-31421.00947,-47431.76519,-43176.55184,0.156,0.856,0.432,192,0,0,0,0,0,0,0,0,0,1.71E+09,0, 2024-03-05 15:23:40.096
8,-64919.65829,-26836.1973,-556.46903,12321.48854,-6714.776959,-31435.91809,-47432.30163,-43242.6236,0.156,0.856,0.432,192,0,0,0,0,0,0,0,0,0,1.71E+09,0, 2024-03-05 15:23:40.096
9,-64914.07036,-26835.01265,-541.9627478,12327.07647,-6696.157956,-31434.75579,-47428.59124,-43214.37099,0.156,0.856,0.432,192,0,0,0,0,0,0,0,0,0,1.71E+09,0, 2024-03-05 15:23:40.096
10,-64919.92651,-26837.31488,-541.0016228,12333.91611,-6692.805194,-31424.11636,-47424.34441,-43132.20598,0.154,0.86,0.43,192,4,208,26,224,13,112,0,0,0,1.71E+09,0, 2024-03-05 15:23:40.096
11,-64922.58637,-26841.76288,-549.6517479,12330.20572,-6706.059778,-31429.6596,-47425.75257,-43135.22346,0.154,0.86,0.43,192,0,0,0,0,0,0,0,0,0,1.71E+09,0, 2024-03-05 15:23:40.096
12,-64917.33371,-26841.44996,-553.7197654,12325.28833,-6715.000476,-31442.33304,-47427.20543,-43182.87738,0.154,0.86,0.43,192,0,0,0,0,0,0,0,0,0,1.71E+09,0, 2024-03-05 15:23:40.096
13,-64909.37649,-26836.13024,-546.4778002,12324.55073,-6709.010209,-31452.92776,-47429.2618,-43247.65274,0.154,0.86,0.43,192,0,0,0,0,0,0,0,0,0,1.71E+09,0, 2024-03-05 15:23:40.096
14,-64908.37066,-26836.26435,-541.6274716,12325.73537,-6702.259982,-31453.3748,-47430.11116,-43248.92679,0.154,0.86,0.43,192,0,0,0,0,0,0,0,0,0,1.71E+09,0, 2024-03-05 15:23:40.096
15,-64915.92555,-26841.20409,-546.0754688,12328.28347,-6701.075339,-31440.99193,-47432.07811,-43160.83856,0.154,0.86,0.43,192,0,0,0,0,0,0,0,0,0,1.71E+09,0, 2024-03-05 15:23:40.096
16,-64923.6369,-26845.8756,-554.7479456,12325.55656,-6709.501947,-31438.37678,-47427.74188,-43112.84937,0.154,0.86,0.43,192,0,0,0,0,0,0,0,0,0,1.71E+09,0, 2024-03-05 15:23:40.096
17,-64920.75353,-26842.90282,-555.1279253,12325.51185,-6713.212337,-31438.46618,-47425.12672,-43125.72397,0.154,0.86,0.43,192,0,0,0,0,0,0,0,0,0,1.71E+09,0, 2024-03-05 15:23:40.096
18,-64924.57568,-26844.48979,-549.383527,12320.08038,-6705.43393,-31448.81504,-47427.4066,-43178.36233,0.154,0.86,0.43,192,0,0,0,0,0,0,0,0,0,1.71E+09,0, 2024-03-05 15:23:40.096
19,-64934.45515,-26854.74925,-551.4398875,12309.26213,-6698.214316,-31461.68965,-47429.44061,-43220.65183,0.154,0.86,0.43,192,0,0,0,0,0,0,0,0,0,1.71E+09,0, 2024-03-05 15:23:40.096
20,-64946.16746,-26865.23221,-560.8946754,12303.69655,-6702.729369,-31458.22513,-47428.47948,-43200.02117,0.158,0.858,0.436,192,4,240,26,208,13,160,0,0,0,1.71E+09,0, 2024-03-05 15:23:40.096
21,-64958.12565,-26875.46931,-578.0384634,12297.16984,-6722.108331,-31456.50404,-47432.10047,-43176.39538,0.158,0.858,0.436,192,0,0,0,0,0,0,0,0,0,1.71E+09,0, 2024-03-05 15:23:40.096
22,-64955.75636,-26871.08837,-580.519507,12301.64019,-6728.567985,-31447.45159,-47429.86529,-43168.50521,0.158,0.858,0.436,192,0,0,0,0,0,0,0,0,0,1.71E+09,0, 2024-03-05 15:23:40.096
23,-64939.81957,-26854.88336,-558.5477422,12318.02402,-6707.423235,-31430.21839,-47421.6622,-43159.45276,0.158,0.858,0.436,192,0,0,0,0,0,0,0,0,0,1.71E+09,0, 2024-03-05 15:23:40.096
24,-64935.63979,-26849.49659,-544.9355298,12328.57404,-6692.760491,-31418.10374,-47421.79631,-43142.93482,0.158,0.858,0.436,192,0,0,0,0,0,0,0,0,0,1.71E+09,0, 2024-03-05 15:23:40.096
25,-64942.30061,-26855.86683,-551.6187014,12327.41175,-6698.124909,-31413.34282,-47427.42895,-43125.65692,0.158,0.858,0.436,192,0,0,0,0,0,0,0,0,0,1.71E+09,0, 2024-03-05 15:23:40.096
26,-64950.30254,-26861.05244,-567.7119574,12321.42148,-6718.442645,-31415.44389,-47434.15683,-43129.68023,0.158,0.858,0.436,192,0,0,0,0,0,0,0,0,0,1.71E+09,0, 2024-03-05 15:23:40.096
27,-64943.73112,-26854.25751,-569.0754138,12325.4895,-6725.058761,-31413.6781,-47436.74963,-43137.14571,0.158,0.858,0.436,192,0,0,0,0,0,0,0,0,0,1.71E+09,0, 2024-03-05 15:23:40.096
28,-64929.73893,-26842.6346,-550.8810938,12333.33496,-6708.473767,-31413.94632,-47432.79337,-43169.51104,0.158,0.858,0.436,192,0,0,0,0,0,0,0,0,0,1.71E+09,0, 2024-03-05 15:23:40.096
29,-64934.81278,-26853.58695,-549.0035473,12323.81312,-6703.489328,-31431.67125,-47441.24233,-43206.05614,0.158,0.858,0.436,192,0,0,0,0,0,0,0,0,0,1.71E+09,0, 2024-03-05 15:23:40.096
30,-64938.05378,-26858.6608,-549.8752653,12325.24363,-6705.076302,-31428.13968,-47439.11891,-43138.55387,0.152,0.856,0.436,192,4,192,26,192,13,160,0,0,0,1.71E+09,0, 2024-03-05 15:23:40.096
31,-64942.90411,-26864.42755,-560.0006056,12320.05803,-6721.236613,-31432.92295,-47435.85556,-43101.94172,0.152,0.856,0.436,192,0,0,0,0,0,0,0,0,0,1.71E+09,0, 2024-03-05 15:23:40.096
32,-64945.38515,-26866.97565,-568.538972,12308.03279,-6731.540767,-31456.14641,-47446.07031,-43179.88225,0.152,0.856,0.436,192,0,0,0,0,0,0,0,0,0,1.71E+09,0, 2024-03-05 15:23:40.096
33,-64938.29965,-26856.49268,-553.5185997,12312.41373,-6716.699209,-31464.41656,-47442.65049,-43196.51195,0.152,0.856,0.436,192,0,0,0,0,0,0,0,0,0,1.71E+09,0, 2024-03-05 15:23:40.096
34,-64927.01202,-26844.37804,-530.8092273,12327.29999,-6694.056892,-31453.39715,-47433.7545,-43149.86386,0.152,0.856,0.436,192,0,0,0,0,0,0,0,0,0,1.71E+09,0, 2024-03-05 15:23:40.096
35,-64937.98672,-26852.33526,-541.1133815,12321.645,-6702.729369,-31460.79558,-47442.62814,-43158.62574,0.152,0.856,0.436,192,0,0,0,0,0,0,0,0,0,1.71E+09,0, 2024-03-05 15:23:40.096
36,-64948.02266,-26859.71133,-559.9559021,12312.92782,-6725.237575,-31468.39517,-47451.43473,-43178.09411,0.152,0.856,0.436,192,0,0,0,0,0,0,0,0,0,1.71E+09,0, 2024-03-05 15:23:40.096
37,-64948.49204,-26857.67732,-567.220219,12310.02209,-6736.592261,-31472.12791,-47455.43569,-43220.78594,0.152,0.856,0.436,192,0,0,0,0,0,0,0,0,0,1.71E+09,0, 2024-03-05 15:23:40.096
38,-64940.13249,-26850.74828,-553.2503788,12315.87825,-6723.516491,-31467.5011,-47451.03239,-43213.07459,0.152,0.856,0.436,192,0,0,0,0,0,0,0,0,0,1.71E+09,0, 2024-03-05 15:23:40.096
39,-64932.62231,-26845.8756,-536.8441983,12324.34956,-6704.986895,-31456.19112,-47444.59509,-43169.51104,0.152,0.856,0.436,192,0,0,0,0,0,0,0,0,0,1.71E+09,0, 2024-03-05 15:23:40.096
40,-64939.90897,-26854.34691,-545.091992,12317.57698,-6711.111273,-31457.84515,-47447.47847,-43171.76857,0.154,0.852,0.436,192,4,208,26,160,13,160,0,0,0,1.71E+09,0, 2024-03-05 15:23:40.096
41,-64956.11399,-26869.12142,-568.449565,12299.94146,-6733.395962,-31472.01615,-47452.28409,-43195.99786,0.154,0.852,0.436,192,0,0,0,0,0,0,0,0,0,1.71E+09,0, 2024-03-05 15:23:40.096
42,-64967.02164,-26878.75502,-585.7051117,12285.21166,-6755.032451,-31488.71291,-47459.19078,-43233.39233,0.154,0.852,0.436,192,0,0,0,0,0,0,0,0,0,1.71E+09,0, 2024-03-05 15:23:40.096
43,-64962.6854,-26875.04463,-577.1220418,12288.18444,-6743.230729,-31487.70708,-47463.28115,-43253.41949,0.154,0.852,0.436,192,0,0,0,0,0,0,0,0,0,1.71E+09,0, 2024-03-05 15:23:40.096
44,-64954.68348,-26867.19917,-556.2455125,12303.92007,-6714.039351,-31466.8529,-47450.13832,-43177.37885,0.154,0.852,0.436,192,0,0,0,0,0,0,0,0,0,1.71E+09,0, 2024-03-05 15:23:40.096
45,-64959.04207,-26869.38964,-556.3572712,12309.15038,-6712.251212,-31453.73243,-47443.56691,-43103.17106,0.154,0.852,0.436,192,0,0,0,0,0,0,0,0,0,1.71E+09,0, 2024-03-05 15:23:40.096
46,-64969.97207,-26877.54802,-571.3552918,12304.07653,-6729.976145,-31459.1192,-47446.36088,-43112.40233,0.154,0.852,0.436,192,0,0,0,0,0,0,0,0,0,1.71E+09,0, 2024-03-05 15:23:40.096
47,-64964.38413,-26870.64134,-573.0316726,12310.62559,-6736.279337,-31456.39228,-47444.95272,-43125.32164,0.154,0.852,0.436,192,0,0,0,0,0,0,0,0,0,1.71E+09,0, 2024-03-05 15:23:40.096
48,-64955.01875,-26862.4606,-560.0006056,12318.33694,-6724.522319,-31453.75478,-47443.49986,-43157.06112,0.154,0.852,0.436,192,0,0,0,0,0,0,0,0,0,1.71E+09,0, 2024-03-05 15:23:40.096
49,-64953.32002,-26865.27692,-554.1444485,12313.55367,-6716.118063,-31463.23192,-47449.08779,-43211.04058,0.154,0.852,0.436,192,0,0,0,0,0,0,0,0,0,1.71E+09,0, 2024-03-05 15:23:40.096
50,-64965.9264,-26877.43627,-565.8791144,12302.75778,-6724.745837,-31472.12791,-47456.39681,-43221.83647,0.158,0.85,0.432,192,4,240,26,144,13,128,0,0,0,1.71E+09,0, 2024-03-05 15:23:40.096
51,-64971.73786,-26877.74919,-570.2377045,12311.92199,-6731.071381,-31456.21347,-47450.09362,-43119.10786,0.158,0.85,0.432,192,0,0,0,0,0,0,0,0,0,1.71E+09,0, 2024-03-05 15:23:40.096
52,-64962.90892,-26867.78031,-563.4204225,12324.08134,-6731.160787,-31445.19406,-47447.16554,-43093.55981,0.158,0.85,0.432,192,0,0,0,0,0,0,0,0,0,1.71E+09,0, 2024-03-05 15:23:40.096
53,-64948.15677,-26853.98929,-543.080335,12336.3301,-6713.167633,-31442.19893,-47441.28703,-43109.11663,0.158,0.85,0.432,192,0,0,0,0,0,0,0,0,0,1.71E+09,0, 2024-03-05 15:23:40.096
54,-64947.55327,-26852.55877,-533.290271,12335.61484,-6701.432967,-31454.023,-47440.84,-43147.44987,0.158,0.85,0.432,192,0,0,0,0,0,0,0,0,0,1.71E+09,0, 2024-03-05 15:23:40.096
55,-64961.65722,-26861.8124,-545.181399,12319.90156,-6713.145281,-31477.60409,-47451.30062,-43203.17277,0.158,0.85,0.432,192,0,0,0,0,0,0,0,0,0,1.71E+09,0, 2024-03-05 15:23:40.096
56,-64970.82144,-26866.79684,-558.9277218,12312.39138,-6733.083038,-31484.26491,-47455.14512,-43174.22726,0.158,0.85,0.432,192,0,0,0,0,0,0,0,0,0,1.71E+09,0, 2024-03-05 15:23:40.096
57,-64964.38413,-26860.40424,-558.2795213,12313.41956,-6736.905186,-31487.46121,-47459.36959,-43167.29822,0.158,0.85,0.432,192,0,0,0,0,0,0,0,0,0,1.71E+09,0, 2024-03-05 15:23:40.096
58,-64955.44344,-26854.2128,-546.6566141,12314.82772,-6727.718619,-31496.17839,-47465.31516,-43214.52745,0.158,0.85,0.432,192,0,0,0,0,0,0,0,0,0,1.71E+09,0, 2024-03-05 15:23:40.304
59,-64948.62615,-26851.0165,-534.4749134,12319.7004,-6715.55927,-31494.63612,-47466.99154,-43206.79375,0.158,0.85,0.432,192,0,0,0,0,0,0,0,0,0,1.71E+09,0, 2024-03-05 15:23:40.304
60,-64954.77288,-26858.95137,-539.6828699,12315.78884,-6720.320191,-31496.78189,-47467.86326,-43187.57125,0.158,0.856,0.436,192,4,240,26,192,13,160,0,0,0,1.71E+09,0, 2024-03-05 15:23:40.304
61,-64967.60279,-26874.59759,-559.6429777,12301.90841,-6743.208378,-31508.06952,-47478.48034,-43211.68878,0.158,0.856,0.436,192,0,0,0,0,0,0,0,0,0,1.71E+09,0, 2024-03-05 15:23:40.304
62,-64970.68733,-26877.45862,-565.4097277,12301.95311,-6752.730221,-31503.62152,-47478.99443,-43195.26025,0.158,0.856,0.436,192,0,0,0,0,0,0,0,0,0,1.71E+09,0, 2024-03-05 15:23:40.304
63,-64964.94293,-26873.74823,-550.8140386,12311.85494,-6739.073305,-31491.59628,-47471.37248,-43173.89198,0.158,0.856,0.436,192,0,0,0,0,0,0,0,0,0,1.71E+09,0, 2024-03-05 15:23:40.304
64,-64969.63679,-26880.49845,-546.9695386,12308.63628,-6732.457189,-31495.32902,-47472.22185,-43200.69172,0.158,0.856,0.436,192,0,0,0,0,0,0,0,0,0,1.71E+09,0, 2024-03-05 15:23:40.304
65,-64985.99827,-26896.85993,-563.2192568,12296.94632,-6748.014003,-31501.25223,-47479.41911,-43226.50799,0.158,0.856,0.436,192,0,0,0,0,0,0,0,0,0,1.71E+09,0, 2024-03-05 15:23:40.304
66,-65006.00308,-26913.89196,-585.9733326,12284.42935,-6770.097526,-31506.81782,-47485.20821,-43239.91904,0.158,0.856,0.436,192,0,0,0,0,0,0,0,0,0,1.71E+09,0, 2024-03-05 15:23:40.304
67,-65017.69304,-26922.87736,-593.5058705,12281.83654,-6778.971169,-31504.38148,-47480.6261,-43204.60328,0.158,0.856,0.436,192,0,0,0,0,0,0,0,0,0,1.71E+09,0, 2024-03-05 15:23:40.304
68,-65016.97779,-26924.6208,-587.3591408,12282.64121,-6772.444459,-31506.81782,-47473.47355,-43236.3204,0.158,0.856,0.436,192,0,0,0,0,0,0,0,0,0,1.71E+09,0, 2024-03-05 15:23:40.304
69,-65017.58129,-26930.25344,-579.5136785,12280.78601,-6754.786581,-31508.22598,-47470.9031,-43231.15715,0.158,0.856,0.436,192,0,0,0,0,0,0,0,0,0,1.71E+09,0, 2024-03-05 15:23:40.304
70,-65021.42579,-26934.45557,-578.0608151,12288.89969,-6747.58932,-31491.68569,-47461.89534,-43147.00283,0.154,0.854,0.438,192,4,208,26,176,13,176,0,0,0,1.71E+09,0, 2024-03-05 15:23:40.304
71,-65027.61722,-26940.37878,-587.4932513,12290.41961,-6755.457134,-31483.08027,-47457.40264,-43113.207,0.154,0.854,0.438,192,0,0,0,0,0,0,0,0,0,1.71E+09,0, 2024-03-05 15:23:40.304
72,-65029.69593,-26942.92688,-589.4602048,12290.79959,-6759.905131,-31486.27657,-47454.67573,-43148.96979,0.154,0.854,0.438,192,0,0,0,0,0,0,0,0,0,1.71E+09,0, 2024-03-05 15:23:40.304
73,-65020.15174,-26937.09307,-576.1609168,12297.25925,-6749.355107,-31487.3718,-47454.85454,-43189.09117,0.154,0.854,0.438,192,0,0,0,0,0,0,0,0,0,1.71E+09,0, 2024-03-05 15:23:40.304
74,-65012.77566,-26937.96479,-565.8567626,12297.2369,-6736.391096,-31492.62446,-47452.88759,-43208.51483,0.154,0.854,0.438,192,0,0,0,0,0,0,0,0,0,1.71E+09,0, 2024-03-05 15:23:40.304
75,-65025.73967,-26951.42054,-572.7410999,12289.23497,-6738.089828,-31498.61473,-47454.87689,-43201.45168,0.154,0.854,0.438,192,0,0,0,0,0,0,0,0,0,1.71E+09,0, 2024-03-05 15:23:40.304
76,-65033.45102,-26953.78982,-577.7925942,12295.67227,-6741.95668,-31483.81787,-47448.4843,-43111.12828,0.154,0.854,0.438,192,0,0,0,0,0,0,0,0,0,1.71E+09,0, 2024-03-05 15:23:40.304
77,-65027.01372,-26946.10082,-576.317379,12297.72863,-6746.739953,-31484.91311,-47446.53969,-43123.24293,0.154,0.854,0.438,192,0,0,0,0,0,0,0,0,0,1.71E+09,0, 2024-03-05 15:23:40.304
78,-65015.88255,-26922.09505,-562.5487045,12300.61201,-6735.944061,-31491.37276,-47446.18207,-43174.18255,0.154,0.854,0.438,192,0,0,0,0,0,0,0,0,0,1.71E+09,0, 2024-03-05 15:23:40.304
79,-64999.58813,-26904.77245,-539.1017245,12314.42539,-6712.36297,-31482.29795,-47439.87887,-43150.04267,0.154,0.854,0.438,192,0,0,0,0,0,0,0,0,0,1.71E+09,0, 2024-03-05 15:23:40.304
80,-65001.1304,-26911.09799,-539.4817042,12311.4526,-6714.084055,-31483.03556,-47448.99839,-43148.41099,0.154,0.856,0.434,192,4,208,26,192,13,144,0,0,0,1.71E+09,0, 2024-03-05 15:23:40.304
81,-65008.14885,-26918.40701,-555.9102363,12301.0814,-6734.133569,-31491.48452,-47460.80011,-43195.32731,0.154,0.856,0.434,192,0,0,0,0,0,0,0,0,0,1.71E+09,0, 2024-03-05 15:23:40.304
82,-65007.92533,-26916.68593,-562.0122626,12300.45555,-6746.18116,-31494.72552,-47469.36082,-43212.26993,0.154,0.856,0.434,192,0,0,0,0,0,0,0,0,0,1.71E+09,0, 2024-03-05 15:23:40.304
83,-64997.37531,-26909.68983,-549.1823613,12304.65767,-6737.911014,-31498.95,-47470.43371,-43245.97636,0.154,0.856,0.434,192,0,0,0,0,0,0,0,0,0,1.71E+09,0, 2024-03-05 15:23:40.304
84,-64981.8632,-26897.88811,-531.3009657,12315.18535,-6719.671991,-31493.27266,-47463.79524,-43255.96759,0.154,0.856,0.434,192,0,0,0,0,0,0,0,0,0,1.71E+09,0, 2024-03-05 15:23:40.304
85,-64990.11099,-26905.06302,-539.4817042,12312.07845,-6726.019886,-31492.69152,-47470.27725,-43238.73439,0.154,0.856,0.434,192,0,0,0,0,0,0,0,0,0,1.71E+09,0, 2024-03-05 15:23:40.304
86,-65000.57161,-26911.1427,-551.6187014,12310.53618,-6736.949889,-31486.6789,-47475.19463,-43204.73739,0.154,0.856,0.434,192,0,0,0,0,0,0,0,0,0,1.71E+09,0, 2024-03-05 15:23:40.304
87,-65000.37044,-26909.95805,-557.4078032,12310.67029,-6746.248215,-31487.3718,-47472.46772,-43230.77717,0.154,0.856,0.434,192,0,0,0,0,0,0,0,0,0,1.71E+09,0, 2024-03-05 15:23:40.304
88,-64995.92245,-26907.27584,-550.344652,12312.39138,-6737.776904,-31488.04235,-47469.45023,-43245.75284,0.154,0.856,0.434,192,0,0,0,0,0,0,0,0,0,1.71E+09,0, 2024-03-05 15:23:40.304
89,-64989.77572,-26902.82785,-534.1172855,12319.38747,-6718.062665,-31479.99573,-47462.34238,-43233.90642,0.154,0.856,0.434,192,0,0,0,0,0,0,0,0,0,1.71E+09,0, 2024-03-05 15:23:40.304
90,-64998.80582,-26908.19227,-533.7373058,12320.77328,-6714.106406,-31470.67505,-47459.90604,-43191.70632,0.158,0.858,0.432,192,4,240,26,208,13,128,0,0,0,1.71E+09,0, 2024-03-05 15:23:40.304
91,-65006.89715,-26911.85795,-547.282463,12318.71692,-6728.724447,-31467.38934,-47460.666,-43171.92503,0.158,0.858,0.432,192,0,0,0,0,0,0,0,0,0,1.71E+09,0, 2024-03-05 15:23:40.304
92,-65007.61241,-26911.58973,-552.8480474,12320.57212,-6737.240462,-31463.03075,-47459.68252,-43171.07566,0.158,0.858,0.432,192,0,0,0,0,0,0,0,0,0,1.71E+09,0, 2024-03-05 15:23:40.304
93,-65005.13136,-26910.47214,-548.7129746,12320.90739,-6733.507721,-31464.953,-47464.01876,-43209.99005,0.158,0.858,0.432,192,0,0,0,0,0,0,0,0,0,1.71E+09,0, 2024-03-05 15:23:40.304
94,-64994.82721,-26904.28071,-535.8383698,12328.88697,-6718.442645,-31455.9229,-47463.63878,-43194.81322,0.158,0.858,0.432,192,0,0,0,0,0,0,0,0,0,1.71E+09,0, 2024-03-05 15:23:40.304
95,-64994.80486,-26905.24184,-534.0502303,12332.86558,-6713.212337,-31444.99289,-47462.45414,-43155.89883,0.158,0.858,0.432,192,0,0,0,0,0,0,0,0,0,1.71E+09,0, 2024-03-05 15:23:40.304
96,-65005.51134,-26911.50032,-545.5390269,12331.36801,-6727.271584,-31438.48854,-47463.50467,-43152.81429,0.158,0.858,0.432,192,0,0,0,0,0,0,0,0,0,1.71E+09,0, 2024-03-05 15:23:40.304
97,-65006.78539,-26910.94153,-550.9705008,12333.20085,-6737.352221,-31434.97931,-47465.58338,-43177.55767,0.158,0.858,0.432,192,0,0,0,0,0,0,0,0,0,1.71E+09,0, 2024-03-05 15:23:40.304
98,-65003.0303,-26909.44396,-545.360213,12335.6819,-6733.75359,-31433.52645,-47470.92545,-43181.87156,0.158,0.858,0.432,192,0,0,0,0,0,0,0,0,0,1.71E+09,0, 2024-03-05 15:23:40.304
99,-64992.07795,-26902.82785,-528.9763843,12343.19208,-6716.676857,-31426.03861,-47467.148,-43173.44495,0.158,0.858,0.432,192,0,0,0,0,0,0,0,0,0,1.71E+09,0, 2024-03-05 15:23:40.304
100,-65001.91271,-26911.65679,-532.6644221,12335.34662,-6720.29784,-31432.9006,-47467.81855,-43188.42062,0.158,0.86,0.43,192,4,240,26,224,13,112,0,0,0,1.71E+09,0, 2024-03-05 15:23:40.304
101,-65017.73775,-26920.23986,-547.7518496,12330.5857,-6734.692363,-31432.36416,-47474.38997,-43170.51687,0.158,0.86,0.43,192,0,0,0,0,0,0,0,0,0,1.71E+09,0, 2024-03-05 15:23:40.304
102,-65008.90881,-26908.75106,-542.9015211,12344.04145,-6734.021811,-31417.43319,-47468.4444,-43147.74044,0.158,0.86,0.43,192,0,0,0,0,0,0,0,0,0,1.71E+09,0, 2024-03-05 15:23:40.304
103,-65002.53856,-26906.80646,-535.7936663,12344.95787,-6728.50093,-31425.2563,-47469.42788,-43172.52853,0.158,0.86,0.43,192,0,0,0,0,0,0,0,0,0,1.71E+09,0, 2024-03-05 15:23:40.304
104,-64992.145,-26900.92795,-518.6275266,12353.33977,-6700.538898,-31423.93755,-47465.31516,-43162.69376,0.158,0.86,0.43,192,0,0,0,0,0,0,0,0,0,1.71E+09,0, 2024-03-05 15:23:40.403
105,-64995.65422,-26905.71122,-517.979326,12351.48458,-6693.363988,-31429.27962,-47465.49397,-43152.61312,0.158,0.86,0.43,192,0,0,0,0,0,0,0,0,0,1.71E+09,0, 2024-03-05 15:23:40.403
106,-65005.93603,-26916.46241,-534.251396,12337.35828,-6712.027694,-31448.12214,-47472.53477,-43186.61012,0.158,0.86,0.43,192,0,0,0,0,0,0,0,0,0,1.71E+09,0, 2024-03-05 15:23:40.403
107,-65005.31018,-26916.10478,-539.4817042,12332.55265,-6722.242441,-31459.29801,-47472.2442,-43226.97738,0.158,0.86,0.43,192,0,0,0,0,0,0,0,0,0,1.71E+09,0, 2024-03-05 15:23:40.403
108,-64997.73294,-26910.31568,-529.8481023,12334.36314,-6715.603973,-31465.42239,-47469.94197,-43246.31163,0.158,0.86,0.43,192,0,0,0,0,0,0,0,0,0,1.71E+09,0, 2024-03-05 15:23:40.403
109,-64985.88651,-26902.26905,-514.2242329,12339.79462,-6699.734235,-31465.08711,-47471.21602,-43236.34276,0.158,0.86,0.43,192,0,0,0,0,0,0,0,0,0,1.71E+09,0, 2024-03-05 15:23:40.403
110,-64993.19553,-26912.61791,-521.3097359,12331.16684,-6703.601087,-31473.71488,-47478.14506,-43227.17854,0.164,0.86,0.436,192,5,32,26,224,13,160,0,0,0,1.71E+09,0, 2024-03-05 15:23:40.403
111,-65003.76791,-26922.87736,-535.6819076,12325.4448,-6718.12972,-31472.17261,-47478.25682,-43193.09213,0.164,0.86,0.436,192,0,0,0,0,0,0,0,0,0,1.71E+09,0, 2024-03-05 15:23:40.403
112,-65008.7747,-26932.60037,-549.8752653,12313.3078,-6735.228805,-31482.43207,-47480.06731,-43190.00759,0.164,0.86,0.436,192,0,0,0,0,0,0,0,0,0,1.71E+09,0, 2024-03-05 15:23:40.403
113,-65002.31504,-26927.14655,-538.3864687,12320.01332,-6721.303668,-31476.03947,-47477.3851,-43179.16699,0.164,0.86,0.436,192,0,0,0,0,0,0,0,0,0,1.71E+09,0, 2024-03-05 15:23:40.403
114,-65004.282,-26923.54791,-525.5565674,12326.38357,-6708.853747,-31474.16192,-47476.6922,-43215.48858,0.164,0.86,0.436,192,0,0,0,0,0,0,0,0,0,1.71E+09,0, 2024-03-05 15:23:40.403
115,-65012.19452,-26930.32049,-530.9433378,12320.52741,-6711.535956,-31479.6381,-47480.78257,-43249.93262,0.164,0.86,0.436,192,0,0,0,0,0,0,0,0,0,1.71E+09,0, 2024-03-05 15:23:40.403
116,-65026.83491,-26943.50802,-550.0317276,12310.60324,-6730.177311,-31483.01321,-47485.92347,-43242.28832,0.164,0.86,0.436,192,0,0,0,0,0,0,0,0,0,1.71E+09,0, 2024-03-05 15:23:40.403
117,-65028.15366,-26941.87634,-555.6420154,12315.2971,-6739.475636,-31473.75959,-47487.17517,-43202.70338,0.164,0.86,0.436,192,0,0,0,0,0,0,0,0,0,1.71E+09,0, 2024-03-05 15:23:40.403
118,-65020.3082,-26935.01436,-547.37187,12321.42148,-6733.217148,-31472.26202,-47486.03523,-43243.33885,0.164,0.86,0.436,192,0,0,0,0,0,0,0,0,0,1.71E+09,0, 2024-03-05 15:23:40.403
119,-65015.34611,-26931.30397,-535.6372041,12325.31069,-6718.464997,-31470.42918,-47479.84379,-43258.26982,0.164,0.86,0.436,192,0,0,0,0,0,0,0,0,0,1.71E+09,0, 2024-03-05 15:23:40.403
120,-65022.61043,-26938.34477,-537.9394338,12326.54003,-6713.815834,-31461.7567,-47477.16158,-43198.81418,0.158,0.862,0.428,192,4,240,26,240,13,96,0,0,0,1.71E+09,0, 2024-03-05 15:23:40.403
121,-65035.26152,-26949.49829,-555.1949805,12318.91809,-6729.90909,-31464.75184,-47478.92737,-43199.32827,0.158,0.862,0.428,192,0,0,0,0,0,0,0,0,0,1.71E+09,0, 2024-03-05 15:23:40.403
122,-65037.76491,-26948.35835,-563.1298498,12320.41565,-6740.056782,-31457.50987,-47479.35205,-43157.77637,0.158,0.862,0.428,192,0,0,0,0,0,0,0,0,0,1.71E+09,0, 2024-03-05 15:23:40.403
123,-65032.69107,-26944.40209,-559.6206259,12319.43218,-6739.073305,-31461.44378,-47482.23543,-43169.80161,0.158,0.862,0.428,192,0,0,0,0,0,0,0,0,0,1.71E+09,0, 2024-03-05 15:23:40.403
124,-65032.08757,-26944.46915,-550.7469834,12316.01236,-6726.511625,-31470.13861,-47481.56488,-43219.22132,0.158,0.862,0.428,192,0,0,0,0,0,0,0,0,0,1.71E+09,0, 2024-03-05 15:23:40.403
125,-65047.51027,-26958.43899,-559.6429777,12302.80248,-6731.719581,-31483.84023,-47488.42686,-43268.64103,0.158,0.862,0.428,192,0,0,0,0,0,0,0,0,0,1.71E+09,0, 2024-03-05 15:23:40.403
126,-65056.92036,-26964.45161,-569.5671522,12302.4672,-6744.348317,-31476.62061,-47488.56097,-43209.05128,0.158,0.862,0.428,192,0,0,0,0,0,0,0,0,0,1.71E+09,0, 2024-03-05 15:23:40.403
127,-65048.40434,-26952.33696,-561.4087655,12321.17561,-6742.113142,-31446.71398,-47477.56391,-43089.80472,0.158,0.862,0.428,192,0,0,0,0,0,0,0,0,0,1.71E+09,0, 2024-03-05 15:23:40.403
128,-65036.60262,-26943.03864,-551.5069427,12327.94819,-6735.765247,-31443.47297,-47477.76508,-43090.2294,0.158,0.862,0.428,192,0,0,0,0,0,0,0,0,0,1.71E+09,0, 2024-03-05 15:23:40.403
129,-65026.90196,-26936.48957,-537.313585,12330.13866,-6716.162767,-31452.30191,-47480.31318,-43141.75017,0.158,0.862,0.428,192,0,0,0,0,0,0,0,0,0,1.71E+09,0, 2024-03-05 15:23:40.582
130,-65025.38204,-26935.90843,-532.3291459,12331.03273,-6711.692418,-31458.42629,-47479.84379,-43161.41971,0.16,0.864,0.424,192,5,0,27,0,13,64,0,0,0,1.71E+09,0, 2024-03-05 15:23:40.582
131,-65034.83683,-26946.4361,-547.4165735,12321.53324,-6728.567985,-31472.55259,-47485.63289,-43174.67429,0.16,0.864,0.424,192,0,0,0,0,0,0,0,0,0,1.71E+09,0, 2024-03-05 15:23:40.582
132,-65032.4452,-26942.88217,-549.4952857,12323.50019,-6736.793427,-31475.27951,-47483.97887,-43179.79284,0.16,0.864,0.424,192,0,0,0,0,0,0,0,0,0,1.71E+09,0, 2024-03-05 15:23:40.582
133,-65023.14687,-26935.03671,-539.5487594,12326.11535,-6731.96545,-31483.90728,-47485.87876,-43238.24265,0.16,0.864,0.424,192,0,0,0,0,0,0,0,0,0,1.71E+09,0, 2024-03-05 15:23:40.582
134,-65018.96709,-26933.49444,-531.2339105,12324.05899,-6722.421255,-31494.4126,-47493.3666,-43286.8577,0.16,0.864,0.424,192,0,0,0,0,0,0,0,0,0,1.71E+09,0, 2024-03-05 15:23:40.582
135,-65022.72219,-26938.99297,-532.5750151,12321.33208,-6719.359066,-31496.2678,-47497.43462,-43256.25816,0.16,0.864,0.424,192,0,0,0,0,0,0,0,0,0,1.71E+09,0, 2024-03-05 15:23:40.582
136,-65028.31012,-26943.55273,-544.9802333,12321.13091,-6731.205491,-31490.79162,-47497.12169,-43228.87727,0.16,0.864,0.424,192,0,0,0,0,0,0,0,0,0,1.71E+09,0, 2024-03-05 15:23:40.582
137,-65029.85239,-26946.19023,-553.5185997,12317.39817,-6744.214206,-31497.0054,-47499.60273,-43276.30768,0.16,0.864,0.424,192,0,0,0,0,0,0,0,0,0,1.71E+09,0, 2024-03-05 15:23:40.582
138,-65027.97485,-26947.50898,-552.4010125,12312.32432,-6746.002346,-31509.05299,-47507.17998,-43332.41055,0.16,0.864,0.424,192,0,0,0,0,0,0,0,0,0,1.71E+09,0, 2024-03-05 15:23:40.582
139,-65024.06329,-26943.06099,-538.9452623,12321.15326,-6731.943099,-31496.67013,-47507.71642,-43297.25126,0.16,0.864,0.424,192,0,0,0,0,0,0,0,0,0,1.71E+09,0, 2024-03-05 15:23:40.582
140,-65028.37718,-26944.64796,-530.7868756,12330.87627,-6719.739046,-31479.79456,-47494.86417,-43218.14844,0.16,0.864,0.424,192,0,0,0,0,0,0,0,0,0,1.71E+09,0, 2024-03-05 15:23:40.582
141,-65040.73769,-26956.31557,-542.7227071,12326.56238,-6732.256023,-31481.04626,-47496.92053,-43200.35645,0.156,0.86,0.426,192,4,224,26,224,13,80,0,0,0,1.71E+09,0, 2024-03-05 15:23:40.582
142,-65046.83972,-26960.85298,-552.8703991,12321.98028,-6748.393982,-31486.7236,-47504.92245,-43240.50018,0.156,0.86,0.426,192,0,0,0,0,0,0,0,0,0,1.71E+09,0, 2024-03-05 15:23:40.582
143,-65041.02827,-26956.24852,-543.9520531,12327.61292,-6743.186026,-31482.52147,-47506.66589,-43257.15223,0.156,0.86,0.426,192,0,0,0,0,0,0,0,0,0,1.71E+09,0, 2024-03-05 15:23:40.582
144,-65030.52295,-26947.129,-523.9025383,12344.98022,-6721.661296,-31462.04727,-47500.72032,-43221.34474,0.156,0.86,0.426,192,0,0,0,0,0,0,0,0,0,1.71E+09,0, 2024-03-05 15:23:40.582
145,-65033.87571,-26947.64309,-520.1250935,12355.30673,-6711.759473,-31441.21545,-47496.29468,-43142.26426,0.156,0.86,0.426,192,0,0,0,0,0,0,0,0,0,1.71E+09,0, 2024-03-05 15:23:40.582
146,-65050.77363,-26963.82576,-538.364117,12342.52153,-6728.210357,-31449.15032,-47499.64744,-43130.84252,0.156,0.86,0.426,192,0,0,0,0,0,0,0,0,0,1.71E+09,0, 2024-03-05 15:23:40.582
147,-65057.81443,-26971.26889,-552.1104398,12332.32913,-6748.014003,-31461.17556,-47502.17319,-43176.99887,0.156,0.86,0.426,192,0,0,0,0,0,0,0,0,0,1.71E+09,0, 2024-03-05 15:23:40.582
148,-65051.93592,-26965.77036,-545.3378612,12333.33496,-6741.554349,-31466.2047,-47501.97202,-43222.26116,0.156,0.86,0.426,192,0,0,0,0,0,0,0,0,0,1.71E+09,0, 2024-03-05 15:23:40.582
149,-65042.32467,-26958.34958,-532.8432361,12338.67703,-6725.326982,-31461.82376,-47500.38505,-43204.55858,0.156,0.86,0.426,192,0,0,0,0,0,0,0,0,0,1.71E+09,0, 2024-03-05 15:23:40.582
150,-65053.74641,-26970.55363,-542.4321344,12326.85296,-6731.607822,-31471.18914,-47509.07987,-43195.90845,0.156,0.86,0.426,192,0,0,0,0,0,0,0,0,0,1.71E+09,0, 2024-03-05 15:23:40.582
151,-65069.54909,-26987.51861,-562.23578,12311.34085,-6751.299709,-31484.46607,-47514.64546,-43196.40019,0.158,0.86,0.432,192,4,240,26,224,13,128,0,0,0,1.71E+09,0, 2024-03-05 15:23:40.582
152,-65067.98447,-26987.13863,-564.1803818,12313.9113,-6756.977052,-31481.76151,-47508.40932,-43155.40709,0.158,0.86,0.432,192,0,0,0,0,0,0,0,0,0,1.71E+09,0, 2024-03-05 15:23:40.582
153,-65059.98255,-26982.73533,-556.6478439,12312.95017,-6753.289014,-31493.47383,-47510.6445,-43187.05716,0.158,0.86,0.432,192,0,0,0,0,0,0,0,0,0,1.71E+09,0, 2024-03-05 15:23:40.582
154,-65048.71727,-26974.28637,-542.8791693,12313.46426,-6741.040259,-31507.48837,-47515.02544,-43266.07058,0.158,0.86,0.432,192,0,0,0,0,0,0,0,0,0,1.71E+09,0, 2024-03-05 15:23:40.582
155,-65044.6269,-26971.71592,-533.8714163,12318.404,-6732.099561,-31506.88487,-47513.17024,-43246.82572,0.158,0.86,0.432,192,0,0,0,0,0,0,0,0,0,1.71E+09,0, 2024-03-05 15:23:40.582
156,-65050.57246,-26978.35439,-542.387431,12313.39721,-6743.610709,-31511.35522,-47514.17607,-43224.83161,0.158,0.86,0.432,192,0,0,0,0,0,0,0,0,0,1.71E+09,0, 2024-03-05 15:23:40.582
157,-65056.18275,-26982.2883,-554.7032421,12308.72569,-6762.095602,-31518.79835,-47524.86021,-43239.65081,0.158,0.86,0.432,192,0,0,0,0,0,0,0,0,0,1.71E+09,0, 2024-03-05 15:23:40.582
158,-65047.75614,-26974.30873,-546.8801316,12316.32528,-6757.088811,-31517.61371,-47525.15078,-43261.55552,0.158,0.86,0.432,192,0,0,0,0,0,0,0,0,0,1.71E+09,0, 2024-03-05 15:23:40.582
159,-65042.16821,-26976.07451,-530.5633581,12324.03664,-6738.179235,-31516.00439,-47520.16634,-43264.59536,0.158,0.86,0.432,192,0,0,0,0,0,0,0,0,0,1.71E+09,0, 2024-03-05 15:23:40.582
160,-65049.1643,-26981.66245,-530.9433378,12323.76842,-6734.714715,-31515.44559,-47522.69209,-43274.1172,0.158,0.86,0.432,192,0,0,0,0,0,0,0,0,0,1.71E+09,0, 2024-03-05 15:23:40.582
161,-65064.47525,-26995.14055,-553.8538759,12310.0668,-6758.675785,-31527.78375,-47531.67749,-43310.17057,0.154,0.862,0.428,192,4,208,26,240,13,96,0,0,0,1.71E+09,0, 2024-03-05 15:23:40.582
162,-65066.57631,-26996.05697,-562.7945736,12313.73248,-6771.192762,-31520.56414,-47532.52685,-43276.77706,0.154,0.862,0.428,192,0,0,0,0,0,0,0,0,0,1.71E+09,0, 2024-03-05 15:23:40.582
163,-65055.80277,-26988.83736,-550.6799281,12326.47298,-6757.960529,-31508.56125,-47525.35194,-43238.10854,0.154,0.862,0.428,192,0,0,0,0,0,0,0,0,0,1.71E+09,0, 2024-03-05 15:23:40.582
164,-65042.83876,-26978.42145,-529.088143,12342.7227,-6734.871177,-31491.52923,-47510.39863,-43218.01433,0.154,0.862,0.428,192,0,0,0,0,0,0,0,0,0,1.71E+09,0, 2024-03-05 15:23:40.582
165,-65051.24301,-26986.49043,-529.6022331,12341.87333,-6733.507721,-31489.62933,-47514.33253,-43224.45163,0.154,0.862,0.428,192,0,0,0,0,0,0,0,0,0,1.71E+09,0, 2024-03-05 15:23:40.582
166,-65069.6385,-27003.79068,-553.7868206,12328.10465,-6757.312328,-31499.08411,-47527.25184,-43240.67899,0.154,0.862,0.428,192,0,0,0,0,0,0,0,0,0,1.71E+09,0, 2024-03-05 15:23:40.582
167,-65075.49466,-27006.96462,-565.5214865,12325.78007,-6773.919675,-31499.86643,-47532.92919,-43254.78295,0.154,0.862,0.428,192,0,0,0,0,0,0,0,0,0,1.71E+09,0, 2024-03-05 15:23:40.582
168,-65070.82314,-27000.99671,-554.9044078,12336.28539,-6766.096564,-31487.12593,-47528.25767,-43233.28057,0.154,0.862,0.428,192,0,0,0,0,0,0,0,0,0,1.71E+09,0, 2024-03-05 15:23:40.582
169,-65068.23034,-26997.75571,-540.018146,12345.00257,-6746.18116,-31476.79943,-47520.34515,-43200.87054,0.154,0.862,0.428,192,0,0,0,0,0,0,0,0,0,1.71E+09,0, 2024-03-05 15:23:40.582
170,-65074.42177,-27001.37669,-536.8441983,12348.24358,-6737.687497,-31471.56912,-47514.08667,-43183.27971,0.154,0.862,0.428,192,0,0,0,0,0,0,0,0,0,1.71E+09,0, 2024-03-05 15:23:40.582
171,-65092.61609,-27017.93933,-559.0171288,12333.93846,-6758.921654,-31479.54869,-47521.79802,-43203.6198,0.156,0.862,0.428,192,4,224,26,240,13,96,0,0,0,1.71E+09,0, 2024-03-05 15:23:40.582
172,-65102.87554,-27026.29888,-578.8207744,12320.81799,-6782.838021,-31489.60698,-47531.63278,-43233.30292,0.156,0.862,0.428,192,0,0,0,0,0,0,0,0,0,1.71E+09,0, 2024-03-05 15:23:40.582
173,-65091.85613,-27017.46994,-571.422347,12326.65179,-6778.278265,-31480.19689,-47527.27419,-43209.3195,0.156,0.862,0.428,192,0,0,0,0,0,0,0,0,0,1.71E+09,0, 2024-03-05 15:23:40.582
174,-65080.83672,-27011.85966,-553.228027,12333.02204,-6759.212227,-31471.9491,-47521.46274,-43175.65777,0.156,0.862,0.428,192,0,0,0,0,0,0,0,0,0,1.71E+09,0, 2024-03-05 15:23:40.582
175,-65088.2575,-27023.57197,-553.228027,12321.75676,-6757.804067,-31484.779,-47527.60947,-43180.01636,0.156,0.862,0.428,192,0,0,0,0,0,0,0,0,0,1.71E+09,0, 2024-03-05 15:23:40.582
176,-65106.63064,-27046.50486,-574.8421639,12295.56051,-6778.971169,-31514.26095,-47540.46172,-43209.85594,0.156,0.862,0.428,192,0,0,0,0,0,0,0,0,0,1.71E+09,0, 2024-03-05 15:23:40.582
177,-65110.51984,-27050.61758,-584.8333937,12289.34673,-6795.109128,-31527.1132,-47542.92042,-43222.05999,0.156,0.862,0.428,192,0,0,0,0,0,0,0,0,0,1.71E+09,0, 2024-03-05 15:23:40.582
178,-65098.60636,-27039.28525,-572.294065,12297.37101,-6787.196611,-31527.13555,-47545.44616,-43231.20186,0.156,0.862,0.428,192,0,0,0,0,0,0,0,0,0,1.71E+09,0, 2024-03-05 15:23:41.056
179,-65087.83282,-27031.03745,-553.9656346,12303.98712,-6767.057689,-31529.41543,-47543.23334,-43248.25624,0.156,0.862,0.428,192,0,0,0,0,0,0,0,0,0,1.71E+09,0, 2024-03-05 15:23:41.056
180,-65092.83961,-27034.83725,-550.7693351,12299.9191,-6760.553331,-31539.11609,-47539.25473,-43274.43013,0.156,0.862,0.428,192,0,0,0,0,0,0,0,0,0,1.71E+09,0, 2024-03-05 15:23:41.056
181,-65099.45573,-27037.78768,-559.5535707,12298.28743,-6770.991596,-31540.32308,-47540.17115,-43263.05309,0.15,0.862,0.43,192,4,176,26,240,13,112,0,0,0,1.71E+09,0, 2024-03-05 15:23:41.056
182,-65101.33327,-27037.34065,-568.3378063,12297.41571,-6786.235486,-31545.82161,-47545.42381,-43282.16383,0.15,0.862,0.43,192,0,0,0,0,0,0,0,0,0,1.71E+09,0, 2024-03-05 15:23:41.056
183,-65092.77255,-27027.41647,-559.7100329,12306.8705,-6779.999349,-31542.4912,-47543.63567,-43291.84214,0.15,0.862,0.43,192,0,0,0,0,0,0,0,0,0,1.71E+09,0, 2024-03-05 15:23:41.056
184,-65083.40717,-27016.03943,-538.5205792,12322.76259,-6758.586378,-31532.8129,-47536.28195,-43286.32126,0.15,0.862,0.43,192,0,0,0,0,0,0,0,0,0,1.71E+09,0, 2024-03-05 15:23:41.056
185,-65081.59668,-27011.61379,-531.3233174,12331.97151,-6748.796314,-31524.4757,-47530.78342,-43275.07833,0.15,0.862,0.43,192,0,0,0,0,0,0,0,0,0,1.71E+09,0, 2024-03-05 15:23:41.056
186,-65095.92415,-27021.78383,-549.2717682,12324.72954,-6765.180143,-31531.38239,-47534.22559,-43273.80428,0.15,0.862,0.43,192,0,0,0,0,0,0,0,0,0,1.71E+09,0, 2024-03-05 15:23:41.056
187,-65108.39642,-27030.70218,-562.7275184,12320.25919,-6779.597018,-31531.31533,-47535.36553,-43232.29709,0.15,0.862,0.43,192,0,0,0,0,0,0,0,0,0,1.71E+09,0, 2024-03-05 15:23:41.056
188,-65103.52374,-27027.30471,-557.5419137,12325.4895,-6779.664073,-31528.05198,-47535.20906,-43241.01427,0.15,0.862,0.43,192,0,0,0,0,0,0,0,0,0,1.71E+09,0, 2024-03-05 15:23:41.056
189,-65099.58984,-27027.37177,-545.270806,12325.5342,-6765.649529,-31532.05294,-47534.71733,-43291.17159,0.15,0.862,0.43,192,0,0,0,0,0,0,0,0,0,1.71E+09,0, 2024-03-05 15:23:41.056
190,-65102.56262,-27029.83046,-544.0191083,12323.20962,-6757.33468,-31532.07529,-47532.07982,-43306.19196,0.15,0.862,0.43,192,0,0,0,0,0,0,0,0,0,1.71E+09,0, 2024-03-05 15:23:41.056
191,-65116.97949,-27039.44171,-560.0676608,12316.99584,-6771.572741,-31532.36586,-47535.34317,-43286.63418,0.156,0.868,0.428,192,4,224,27,32,13,96,0,0,0,1.71E+09,0, 2024-03-05 15:23:41.056
192,-65129.94351,-27045.0967,-575.6915302,12313.55367,-6789.320027,-31529.30367,-47542.51808,-43273.60311,0.156,0.868,0.428,192,0,0,0,0,0,0,0,0,0,1.71E+09,0, 2024-03-05 15:23:41.056
193,-65122.12039,-27034.18905,-568.3825098,12323.50019,-6783.620332,-31516.09379,-47537.6454,-43259.43211,0.156,0.868,0.428,192,0,0,0,0,0,0,0,0,0,1.71E+09,0, 2024-03-05 15:23:41.056
194,-65115.14665,-27027.88586,-554.2338555,12330.54099,-6765.582474,-31511.31052,-47530.80577,-43249.21736,0.156,0.868,0.428,192,0,0,0,0,0,0,0,0,0,1.71E+09,0, 2024-03-05 15:23:41.056
195,-65118.03003,-27032.89265,-555.3067392,12324.37191,-6763.392003,-31518.50778,-47534.71733,-43264.77418,0.156,0.868,0.428,192,0,0,0,0,0,0,0,0,0,1.71E+09,0, 2024-03-05 15:23:41.056
196,-65132.13398,-27043.97911,-573.523411,12316.01236,-6780.491087,-31520.74296,-47543.41215,-43240.25431,0.156,0.868,0.428,192,0,0,0,0,0,0,0,0,0,1.71E+09,0, 2024-03-05 15:23:41.056
197,-65138.50422,-27048.22595,-587.5603065,12311.60907,-6800.227678,-31522.5758,-47551.81641,-43227.02208,0.156,0.868,0.428,192,0,0,0,0,0,0,0,0,0,1.71E+09,0, 2024-03-05 15:23:41.056
198,-65130.94933,-27039.77699,-580.4301,12317.82285,-6799.154794,-31521.48056,-47549.98357,-43243.40591,0.156,0.868,0.428,192,0,0,0,0,0,0,0,0,0,1.71E+09,0, 2024-03-05 15:23:41.056
199,-65125.31669,-27038.59234,-569.7012627,12315.38651,-6788.113032,-31532.32116,-47552.55402,-43285.20367,0.156,0.868,0.428,192,0,0,0,0,0,0,0,0,0,1.71E+09,0, 2024-03-05 15:23:41.056
200,-65129.09414,-27044.69437,-568.6730824,12308.07749,-6785.922561,-31543.07235,-47557.73962,-43278.92283,0.156,0.868,0.428,192,0,0,0,0,0,0,0,0,0,1.71E+09,0, 2024-03-05 15:23:41.056
201,-65136.2914,-27051.55635,-579.3348645,12302.64602,-6796.763157,-31543.85466,-47560.39948,-43215.57799,0.156,0.864,0.432,192,4,224,27,0,13,128,0,0,0,1.71E+09,0, 2024-03-05 15:23:41.056
202,-65138.05719,-27055.60202,-590.0189984,12296.09696,-6809.682466,-31549.64376,-47564.08752,-43211.53232,0.156,0.864,0.432,192,0,0,0,0,0,0,0,0,0,1.71E+09,0, 2024-03-05 15:23:41.056
203,-65137.69956,-27056.25022,-588.744949,12292.54303,-6815.091588,-31557.1763,-47563.99811,-43254.2465,0.156,0.864,0.432,192,0,0,0,0,0,0,0,0,0,1.71E+09,0, 2024-03-05 15:23:41.056
204,-65137.76662,-27058.84302,-574.6857017,12291.89483,-6800.495899,-31564.03828,-47565.67449,-43289.00347,0.156,0.864,0.432,192,0,0,0,0,0,0,0,0,0,1.71E+09,0, 2024-03-05 15:23:41.056
205,-65136.98431,-27061.41347,-565.2756173,12293.81708,-6786.459003,-31562.49601,-47564.89218,-43282.4097,0.156,0.864,0.432,192,0,0,0,0,0,0,0,0,0,1.71E+09,0, 2024-03-05 15:23:41.056
206,-65145.58973,-27067.85078,-576.3844343,12288.63147,-6800.451195,-31563.74771,-47571.08361,-43290.32222,0.156,0.864,0.432,192,0,0,0,0,0,0,0,0,0,1.71E+09,0, 2024-03-05 15:23:41.056
207,-65150.19419,-27070.80121,-583.9840274,12288.92205,-6814.063408,-31560.3726,-47572.2459,-43274.31837,0.156,0.864,0.432,192,0,0,0,0,0,0,0,0,0,1.71E+09,0, 2024-03-05 15:23:41.056
208,-65145.8356,-27066.64378,-575.5797715,12295.22524,-6810.218908,-31558.22683,-47567.84261,-43274.29602,0.156,0.864,0.432,192,0,0,0,0,0,0,0,0,0,1.71E+09,0, 2024-03-05 15:23:41.056
209,-65134.03387,-27057.72544,-554.5020764,12307.00461,-6790.996407,-31552.59419,-47563.23815,-43282.11913,0.156,0.864,0.432,192,0,0,0,0,0,0,0,0,0,1.71E+09,0, 2024-03-05 15:23:41.056
210,-65139.06302,-27064.65448,-549.6740996,12304.81414,-6784.782622,-31555.41051,-47565.98742,-43287.97529,0.156,0.864,0.432,192,0,0,0,0,0,0,0,0,0,1.71E+09,0, 2024-03-05 15:23:41.056
211,-65151.84822,-27076.14327,-561.4758207,12296.32047,-6798.238373,-31560.52906,-47568.22259,-43299.26292,0.154,0.87,0.438,192,4,208,27,48,13,176,0,0,0,1.71E+09,0, 2024-03-05 15:23:41.056
212,-65156.98912,-27081.5524,-574.305722,12294.55469,-6815.203347,-31561.19961,-47569.22842,-43312.02576,0.154,0.87,0.438,192,0,0,0,0,0,0,0,0,0,1.71E+09,0, 2024-03-05 15:23:41.056
213,-65157.83848,-27083.69816,-577.5914285,12296.34283,-6820.545414,-31562.76423,-47570.23425,-43315.15501,0.154,0.87,0.438,192,0,0,0,0,0,0,0,0,0,1.71E+09,0, 2024-03-05 15:23:41.056
214,-65150.3283,-27079.07135,-562.9063324,12307.42929,-6805.748559,-31553.89059,-47562.70171,-43283.79551,0.154,0.87,0.438,192,0,0,0,0,0,0,0,0,0,1.71E+09,0, 2024-03-05 15:23:41.056
215,-65148.38369,-27079.51839,-555.3737945,12313.2631,-6792.225753,-31548.50382,-47562.50054,-43302.57098,0.154,0.87,0.438,192,0,0,0,0,0,0,0,0,0,1.71E+09,0, 2024-03-05 15:23:41.056
216,-65162.13002,-27093.75645,-572.2046581,12303.0707,-6804.429806,-31557.35511,-47565.38392,-43336.47857,0.154,0.87,0.438,192,0,0,0,0,0,0,0,0,0,1.71E+09,0, 2024-03-05 15:23:41.056
217,-65164.02992,-27096.88569,-580.1171756,12305.06001,-6813.638725,-31551.87894,-47560.31007,-43320.89941,0.154,0.87,0.438,192,0,0,0,0,0,0,0,0,0,1.71E+09,0, 2024-03-05 15:23:41.056
218,-65154.12809,-27087.00622,-568.9860069,12319.90156,-6805.234469,-31536.12096,-47553.47044,-43276.86647,0.154,0.87,0.438,192,0,0,0,0,0,0,0,0,0,1.71E+09,0, 2024-03-05 15:23:41.056
219,-65154.75394,-27088.77201,-560.0006056,12322.04733,-6793.902134,-31534.44457,-47555.86208,-43273.22313,0.154,0.87,0.438,192,0,0,0,0,0,0,0,0,0,1.71E+09,0, 2024-03-05 15:23:41.056
220,-65158.57609,-27094.27054,-557.3630997,12321.89087,-6787.30837,-31529.0578,-47555.05741,-43244.34468,0.154,0.87,0.438,192,0,0,0,0,0,0,0,0,0,1.71E+09,0, 2024-03-05 15:23:41.056
221,-65173.08237,-27109.35797,-577.7702424,12308.63628,-6804.027474,-31534.89161,-47559.48306,-43235.26987,0.148,0.864,0.436,192,4,160,27,0,13,160,0,0,0,1.71E+09,0, 2024-03-05 15:23:41.056
222,-65179.09499,-27117.04697,-594.1540711,12298.33213,-6823.83112,-31542.46885,-47561.69588,-43255.36409,0.148,0.864,0.436,192,0,0,0,0,0,0,0,0,0,1.71E+09,0, 2024-03-05 15:23:41.056
223,-65179.43027,-27120.13151,-598.6691235,12290.08434,-6831.453065,-31554.6729,-47564.42279,-43297.29596,0.148,0.864,0.436,192,0,0,0,0,0,0,0,0,0,1.71E+09,0, 2024-03-05 15:23:41.056
224,-65167.89677,-27113.20247,-584.542821,12293.23593,-6816.231527,-31554.13646,-47562.27703,-43296.26778,0.148,0.864,0.436,192,0,0,0,0,0,0,0,0,0,1.71E+09,0, 2024-03-05 15:23:41.056
225,-65167.82971,-27115.14707,-577.9267046,12291.51485,-6806.642629,-31555.09759,-47563.84165,-43285.42719,0.148,0.864,0.436,192,0,0,0,0,0,0,0,0,0,1.71E+09,0, 2024-03-05 15:23:41.056
226,-65181.0843,-27129.0722,-592.1647659,12278.21556,-6822.624126,-31565.93818,-47575.66572,-43295.35136,0.148,0.864,0.436,192,0,0,0,0,0,0,0,0,0,1.71E+09,0, 2024-03-05 15:23:41.056
227,-65187.32043,-27135.28599,-604.1453009,12269.00664,-6841.310184,-31577.047,-47583.26531,-43307.9801,0.148,0.864,0.436,192,0,0,0,0,0,0,0,0,0,1.71E+09,0, 2024-03-05 15:23:41.056
228,-65176.05515,-27126.03237,-596.2104316,12273.96873,-6840.885501,-31576.04117,-47586.17104,-43289.11522,0.148,0.864,0.436,192,0,0,0,0,0,0,0,0,0,1.71E+09,0, 2024-03-05 15:23:41.056
229,-65162.37589,-27115.5941,-578.4407948,12284.38464,-6825.909832,-31569.53681,-47591.80368,-43284.19784,0.148,0.864,0.436,192,0,0,0,0,0,0,0,0,0,1.71E+09,0, 2024-03-05 15:23:41.056
230,-65160.72186,-27117.04697,-573.6351697,12282.88708,-6818.980791,-31576.3541,-47596.72106,-43314.01507,0.148,0.864,0.436,192,0,0,0,0,0,0,0,0,0,1.71E+09,0, 2024-03-05 15:23:41.056
231,-65168.65673,-27121.74083,-585.0345594,12279.24374,-6830.447236,-31580.86915,-47600.92319,-43305.54376,0.152,0.866,0.434,192,4,192,27,16,13,144,0,0,0,1.71E+09,0, 2024-03-05 15:23:41.056
232,-65169.86372,-27123.41721,-592.9917804,12280.13781,-6835.319917,-31583.68547,-47600.3644,-43312.07047,0.152,0.866,0.434,192,0,0,0,0,0,0,0,0,0,1.71E+09,0, 2024-03-05 15:23:41.056
233,-65162.57705,-27117.22578,-587.5379548,12285.36812,-6830.603699,-31583.50665,-47590.41787,-43340.14426,0.152,0.866,0.434,192,0,0,0,0,0,0,0,0,0,1.71E+09,0, 2024-03-05 15:23:41.056
234,-65151.20001,-27108.37449,-566.2367423,12295.22524,-6808.274306,-31577.67285,-47582.70652,-43342.15591,0.152,0.866,0.434,192,0,0,0,0,0,0,0,0,0,1.71E+09,0, 2024-03-05 15:23:41.056
235,-65149.56834,-27107.61453,-554.0550416,12302.10958,-6793.790375,-31570.56499,-47581.56658,-43321.4582,0.152,0.866,0.434,192,0,0,0,0,0,0,0,0,0,1.71E+09,0, 2024-03-05 15:23:41.056
236,-65167.0474,-27122.6349,-568.538972,12291.89483,-6806.441463,-31578.63397,-47587.6239,-43344.97223,0.152,0.866,0.434,192,0,0,0,0,0,0,0,0,0,1.71E+09,0, 2024-03-05 15:23:41.056
237,-65178.42444,-27131.15092,-581.570039,12285.54693,-6818.600812,-31582.52318,-47589.5238,-43360.64081,0.152,0.866,0.434,192,0,0,0,0,0,0,0,0,0,1.71E+09,0, 2024-03-05 15:23:41.056
238,-65175.02697,-27127.50758,-578.0161116,12289.74906,-6817.483225,-31577.06935,-47586.39456,-43356.55044,0.152,0.866,0.434,192,0,0,0,0,0,0,0,0,0,1.71E+09,0, 2024-03-05 15:23:41.056
239,-65167.71795,-27120.82441,-560.402937,12300.79082,-6797.970152,-31566.1617,-47577.43151,-43335.00336,0.152,0.866,0.434,192,0,0,0,0,0,0,0,0,0,1.71E+09,0, 2024-03-05 15:23:41.056
240,-65173.01532,-27126.90409,-557.7654311,12298.6227,-6789.275323,-31566.58638,-47576.51509,-43340.65835,0.152,0.866,0.434,192,0,0,0,0,0,0,0,0,0,1.71E+09,0, 2024-03-05 15:23:41.056
241,-65185.75581,-27137.74468,-569.5224487,12294.37587,-6801.166451,-31560.12673,-47577.3421,-43304.1803,0.156,0.86,0.436,192,4,224,26,224,13,160,0,0,0,1.71E+09,0, 2024-03-05 15:23:41.056
242,-65194.31653,-27146.84184,-583.1793646,12288.05033,-6813.750483,-31560.79728,-47581.43247,-43285.98598,0.156,0.86,0.436,192,0,0,0,0,0,0,0,0,0,1.71E+09,0, 2024-03-05 15:23:41.056
243,-65189.37679,-27145.23252,-581.2794663,12286.50806,-6815.136291,-31564.59708,-47577.07388,-43317.45724,0.156,0.86,0.436,192,0,0,0,0,0,0,0,0,0,1.71E+09,0, 2024-03-05 15:23:41.056
244,-65183.58769,-27144.83018,-567.9354749,12287.0445,-6799.154794,-31567.10047,-47574.1011,-43339.29489,0.156,0.86,0.436,192,0,0,0,0,0,0,0,0,0,1.71E+09,0, 2024-03-05 15:23:41.056
245,-65190.40497,-27153.50266,-566.1026318,12280.74131,-6792.091643,-31572.06256,-47572.8047,-43360.68551,0.156,0.86,0.436,192,0,0,0,0,0,0,0,0,0,1.71E+09,0, 2024-03-05 15:23:41.056
246,-65201.71496,-27162.9351,-580.5418587,12275.82392,-6805.413283,-31567.74867,-47577.16329,-43340.74775,0.156,0.86,0.436,192,0,0,0,0,0,0,0,0,0,1.71E+09,0, 2024-03-05 15:23:41.056
247,-65202.40786,-27163.00215,-590.4213298,12277.70147,-6821.104207,-31556.28223,-47579.68904,-43272.57493,0.156,0.86,0.436,192,0,0,0,0,0,0,0,0,0,1.71E+09,0, 2024-03-05 15:23:41.056
248,-65197.84811,-27157.34716,-586.1968501,12282.48474,-6821.238318,-31552.32597,-47580.62781,-43253.82182,0.156,0.86,0.436,192,0,0,0,0,0,0,0,0,0,1.71E+09,0, 2024-03-05 15:23:41.056
249,-65186.20285,-27147.02066,-566.4602597,12293.61591,-6802.261687,-31548.50382,-47577.47621,-43258.6498,0.156,0.86,0.436,192,0,0,0,0,0,0,0,0,0,1.71E+09,0, 2024-03-05 15:23:41.056
250,-65184.9288,-27149.59111,-558.6595009,12292.29716,-6794.595038,-31559.14325,-47580.69486,-43301.6322,0.156,0.86,0.436,192,0,0,0,0,0,0,0,0,0,1.71E+09,0, 2024-03-05 15:23:41.056
251,-65193.44481,-27158.80002,-568.6730824,12283.98231,-6806.642629,-31572.75546,-47586.2828,-43319.89358,0.156,0.866,0.436,192,4,224,27,16,13,160,0,0,0,1.71E+09,0, 2024-03-05 15:23:41.056
252,-65195.2106,-27162.66688,-580.2289343,12279.4002,-6823.272326,-31578.43281,-47593.05538,-43299.15116,0.156,0.866,0.436,192,0,0,0,0,0,0,0,0,0,1.71E+09,0, 2024-03-05 15:23:41.056
253,-65184.03473,-27154.70966,-577.3232075,12282.41769,-6827.854434,-31580.86915,-47601.90667,-43303.95678,0.156,0.866,0.436,192,0,0,0,0,0,0,0,0,0,1.71E+09,0, 2024-03-05 15:23:41.057
254,-65167.82971,-27144.85254,-559.5982742,12283.91526,-6813.124634,-31590.97214,-47604.07479,-43370.27441,0.156,0.866,0.436,192,0,0,0,0,0,0,0,0,0,1.71E+09,0, 2024-03-05 15:23:41.057
255,-65161.19124,-27143.77965,-548.332995,12280.20487,-6800.138271,-31601.3657,-47602.75604,-43410.73107,0.156,0.866,0.436,192,0,0,0,0,0,0,0,0,0,1.71E+09,0, 2024-03-05 15:23:41.057
0,-65173.84233,-27156.83307,-561.274655,12267.28556,-6813.70578,-31614.55323,-47606.01939,-43401.07511,0.156,0.866,0.436,192,0,0,0,0,0,0,0,0,0,1.71E+09,0, 2024-03-05 15:23:41.057
1,-65174.80346,-27154.06146,-566.9967016,12272.29235,-6818.869033,-31606.61836,-47604.94651,-43354.85171,0.156,0.866,0.436,192,0,0,0,0,0,0,0,0,0,1.71E+09,0, 2024-03-05 15:23:41.057
2,-65166.75683,-27143.802,-560.492344,12284.56346,-6815.270402,-31593.74375,-47601.0126,-43328.63311,0.156,0.866,0.436,192,0,0,0,0,0,0,0,0,0,1.71E+09,0, 2024-03-05 15:23:41.057
3,-65159.85014,-27135.24129,-546.2766345,12292.20775,-6800.987637,-31590.01101,-47596.72106,-43343.877,0.156,0.866,0.436,192,0,0,0,0,0,0,0,0,0,1.71E+09,0, 2024-03-05 15:23:41.057
4,-65164.36519,-27136.78356,-541.0463263,12292.58773,-6793.879782,-31590.90508,-47596.83282,-43354.60584,0.156,0.866,0.436,192,0,0,0,0,0,0,0,0,0,1.71E+09,0, 2024-03-05 15:23:41.057
5,-65183.85591,-27149.88168,-555.7984776,12284.38464,-6807.201422,-31592.24619,-47602.33135,-43336.27741,0.148,0.87,0.43,192,4,160,27,48,13,112,0,0,0,1.71E+09,0, 2024-03-05 15:23:41.057
6,-65194.04831,-27157.01189,-571.9140854,12279.51196,-6825.351039,-31593.05085,-47603.31483,-43352.8624,0.148,0.87,0.43,192,0,0,0,0,0,0,0,0,0,1.71E+09,0, 2024-03-05 15:23:41.057
7,-65191.90254,-27157.39186,-574.484536,12278.68495,-6832.324783,-31595.666,-47605.10297,-43375.46001,0.148,0.87,0.43,192,0,0,0,0,0,0,0,0,0,1.71E+09,0, 2024-03-05 15:23:41.057
8,-65184.59352,-27153.74853,-563.2416085,12283.82585,-6820.88069,-31593.05085,-47605.55,-43382.72433,0.148,0.87,0.43,192,0,0,0,0,0,0,0,0,0,1.71E+09,0, 2024-03-05 15:23:41.057
9,-65183.40888,-27155.76019,-555.3067392,12288.36325,-6807.402588,-31588.69226,-47601.59374,-43368.06159,0.148,0.87,0.43,192,0,0,0,0,0,0,0,0,0,1.71E+09,0, 2024-03-05 15:23:41.057
10,-65194.71886,-27167.62896,-565.6555969,12285.0999,-6815.806844,-31589.85455,-47601.19141,-43346.38039,0.148,0.87,0.43,192,0,0,0,0,0,0,0,0,0,1.71E+09,0, 2024-03-05 15:23:41.057
11,-65208.55459,-27178.98365,-583.4252338,12277.90264,-6838.538568,-31592.71557,-47604.99121,-43361.44547,0.148,0.87,0.43,192,0,0,0,0,0,0,0,0,0,1.71E+09,0, 2024-03-05 15:23:41.057
12,-65212.08617,-27181.46469,-584.9898559,12278.21556,-6840.907853,-31587.79819,-47604.32066,-43332.85759,0.148,0.87,0.43,192,0,0,0,0,0,0,0,0,0,1.71E+09,0, 2024-03-05 15:23:41.057
13,-65203.34663,-27175.87676,-567.6001987,12288.63147,-6817.080893,-31575.90706,-47594.68706,-43278.25228,0.148,0.87,0.43,192,0,0,0,0,0,0,0,0,0,1.71E+09,0, 2024-03-05 15:23:41.057
14,-65209.51572,-27182.1576,-564.8285824,12285.36812,-6809.816576,-31577.49403,-47593.39065,-43284.28725,0.148,0.87,0.43,192,0,0,0,0,0,0,0,0,0,1.71E+09,0, 2024-03-05 15:23:41.057
15,-65224.0667,-27195.72511,-579.2231058,12272.18059,-6823.674658,-31586.16651,-47601.19141,-43308.49419,0.148,0.87,0.43,192,0,0,0,0,0,0,0,0,0,1.71E+09,0, 2024-03-05 15:23:41.057
16,-65229.63229,-27200.19546,-592.2988763,12264.17867,-6839.007954,-31591.93326,-47601.37023,-43324.29687,0.15,0.864,0.428,192,4,176,27,0,13,96,0,0,0,1.71E+09,0, 2024-03-05 15:23:41.057
17,-65228.82762,-27199.63666,-597.8197572,12260.40122,-6846.294623,-31595.06251,-47603.6054,-43318.99951,0.15,0.864,0.428,192,0,0,0,0,0,0,0,0,0,1.71E+09,0, 2024-03-05 15:23:41.057
18,-65218.90345,-27188.86312,-581.0783006,12270.68302,-6830.11196,-31586.0771,-47599.91736,-43299.37468,0.15,0.864,0.428,192,0,0,0,0,0,0,0,0,0,1.71E+09,0, 2024-03-05 15:23:41.057
19,-65216.15418,-27185.82328,-573.6351697,12271.86767,-6820.947745,-31588.35698,-47602.37606,-43314.4621,0.15,0.864,0.428,192,0,0,0,0,0,0,0,0,0,1.71E+09,0, 2024-03-05 15:23:41.057
20,-65222.25621,-27190.27128,-586.2192018,12266.77147,-6834.71642,-31593.31907,-47614.40129,-43332.41055,0.15,0.864,0.428,192,0,0,0,0,0,0,0,0,0,1.71E+09,0, 2024-03-05 15:23:41.057
21,-65225.05018,-27191.50063,-599.3396758,12264.82687,-6853.246016,-31592.31324,-47622.89496,-43311.2211,0.15,0.864,0.428,192,0,0,0,0,0,0,0,0,0,1.71E+09,0, 2024-03-05 15:23:41.057
22,-65215.39422,-27186.85146,-594.6234577,12266.27973,-6856.554074,-31595.75541,-47623.27494,-43318.9101,0.15,0.864,0.428,192,0,0,0,0,0,0,0,0,0,1.71E+09,0, 2024-03-05 15:23:41.057
23,-65204.64304,-27181.95643,-581.1006523,12265.20685,-6844.439428,-31610.59697,-47622.49263,-43377.2258,0.15,0.864,0.428,192,0,0,0,0,0,0,0,0,0,1.71E+09,0, 2024-03-05 15:23:41.057
24,-65200.3068,-27176.05557,-571.8470301,12268.76077,-6831.654231,-31611.22282,-47622.7832,-43361.28901,0.15,0.864,0.428,192,0,0,0,0,0,0,0,0,0,1.71E+09,0, 2024-03-05 15:23:41.057
25,-65208.93457,-27182.26936,-581.0783006,12260.22241,-6840.214949,-31620.99053,-47633.46733,-43377.94106,0.15,0.864,0.428,192,0,0,0,0,0,0,0,0,0,1.71E+09,0, 2024-03-05 15:23:41.057
26,-65216.93649,-27188.14787,-596.7692252,12249.00183,-6858.744545,-31635.83209,-47649.0912,-43421.92929,0.15,0.866,0.424,192,4,176,27,16,13,64,0,0,0,1.71E+09,0, 2024-03-05 15:23:41.057
27,-65211.12504,-27179.85537,-594.7575682,12253.0922,-6861.918493,-31634.40158,-47656.51198,-43419.35884,0.15,0.866,0.424,192,0,0,0,0,0,0,0,0,0,1.71E+09,0, 2024-03-05 15:23:41.057
28,-65197.1999,-27163.71741,-574.3727773,12270.61597,-6841.578405,-31617.03427,-47656.1767,-43388.96047,0.15,0.866,0.424,192,0,0,0,0,0,0,0,0,0,1.71E+09,0, 2024-03-05 15:23:41.057
29,-65190.91906,-27157.28011,-562.5934079,12282.14947,-6824.546376,-31604.40553,-47653.4945,-43344.21228,0.15,0.866,0.424,192,0,0,0,0,0,0,0,0,0,1.71E+09,0, 2024-03-05 15:23:41.057
30,-65203.43604,-27170.24412,-574.1939633,12276.06979,-6832.749466,-31604.47259,-47660.71411,-43315.7585,0.15,0.866,0.424,192,0,0,0,0,0,0,0,0,0,1.71E+09,0, 2024-03-05 15:23:41.057
31,-65216.06478,-27183.43165,-591.0248269,12264.26807,-6852.486056,-31616.34137,-47670.61593,-43365.60289,0.15,0.866,0.424,192,0,0,0,0,0,0,0,0,0,1.71E+09,0, 2024-03-05 15:23:41.057
32,-65217.6294,-27185.21979,-594.7128647,12259.93183,-6863.349004,-31624.36564,-47675.28745,-43404.7855,0.15,0.866,0.424,192,0,0,0,0,0,0,0,0,0,1.71E+09,0, 2024-03-05 15:23:41.057
33,-65210.70036,-27178.9613,-583.5593442,12266.32443,-6852.798981,-31618.19656,-47676.40503,-43416.2743,0.15,0.866,0.424,192,0,0,0,0,0,0,0,0,0,1.71E+09,0, 2024-03-05 15:23:41.057
34,-65212.39909,-27180.81649,-578.597257,12266.12327,-6844.350021,-31617.14603,-47679.22135,-43430.49001,0.15,0.866,0.424,192,0,0,0,0,0,0,0,0,0,1.71E+09,0, 2024-03-05 15:23:41.057
35,-65228.26883,-27192.93114,-588.7002455,12260.11065,-6852.620167,-31617.50366,-47683.33407,-43398.81759,0.15,0.866,0.424,192,0,0,0,0,0,0,0,0,0,1.71E+09,0, 2024-03-05 15:23:41.057
36,-65238.193,-27195.23337,-597.8868124,12262.74815,-6864.44424,-31604.13731,-47680.69657,-43330.98004,0.156,0.864,0.426,192,4,224,27,0,13,80,0,0,0,1.71E+09,0, 2024-03-05 15:23:41.057
37,-65238.28241,-27193.22171,-600.8372427,12265.49742,-6871.75326,-31599.97989,-47680.51775,-43337.77497,0.156,0.864,0.426,192,0,0,0,0,0,0,0,0,0,1.71E+09,0, 2024-03-05 15:23:41.057
38,-65230.12402,-27186.06915,-589.6837222,12274.2593,-6859.370394,-31591.7768,-47695.784,-43350.00138,0.156,0.864,0.426,192,0,0,0,0,0,0,0,0,0,1.71E+09,0, 2024-03-05 15:23:41.057
39,-65233.99088,-27190.40539,-585.3698355,12272.76174,-6847.2781,-31592.44735,-47711.54198,-43361.31136,0.156,0.864,0.426,192,0,0,0,0,0,0,0,0,0,1.71E+09,0, 2024-03-05 15:23:41.057
40,-65247.40192,-27200.10605,-597.2162601,12267.2185,-6858.185751,-31590.59216,-47715.14061,-43340.39013,0.156,0.864,0.426,192,0,0,0,0,0,0,0,0,0,1.71E+09,0, 2024-03-05 15:23:41.057
41,-65253.50395,-27203.52587,-610.6720103,12265.40801,-6873.094365,-31586.0771,-47715.29707,-43296.58071,0.156,0.864,0.426,192,0,0,0,0,0,0,0,0,0,1.71E+09,0, 2024-03-05 15:23:41.057
42,-65250.84409,-27201.49186,-612.1472254,12266.65971,-6877.207086,-31584.24426,-47716.3476,-43279.124,0.156,0.864,0.426,192,0,0,0,0,0,0,0,0,0,1.71E+09,0, 2024-03-05 15:23:41.535
43,-65246.28434,-27199.68137,-597.8197572,12264.53629,-6864.757164,-31593.52024,-47714.24654,-43308.7177,0.156,0.864,0.426,192,0,0,0,0,0,0,0,0,0,1.71E+09,0, 2024-03-05 15:23:41.535
44,-65243.51272,-27200.30721,-584.632228,12263.57517,-6849.267405,-31600.47163,-47709.28445,-43323.11223,0.156,0.864,0.426,192,0,0,0,0,0,0,0,0,0,1.71E+09,0, 2024-03-05 15:23:41.536
45,-65255.11327,-27212.64538,-598.1326816,12248.68891,-6861.717327,-31615.46965,-47716.36995,-43345.8216,0.156,0.864,0.426,192,0,0,0,0,0,0,0,0,0,1.71E+09,0, 2024-03-05 15:23:41.536
46,-65267.22792,-27225.7435,-618.4504173,12231.25455,-6883.733795,-31635.04978,-47722.96372,-43362.67482,0.154,0.858,0.428,192,4,208,26,208,13,96,0,0,0,1.71E+09,0, 2024-03-05 15:23:41.536
47,-65259.33775,-27219.19444,-614.1141789,12234.87553,-6884.449051,-31635.9662,-47719.38744,-43334.37751,0.154,0.858,0.428,192,0,0,0,0,0,0,0,0,0,1.71E+09,0, 2024-03-05 15:23:41.536
48,-65247.96072,-27210.16433,-599.2279171,12238.92119,-6871.10506,-31639.96716,-47717.68871,-43349.93432,0.154,0.858,0.428,192,0,0,0,0,0,0,0,0,0,1.71E+09,0, 2024-03-05 15:23:41.536
49,-65249.0336,-27213.89707,-595.1375479,12230.85221,-6866.478248,-31656.64156,-47720.99676,-43418.1742,0.154,0.858,0.428,192,0,0,0,0,0,0,0,0,0,1.71E+09,0, 2024-03-05 15:23:41.536
50,-65261.37176,-27223.70949,-604.9052602,12223.0291,-6875.59776,-31666.92336,-47722.6955,-43441.75529,0.154,0.858,0.428,192,0,0,0,0,0,0,0,0,0,1.71E+09,0, 2024-03-05 15:23:41.536
51,-65270.53598,-27227.39753,-615.5446906,12225.19722,-6889.746414,-31662.14009,-47724.84126,-43399.55519,0.154,0.858,0.428,192,0,0,0,0,0,0,0,0,0,1.71E+09,0, 2024-03-05 15:23:41.536
52,-65265.28332,-27223.32951,-617.2210714,12227.11947,-6899.022388,-31664.867,-47728.93163,-43423.20334,0.154,0.858,0.428,192,0,0,0,0,0,0,0,0,0,1.71E+09,0, 2024-03-05 15:23:41.536
53,-65254.75565,-27213.65121,-604.0335422,12235.859,-6889.277028,-31663.39179,-47722.96372,-43457.13329,0.154,0.858,0.428,192,0,0,0,0,0,0,0,0,0,1.71E+09,0, 2024-03-05 15:23:41.536
54,-65248.02777,-27205.53752,-592.768263,12247.48191,-6873.317882,-31650.7854,-47715.94527,-43428.18778,0.154,0.858,0.428,192,0,0,0,0,0,0,0,0,0,1.71E+09,0, 2024-03-05 15:23:41.536
55,-65257.08023,-27207.48212,-597.9091642,12252.75692,-6872.535571,-31637.75434,-47716.66053,-43369.44739,0.154,0.858,0.428,192,0,0,0,0,0,0,0,0,0,1.71E+09,0, 2024-03-05 15:23:41.536
56,-65271.20653,-27215.19348,-614.0918272,12246.92312,-6891.243981,-31642.24704,-47715.98997,-43375.95175,0.15,0.86,0.428,192,4,176,26,224,13,96,0,0,0,1.71E+09,0, 2024-03-05 15:23:41.536
57,-65267.74201,-27211.34898,-615.7235045,12250.81232,-6895.736682,-31637.53082,-47706.89281,-43374.27537,0.15,0.86,0.428,192,0,0,0,0,0,0,0,0,0,1.71E+09,0, 2024-03-05 15:23:41.536
58,-65267.33968,-27213.38298,-610.6273068,12249.18064,-6891.422795,-31640.83888,-47710.11146,-43385.02656,0.15,0.86,0.428,192,0,0,0,0,0,0,0,0,0,1.71E+09,0, 2024-03-05 15:23:41.536
59,-65272.77115,-27219.26149,-605.3746468,12248.06306,-6883.130298,-31641.57649,-47709.66443,-43380.13153,0.15,0.86,0.428,192,0,0,0,0,0,0,0,0,0,1.71E+09,0, 2024-03-05 15:23:41.536
60,-65286.47277,-27228.58217,-612.5942603,12243.52565,-6886.48306,-31639.87775,-47707.71983,-43368.66508,0.15,0.86,0.428,192,0,0,0,0,0,0,0,0,0,1.71E+09,0, 2024-03-05 15:23:41.536
61,-65298.29684,-27239.08749,-625.1112372,12238.09418,-6901.414025,-31638.20137,-47707.13868,-43345.8663,0.15,0.86,0.428,192,0,0,0,0,0,0,0,0,0,1.71E+09,0, 2024-03-05 15:23:41.536
62,-65295.30171,-27236.71821,-624.2618709,12242.49747,-6904.587973,-31632.92636,-47702.40011,-43348.99555,0.15,0.86,0.428,192,0,0,0,0,0,0,0,0,0,1.71E+09,0, 2024-03-05 15:23:41.536
63,-65290.74196,-27233.25369,-615.6117458,12244.755,-6894.663798,-31634.91567,-47696.27573,-43373.22484,0.15,0.86,0.428,192,0,0,0,0,0,0,0,0,0,1.71E+09,0, 2024-03-05 15:23:41.536
64,-65290.25022,-27233.05252,-611.2308039,12245.15733,-6885.387824,-31632.52403,-47692.49829,-43370.185,0.15,0.86,0.428,192,0,0,0,0,0,0,0,0,0,1.71E+09,0, 2024-03-05 15:23:41.536
65,-65304.04124,-27245.0107,-625.3347546,12231.56747,-6898.105967,-31643.27522,-47693.74999,-43392.58145,0.15,0.86,0.428,192,0,0,0,0,0,0,0,0,0,1.71E+09,0, 2024-03-05 15:23:41.536
66,-65314.05482,-27252.63265,-638.8352083,12221.91152,-6911.47231,-31649.55606,-47691.67128,-43362.33954,0.152,0.862,0.432,192,4,192,26,240,13,128,0,0,0,1.71E+09,0, 2024-03-05 15:23:41.536
67,-65303.52715,-27243.13316,-635.3706879,12228.84056,-6909.661819,-31639.38601,-47681.72475,-43320.63118,0.152,0.862,0.432,192,0,0,0,0,0,0,0,0,0,1.71E+09,0, 2024-03-05 15:23:41.536
68,-65295.68169,-27236.76291,-625.2229959,12228.66174,-6896.653103,-31643.31992,-47680.24953,-43338.64669,0.152,0.862,0.432,192,0,0,0,0,0,0,0,0,0,1.71E+09,0, 2024-03-05 15:23:41.536
69,-65287.50095,-27235.57827,-620.5961848,12224.12434,-6886.48306,-31651.9924,-47681.32242,-43369.93913,0.152,0.862,0.432,192,0,0,0,0,0,0,0,0,0,1.71E+09,0, 2024-03-05 15:23:41.536
70,-65291.39016,-27240.96504,-625.1335889,12219.11755,-6890.014635,-31655.52397,-47679.199,-43372.0849,0.152,0.862,0.432,192,0,0,0,0,0,0,0,0,0,1.71E+09,0, 2024-03-05 15:23:41.536
71,-65298.76623,-27243.0661,-631.9285192,12222.96205,-6901.414025,-31647.56675,-47677.8579,-43325.97325,0.152,0.862,0.432,192,0,0,0,0,0,0,0,0,0,1.71E+09,0, 2024-03-05 15:23:41.536
72,-65294.92173,-27237.00878,-631.1238564,12227.38769,-6910.734702,-31648.1032,-47682.14943,-43347.09565,0.152,0.862,0.432,192,0,0,0,0,0,0,0,0,0,1.71E+09,0, 2024-03-05 15:23:41.536
73,-65281.0413,-27224.55886,-611.56608,12236.21663,-6896.787214,-31646.51622,-47683.6917,-43373.9401,0.152,0.862,0.432,192,0,0,0,0,0,0,0,0,0,1.71E+09,0, 2024-03-05 15:23:41.536
74,-65273.06173,-27216.35577,-589.706074,12245.47026,-6874.033138,-31642.49291,-47677.47792,-43365.35703,0.152,0.862,0.432,192,0,0,0,0,0,0,0,0,0,1.71E+09,0, 2024-03-05 15:23:41.536
75,-65274.82751,-27216.46753,-584.632228,12248.97948,-6869.294568,-31641.42002,-47671.28648,-43351.23072,0.152,0.862,0.432,192,0,0,0,0,0,0,0,0,0,1.71E+09,0, 2024-03-05 15:23:41.536
76,-65287.23273,-27223.75419,-600.5243183,12241.53635,-6888.986455,-31649.3996,-47676.74031,-43367.16752,0.156,0.858,0.43,192,4,224,26,208,13,112,0,0,0,1.71E+09,0, 2024-03-05 15:23:41.536
77,-65288.81971,-27224.40239,-611.1413969,12236.35074,-6899.447071,-31656.79802,-47682.61882,-43397.0965,0.156,0.858,0.43,192,0,0,0,0,0,0,0,0,0,1.71E+09,0, 2024-03-05 15:23:41.536
78,-65277.93441,-27214.34411,-600.0772834,12245.87259,-6888.561772,-31652.05945,-47678.77432,-43413.43563,0.156,0.858,0.43,192,0,0,0,0,0,0,0,0,0,1.71E+09,0, 2024-03-05 15:23:41.536
79,-65272.90526,-27207.75035,-584.3193036,12257.94253,-6869.182809,-31642.51526,-47670.32536,-43408.89822,0.156,0.858,0.43,192,0,0,0,0,0,0,0,0,0,1.71E+09,0, 2024-03-05 15:23:41.536
80,-65278.94023,-27213.78532,-590.1084054,12259.26128,-6872.289702,-31637.24025,-47671.26413,-43395.30836,0.156,0.858,0.43,192,0,0,0,0,0,0,0,0,0,1.71E+09,0, 2024-03-05 15:23:41.536
81,-65282.02477,-27216.57928,-600.725484,12262.83756,-6886.639522,-31625.52793,-47672.60524,-43369.89443,0.156,0.858,0.43,192,0,0,0,0,0,0,0,0,0,1.71E+09,0, 2024-03-05 15:23:41.536
82,-65281.55539,-27213.18182,-604.5476323,12264.87157,-6896.586048,-31625.28206,-47672.60524,-43405.16548,0.156,0.858,0.43,192,0,0,0,0,0,0,0,0,0,1.71E+09,0, 2024-03-05 15:23:41.536
83,-65274.73811,-27204.68816,-591.5612688,12272.85114,-6883.823202,-31623.02454,-47669.45364,-43434.91565,0.156,0.858,0.43,192,0,0,0,0,0,0,0,0,0,1.71E+09,0, 2024-03-05 15:23:41.536
84,-65272.16766,-27201.44715,-577.367911,12280.0484,-6866.321786,-31617.07897,-47666.03382,-43423.9186,0.156,0.858,0.43,192,0,0,0,0,0,0,0,0,0,1.71E+09,0, 2024-03-05 15:23:41.536
85,-65285.73516,-27210.23139,-578.9995884,12278.6626,-6865.383013,-31611.26752,-47665.20681,-43374.83416,0.156,0.858,0.43,192,0,0,0,0,0,0,0,0,0,1.71E+09,0, 2024-03-05 15:23:41.536
86,-65295.32406,-27218.07685,-591.6953792,12272.27,-6877.162382,-31614.68734,-47662.54695,-43362.4066,0.162,0.866,0.43,192,5,16,27,16,13,112,0,0,0,1.71E+09,0, 2024-03-05 15:23:41.536
87,-65294.83232,-27213.78532,-592.9023734,12278.26026,-6877.452955,-31604.29378,-47656.75785,-43309.88,0.162,0.866,0.43,192,0,0,0,0,0,0,0,0,0,1.71E+09,0, 2024-03-05 15:23:41.536
88,-65290.94312,-27210.47726,-588.9461147,12281.50127,-6869.674548,-31601.83508,-47657.00372,-43319.84887,0.162,0.866,0.43,192,0,0,0,0,0,0,0,0,0,1.71E+09,0, 2024-03-05 15:23:41.536
89,-65287.63506,-27210.94664,-587.3591408,12276.2039,-6864.243074,-31611.46869,-47661.2282,-43365.22291,0.162,0.866,0.43,192,0,0,0,0,0,0,0,0,0,1.71E+09,0, 2024-03-05 15:23:41.536
90,-65294.72057,-27217.51806,-595.0704926,12270.66067,-6870.389804,-31613.97208,-47661.40701,-43352.1695,0.162,0.866,0.43,192,0,0,0,0,0,0,0,0,0,1.71E+09,0, 2024-03-05 15:23:41.536
91,-65307.68458,-27229.25272,-615.7235045,12261.11648,-6890.394615,-31618.48713,-47669.94538,-43346.93919,0.162,0.866,0.43,192,0,0,0,0,0,0,0,0,0,1.71E+09,0, 2024-03-05 15:23:41.536
92,-65302.65543,-27225.47528,-618.8527487,12262.90462,-6893.4121,-31619.31415,-47666.92789,-43359.05383,0.162,0.866,0.43,192,0,0,0,0,0,0,0,0,0,1.71E+09,0, 2024-03-05 15:23:41.536
93,-65292.03836,-27217.04867,-604.5923358,12267.97846,-6879.799888,-31620.94583,-47661.89875,-43367.34633,0.162,0.866,0.43,192,0,0,0,0,0,0,0,0,0,1.71E+09,0, 2024-03-05 15:23:41.536
94,-65286.00339,-27214.1653,-593.5729258,12268.09022,-6866.522952,-31627.27137,-47663.2175,-43380.95854,0.162,0.866,0.43,192,0,0,0,0,0,0,0,0,0,1.71E+09,0, 2024-03-05 15:23:41.536
95,-65299.97323,-27225.89996,-604.0111904,12257.83077,-6876.447126,-31637.55317,-47675.51096,-43378.76807,0.162,0.866,0.43,192,0,0,0,0,0,0,0,0,0,1.71E+09,0, 2024-03-05 15:23:41.536
96,-65304.84591,-27226.01172,-607.3192486,12259.4401,-6884.873734,-31634.40158,-47674.41573,-43339.63017,0.166,0.854,0.432,192,5,48,26,176,13,128,0,0,0,1.71E+09,0, 2024-03-05 15:23:41.536
97,-65301.20257,-27222.14487,-602.737141,12261.18353,-6887.354778,-31636.74851,-47671.77822,-43330.3989,0.166,0.854,0.432,192,0,0,0,0,0,0,0,0,0,1.71E+09,0, 2024-03-05 15:23:41.536
98,-65293.49122,-27215.05937,-590.1754606,12263.91044,-6875.21778,-31642.53761,-47666.3691,-43371.19083,0.166,0.854,0.432,192,0,0,0,0,0,0,0,0,0,1.71E+09,0, 2024-03-05 15:23:41.536
99,-65294.5641,-27220.53554,-589.3260943,12252.68987,-6869.339272,-31660.70958,-47672.717,-43432.07698,0.166,0.854,0.432,192,0,0,0,0,0,0,0,0,0,1.71E+09,0, 2024-03-05 15:23:41.536
100,-65304.84591,-27231.89023,-598.9373444,12243.74917,-6875.821278,-31668.19741,-47676.6509,-43426.62316,0.166,0.854,0.432,192,0,0,0,0,0,0,0,0,0,1.71E+09,0, 2024-03-05 15:23:41.536
101,-65313.94307,-27236.69585,-611.0072864,12243.05627,-6892.182755,-31665.02347,-47674.0581,-43412.96624,0.166,0.854,0.432,192,0,0,0,0,0,0,0,0,0,1.71E+09,0, 2024-03-05 15:23:41.536
102,-65312.15493,-27231.95728,-615.9917254,12248.62185,-6899.022388,-31659.27907,-47680.16013,-43406.32777,0.166,0.854,0.432,192,0,0,0,0,0,0,0,0,0,1.71E+09,0, 2024-03-05 15:23:41.536
103,-65297.82746,-27219.01562,-604.0111904,12261.09412,-6891.288685,-31649.64547,-47679.8472,-43421.70577,0.166,0.854,0.432,192,0,0,0,0,0,0,0,0,0,1.71E+09,0, 2024-03-05 15:23:41.536
104,-65288.23856,-27213.07006,-590.8907164,12267.71024,-6877.296493,-31647.43264,-47675.37685,-43461.13425,0.166,0.854,0.432,192,0,0,0,0,0,0,0,0,0,1.71E+09,0, 2024-03-05 15:23:41.536
105,-65298.09568,-27220.51319,-592.5447455,12269.63249,-6877.743528,-31640.88358,-47674.52749,-43426.26553,0.166,0.854,0.432,192,0,0,0,0,0,0,0,0,0,1.71E+09,0, 2024-03-05 15:23:41.536
106,-65310.94793,-27232.33726,-606.8722137,12263.70928,-6895.893144,-31639.36366,-47677.79084,-43388.08875,0.158,0.862,0.43,192,4,240,26,240,13,112,0,0,0,1.71E+09,0, 2024-03-05 15:23:41.536
107,-65315.53004,-27239.35571,-617.1316644,12255.99793,-6909.41595,-31645.33158,-47681.50123,-43404.60669,0.158,0.862,0.43,192,0,0,0,0,0,0,0,0,0,1.71E+09,0, 2024-03-05 15:23:41.536
108,-65313.49603,-27240.85328,-608.2356701,12256.73553,-6901.145804,-31644.92925,-47680.31659,-43439.47541,0.158,0.862,0.43,192,0,0,0,0,0,0,0,0,0,1.71E+09,0, 2024-03-05 15:23:41.536
109,-65312.11022,-27242.75318,-598.1103299,12259.50715,-6884.583161,-31639.38601,-47675.42156,-43439.74363,0.158,0.862,0.43,192,0,0,0,0,0,0,0,0,0,1.71E+09,0, 2024-03-05 15:23:41.536
110,-65317.56405,-27244.3625,-598.8926409,12266.12327,-6878.682301,-31624.79033,-47665.40798,-43375.3259,0.158,0.862,0.43,192,0,0,0,0,0,0,0,0,0,1.71E+09,0, 2024-03-05 15:23:41.536
111,-65332.18209,-27258.19823,-617.7575133,12258.79189,-6896.697807,-31626.91374,-47665.89971,-43367.30163,0.158,0.862,0.43,192,0,0,0,0,0,0,0,0,0,1.71E+09,0, 2024-03-05 15:23:41.536
112,-65334.88665,-27263.45089,-627.1899494,12254.96975,-6908.499528,-31631.62996,-47664.4692,-43402.43857,0.158,0.862,0.43,192,0,0,0,0,0,0,0,0,0,1.71E+09,0, 2024-03-05 15:23:41.536
113,-65332.29385,-27261.19337,-625.1112372,12254.54506,-6905.459691,-31639.43072,-47667.59845,-43447.29852,0.158,0.862,0.43,192,0,0,0,0,0,0,0,0,0,1.71E+09,0, 2024-03-05 15:23:41.536
114,-65325.85655,-27257.8406,-610.8061207,12266.21267,-6888.807641,-31627.04785,-47663.39632,-43374.70005,0.158,0.862,0.43,192,0,0,0,0,0,0,0,0,0,1.71E+09,0, 2024-03-05 15:23:41.536
115,-65325.25305,-27259.42758,-606.4698823,12274.75104,-6883.80085,-31612.38511,-47659.57417,-43304.85085,0.158,0.862,0.43,192,0,0,0,0,0,0,0,0,0,1.71E+09,0, 2024-03-05 15:23:41.536
116,-65342.77682,-27275.63259,-629.7156965,12256.19909,-6907.180775,-31632.09935,-47670.70534,-43358.38328,0.156,0.858,0.428,192,4,224,26,208,13,96,0,0,0,1.71E+09,0, 2024-03-05 15:23:41.536
117,-65348.72238,-27283.94744,-641.1821414,12242.13985,-6919.362476,-31650.0925,-47675.01923,-43404.18201,0.156,0.858,0.428,192,0,0,0,0,0,0,0,0,0,1.71E+09,0, 2024-03-05 15:23:41.536
118,-65336.92066,-27275.58789,-623.5242633,12248.5995,-6901.101101,-31647.63381,-47668.64898,-43398.50466,0.156,0.858,0.428,192,0,0,0,0,0,0,0,0,0,1.71E+09,0, 2024-03-05 15:23:41.536
119,-65325.63303,-27268.86001,-603.9888387,12259.10482,-6879.486964,-31638.33548,-47661.45172,-43357.89154,0.156,0.858,0.428,192,0,0,0,0,0,0,0,0,0,1.71E+09,0, 2024-03-05 15:23:41.536
120,-65318.9275,-27262.98151,-596.433949,12269.40897,-6871.976778,-31626.80198,-47658.0766,-43340.90422,0.156,0.858,0.428,192,0,0,0,0,0,0,0,0,0,1.71E+09,0, 2024-03-05 15:23:41.536
121,-65326.12477,-27268.14476,-610.873176,12264.71511,-6888.517068,-31631.49585,-47666.59262,-43372.64369,0.156,0.858,0.428,192,0,0,0,0,0,0,0,0,0,1.71E+09,0, 2024-03-05 15:23:41.536
122,-65321.67677,-27267.87654,-619.612708,12261.56351,-6901.771653,-31637.97785,-47674.7063,-43408.85352,0.156,0.858,0.428,192,0,0,0,0,0,0,0,0,0,1.71E+09,0, 2024-03-05 15:23:41.536
123,-65303.16953,-27254.13021,-605.8663852,12269.78895,-6891.065167,-31635.94385,-47674.16986,-43436.68144,0.156,0.858,0.428,192,0,0,0,0,0,0,0,0,0,1.71E+09,0, 2024-03-05 15:23:41.536
124,-65298.29684,-27248.25171,-590.5554403,12272.9629,-6874.860153,-31638.87192,-47670.43712,-43453.33349,0.156,0.858,0.428,192,0,0,0,0,0,0,0,0,0,1.71E+09,0, 2024-03-05 15:23:41.536
125,-65303.61656,-27251.9621,-589.706074,12269.7666,-6871.865019,-31641.33062,-47669.69951,-43424.90207,0.156,0.858,0.428,192,0,0,0,0,0,0,0,0,0,1.71E+09,0, 2024-03-05 15:23:41.536
126,-65312.02082,-27256.92418,-598.8479374,12265.2739,-6879.777536,-31641.50943,-47671.28648,-43410.19462,0.152,0.856,0.426,192,4,192,26,192,13,80,0,0,0,1.71E+09,0, 2024-03-05 15:23:41.536
127,-65321.09562,-27259.96402,-610.0685132,12254.65682,-6896.764862,-31653.40056,-47676.29327,-43451.85828,0.152,0.856,0.426,192,0,0,0,0,0,0,0,0,0,1.71E+09,0, 2024-03-05 15:23:41.536
128,-65310.03151,-27248.27406,-597.9985712,12265.3186,-6884.717272,-31640.66006,-47670.72769,-43409.14409,0.152,0.856,0.426,192,0,0,0,0,0,0,0,0,0,1.71E+09,0, 2024-03-05 15:23:41.536
129,-65306.0529,-27244.89894,-587.4038443,12270.48186,-6868.624016,-31635.78738,-47666.14558,-43414.08383,0.152,0.856,0.426,192,0,0,0,0,0,0,0,0,0,1.71E+09,0, 2024-03-05 15:23:41.536
130,-65317.13937,-27251.15743,-592.9694287,12268.40314,-6870.836839,-31633.10517,-47664.58096,-43404.1373,0.152,0.856,0.426,192,0,0,0,0,0,0,0,0,0,1.71E+09,0, 2024-03-05 15:23:41.536
131,-65329.1646,-27260.344,-611.2308039,12260.133,-6890.372263,-31637.19554,-47667.48669,-43408.02651,0.152,0.856,0.426,192,0,0,0,0,0,0,0,0,0,1.71E+09,0, 2024-03-05 15:23:41.536
132,-65334.23845,-27264.792,-625.9382517,12253.62864,-6908.231307,-31643.90107,-47677.76849,-43439.36365,0.152,0.856,0.426,192,0,0,0,0,0,0,0,0,0,1.71E+09,0, 2024-03-05 15:23:41.536
133,-65322.28027,-27252.94557,-610.6720103,12268.96194,-6895.267295,-31627.18196,-47670.54888,-43413.14505,0.152,0.856,0.426,192,0,0,0,0,0,0,0,0,0,1.71E+09,0, 2024-03-05 15:23:41.536
134,-65316.20059,-27250.68805,-596.791577,12274.03578,-6877.095327,-31621.59403,-47665.22916,-43403.33264,0.152,0.856,0.426,192,0,0,0,0,0,0,0,0,0,1.71E+09,0, 2024-03-05 15:23:41.536
135,-65323.44256,-27259.31582,-601.3736846,12270.45951,-6878.436432,-31619.62707,-47665.7209,-43398.28114,0.152,0.856,0.426,192,0,0,0,0,0,0,0,0,0,1.71E+09,0, 2024-03-05 15:23:41.536
136,-65335.04311,-27271.63163,-618.830397,12260.37887,-6893.65797,-31623.42687,-47674.14751,-43401.18687,0.162,0.858,0.422,192,5,16,26,208,13,48,0,0,0,1.71E+09,0, 2024-03-05 15:23:41.536
137,-65340.42988,-27274.98439,-626.6088041,12258.2331,-6905.593801,-31620.90112,-47675.10863,-43370.02854,0.162,0.858,0.422,192,0,0,0,0,0,0,0,0,0,1.71E+09,0, 2024-03-05 15:23:41.536
138,-65335.19957,-27268.32357,-617.4669406,12262.97167,-6897.614228,-31615.55906,-47672.69464,-43363.99357,0.162,0.858,0.422,192,0,0,0,0,0,0,0,0,0,1.71E+09,0, 2024-03-05 15:23:41.536
139,-65328.18113,-27267.20599,-607.3863038,12258.50132,-6884.136127,-31623.38217,-47672.40407,-43408.65235,0.162,0.858,0.422,192,0,0,0,0,0,0,0,0,0,1.71E+09,0, 2024-03-05 15:23:41.536
140,-65335.37839,-27274.17973,-609.6661818,12252.91339,-6885.030196,-31625.97497,-47673.83458,-43392.51439,0.162,0.858,0.422,192,0,0,0,0,0,0,0,0,0,1.71E+09,0, 2024-03-05 15:23:41.536
141,-65345.16845,-27278.13599,-619.9926877,12251.95226,-6898.575353,-31620.20822,-47672.35937,-43339.18313,0.162,0.858,0.422,192,0,0,0,0,0,0,0,0,0,1.71E+09,0, 2024-03-05 15:23:41.536
142,-65346.66602,-27281.80167,-632.040278,12243.07862,-6913.975705,-31631.11587,-47673.74518,-43355.32109,0.162,0.858,0.422,192,0,0,0,0,0,0,0,0,0,1.71E+09,0, 2024-03-05 15:23:41.536
143,-65340.74281,-27280.61703,-633.3813826,12234.36144,-6916.009714,-31649.46665,-47683.11056,-43418.88945,0.162,0.858,0.422,192,0,0,0,0,0,0,0,0,0,1.71E+09,0, 2024-03-05 15:23:41.536
144,-65331.48919,-27273.64329,-622.5184348,12234.76377,-6902.710426,-31657.98267,-47686.21745,-43439.72128,0.162,0.858,0.422,192,0,0,0,0,0,0,0,0,0,1.71E+09,0, 2024-03-05 15:23:41.536
145,-65328.29289,-27266.11075,-611.7001905,12247.12428,-6889.925228,-31644.72808,-47679.78015,-43376.15292,0.162,0.858,0.422,192,0,0,0,0,0,0,0,0,0,1.71E+09,0, 2024-03-05 15:23:41.536
146,-65334.32786,-27270.33523,-620.5961848,12244.30796,-6904.051531,-31649.06432,-47683.62465,-43374.14126,0.156,0.868,0.426,192,4,224,27,32,13,80,0,0,0,1.71E+09,0, 2024-03-05 15:23:41.536
147,-65332.18209,-27270.26817,-626.3629349,12238.65297,-6917.686095,-31661.89422,-47690.28547,-43426.44434,0.156,0.868,0.426,192,0,0,0,0,0,0,0,0,0,1.71E+09,0, 2024-03-05 15:23:41.536
148,-65324.60485,-27265.70842,-618.9421557,12238.45181,-6911.561717,-31672.35484,-47693.05708,-43482.50252,0.156,0.868,0.426,192,0,0,0,0,0,0,0,0,0,1.71E+09,0, 2024-03-05 15:23:41.536
149,-65308.04221,-27251.9621,-593.461167,12255.30502,-6885.030196,-31658.60852,-47680.42835,-43453.93699,0.156,0.868,0.426,192,0,0,0,0,0,0,0,0,0,1.71E+09,0, 2024-03-05 15:23:41.536
150,-65306.20936,-27250.35277,-585.0569111,12261.58586,-6873.809621,-31648.93021,-47673.49931,-43411.02164,0.156,0.868,0.426,192,0,0,0,0,0,0,0,0,0,1.71E+09,0, 2024-03-05 15:23:41.536
151,-65311.1491,-27254.62195,-595.2269548,12257.36138,-6884.538458,-31649.4443,-47674.77336,-43418.08479,0.156,0.868,0.426,192,0,0,0,0,0,0,0,0,0,1.71E+09,0, 2024-03-05 15:23:41.536
152,-65315.12771,-27258.68997,-607.6098213,12251.28171,-6898.843574,-31653.80289,-47673.58871,-43430.26649,0.156,0.868,0.426,192,0,0,0,0,0,0,0,0,0,1.71E+09,0, 2024-03-05 15:23:41.536
153,-65305.69527,-27247.49175,-597.3727223,12263.19519,-6889.43349,-31641.57649,-47668.11254,-43427.49487,0.156,0.868,0.426,192,0,0,0,0,0,0,0,0,0,1.71E+09,0, 2024-03-05 15:23:41.536
154,-65304.89061,-27246.41886,-590.398978,12266.45854,-6878.279969,-31636.99438,-47667.24082,-43417.88362,0.156,0.868,0.426,192,0,0,0,0,0,0,0,0,0,1.71E+09,0, 2024-03-05 15:23:41.536
155,-65319.93333,-27259.33817,-600.0102282,12256.55672,-6884.158478,-31645.37628,-47670.70534,-43426.86903,0.156,0.868,0.426,192,0,0,0,0,0,0,0,0,0,1.71E+09,0, 2024-03-05 15:23:41.536
156,-65335.69131,-27270.17877,-619.6797633,12244.1515,-6902.732778,-31654.45109,-47680.85303,-43458.18382,0.156,0.868,0.426,192,0,0,0,0,0,0,0,0,0,1.71E+09,0, 2024-03-05 15:23:41.536
157,-65340.6981,-27274.24678,-628.9333855,12240.88815,-6915.160348,-31653.10999,-47681.99297,-43440.32478,0.15,0.866,0.426,192,4,176,27,16,13,80,0,0,0,1.71E+09,0, 2024-03-05 15:23:41.536
158,-65331.7127,-27267.58597,-616.0364289,12251.88521,-6905.906726,-31640.16833,-47675.53332,-43381.78556,0.15,0.866,0.426,192,0,0,0,0,0,0,0,0,0,1.71E+09,0, 2024-03-05 15:23:41.536
159,-65323.91194,-27264.59083,-603.2512311,12255.43913,-6891.623961,-31639.83305,-47672.22526,-43388.78165,0.15,0.866,0.426,192,0,0,0,0,0,0,0,0,0,1.71E+09,0, 2024-03-05 15:23:41.536
160,-65335.19957,-27278.9183,-613.0189434,12242.05044,-6898.955333,-31654.16052,-47681.0542,-43444.72807,0.15,0.866,0.426,192,0,0,0,0,0,0,0,0,0,1.71E+09,0, 2024-03-05 15:23:41.536
161,-65349.0353,-27292.3964,-632.7555338,12229.71228,-6918.960144,-31662.05068,-47688.72084,-43449.13136,0.15,0.866,0.426,192,0,0,0,0,0,0,0,0,0,1.71E+09,0, 2024-03-05 15:23:41.536
162,-65351.5387,-27294.13984,-639.1704844,12232.08156,-6930.5607,-31652.01475,-47689.03377,-43379.7292,0.15,0.866,0.426,192,0,0,0,0,0,0,0,0,0,1.71E+09,0, 2024-03-05 15:23:42.016
163,-65347.31422,-27291.88231,-634.7671908,12233.33326,-6929.443113,-31653.46761,-47687.71502,-43406.19366,0.15,0.866,0.426,192,0,0,0,0,0,0,0,0,0,1.71E+09,0, 2024-03-05 15:23:42.016
164,-65342.77682,-27287.70254,-626.1170657,12234.87553,-6915.450921,-31655.16635,-47682.44,-43420.85641,0.15,0.866,0.426,192,0,0,0,0,0,0,0,0,0,1.71E+09,0, 2024-03-05 15:23:42.016
165,-65349.32588,-27290.07182,-628.888682,12236.64132,-6910.622944,-31647.96908,-47680.4507,-43368.10629,0.15,0.866,0.426,192,0,0,0,0,0,0,0,0,0,1.71E+09,0, 2024-03-05 15:23:42.016
166,-65360.23353,-27297.89493,-644.3337374,12230.04755,-6926.626793,-31649.04197,-47685.09986,-43349.93432,0.15,0.866,0.426,192,0,0,0,0,0,0,0,0,0,1.71E+09,0, 2024-03-05 15:23:42.016
167,-65356.0314,-27290.60826,-645.3842694,12235.65784,-6935.0534,-31640.36949,-47681.85886,-43334.35516,0.142,0.86,0.432,192,4,112,26,224,13,128,0,0,0,1.71E+09,0, 2024-03-05 15:23:42.016
168,-65347.42598,-27284.41683,-636.4659234,12237.31187,-6930.515996,-31644.72808,-47684.47401,-43385.63006,0.142,0.86,0.432,192,0,0,0,0,0,0,0,0,0,1.71E+09,0, 2024-03-05 15:23:42.016
169,-65340.45223,-27282.74045,-625.2900511,12235.00964,-6918.535461,-31654.69696,-47687.87148,-43435.96619,0.142,0.86,0.432,192,0,0,0,0,0,0,0,0,0,1.71E+09,0, 2024-03-05 15:23:42.016
170,-65342.73211,-27286.54024,-617.5563476,12235.25551,-6904.766787,-31656.55215,-47685.85982,-43422.13046,0.142,0.86,0.432,192,0,0,0,0,0,0,0,0,0,1.71E+09,0, 2024-03-05 15:23:42.016
171,-65350.01878,-27291.23411,-625.2006442,12235.23316,-6912.634601,-31655.14399,-47683.40113,-43410.82047,0.142,0.86,0.432,192,0,0,0,0,0,0,0,0,0,1.71E+09,0, 2024-03-05 15:23:42.016
172,-65354.10915,-27295.77151,-635.4824466,12228.1253,-6929.510168,-31665.98459,-47689.07847,-43436.41322,0.142,0.86,0.432,192,0,0,0,0,0,0,0,0,0,1.71E+09,0, 2024-03-05 15:23:42.016
173,-65336.116,-27277.48779,-615.9246702,12244.35267,-6915.383865,-31653.2888,-47682.3953,-43419.06827,0.142,0.86,0.432,192,0,0,0,0,0,0,0,0,0,1.71E+09,0, 2024-03-05 15:23:42.016
174,-65324.53779,-27267.04952,-599.2726206,12254.09803,-6896.675455,-31647.67851,-47678.95313,-43402.72914,0.142,0.86,0.432,192,0,0,0,0,0,0,0,0,0,1.71E+09,0, 2024-03-05 15:23:42.016
175,-65321.45325,-27265.37314,-595.2493066,12255.55089,-6891.35574,-31646.76209,-47676.80737,-43399.46579,0.142,0.86,0.432,192,0,0,0,0,0,0,0,0,0,1.71E+09,0, 2024-03-05 15:23:42.016
176,-65330.39395,-27272.61511,-609.4650161,12246.0514,-6908.678342,-31658.36265,-47682.50706,-43445.7339,0.142,0.86,0.432,192,0,0,0,0,0,0,0,0,0,1.71E+09,0, 2024-03-05 15:23:42.016
177,-65332.00328,-27271.85515,-620.9091092,12244.48678,-6924.346915,-31662.25185,-47689.21258,-43474.85822,0.154,0.86,0.428,192,4,208,26,224,13,96,0,0,0,1.71E+09,0, 2024-03-05 15:23:42.016
178,-65324.6272,-27266.37897,-614.3600481,12250.18647,-6919.630697,-31660.55312,-47691.06778,-43488.76101,0.154,0.86,0.428,192,0,0,0,0,0,0,0,0,0,1.71E+09,0, 2024-03-05 15:23:42.016
179,-65317.5864,-27261.37218,-594.7128647,12259.17187,-6897.681284,-31655.41222,-47684.51872,-43492.38199,0.154,0.86,0.428,192,0,0,0,0,0,0,0,0,0,1.71E+09,0, 2024-03-05 15:23:42.016
180,-65318.65928,-27264.36731,-588.9014112,12262.6811,-6888.53942,-31648.99726,-47680.13777,-43468.39857,0.154,0.86,0.428,192,0,0,0,0,0,0,0,0,0,1.71E+09,0, 2024-03-05 15:23:42.016
181,-65325.9236,-27271.36341,-599.7867107,12261.56351,-6899.290609,-31645.21982,-47680.22718,-43435.04976,0.154,0.86,0.428,192,0,0,0,0,0,0,0,0,0,1.71E+09,0, 2024-03-05 15:23:42.016
182,-65330.59512,-27274.93969,-609.3979608,12261.11648,-6912.701656,-31642.93994,-47683.11056,-43398.10233,0.154,0.86,0.428,192,0,0,0,0,0,0,0,0,0,1.71E+09,0, 2024-03-05 15:23:42.016
183,-65329.90221,-27275.43143,-605.8216817,12259.77537,-6912.433435,-31644.68338,-47685.36808,-43389.58632,0.154,0.86,0.428,192,0,0,0,0,0,0,0,0,0,1.71E+09,0, 2024-03-05 15:23:42.016
184,-65324.06841,-27272.07867,-597.8421089,12257.76371,-6903.246868,-31650.62894,-47687.91618,-43439.72128,0.154,0.86,0.428,192,0,0,0,0,0,0,0,0,0,1.71E+09,0, 2024-03-05 15:23:42.016
185,-65334.73019,-27277.44308,-604.0111904,12253.06985,-6906.443168,-31651.92534,-47691.22424,-43427.13725,0.154,0.86,0.428,192,0,0,0,0,0,0,0,0,0,1.71E+09,0, 2024-03-05 15:23:42.016
186,-65353.21508,-27289.89301,-622.9207662,12240.68698,-6925.397447,-31660.64252,-47695.80635,-43431.71935,0.154,0.86,0.428,192,0,0,0,0,0,0,0,0,0,1.71E+09,0, 2024-03-05 15:23:42.016
187,-65358.11011,-27290.67532,-631.0568012,12236.30604,-6937.35563,-31666.81161,-47692.09596,-43451.67946,0.154,0.864,0.426,192,4,208,27,0,13,80,0,0,0,1.71E+09,0, 2024-03-05 15:23:42.016
188,-65353.10332,-27284.34977,-624.1948157,12240.06113,-6934.762828,-31666.58809,-47690.35252,-43459.43552,0.154,0.864,0.426,192,0,0,0,0,0,0,0,0,0,1.71E+09,0, 2024-03-05 15:23:42.016
189,-65344.65436,-27277.42073,-611.1637486,12244.88911,-6917.551984,-31665.62696,-47691.35835,-43487.35285,0.154,0.864,0.426,192,0,0,0,0,0,0,0,0,0,1.71E+09,0, 2024-03-05 15:23:42.016
190,-65353.10332,-27286.27202,-613.6894958,12238.02712,-6915.607383,-31671.01373,-47692.81121,-43466.23045,0.154,0.864,0.426,192,0,0,0,0,0,0,0,0,0,1.71E+09,0, 2024-03-05 15:23:42.016
191,-65365.21797,-27296.17385,-627.7263913,12230.09225,-6929.174892,-31671.55018,-47693.9735,-43406.46188,0.154,0.864,0.426,192,0,0,0,0,0,0,0,0,0,1.71E+09,0, 2024-03-05 15:23:42.016
192,-65363.96627,-27294.78804,-636.1082955,12229.10878,-6942.697697,-31671.41606,-47696.4322,-43402.1927,0.154,0.864,0.426,192,0,0,0,0,0,0,0,0,0,1.71E+09,0, 2024-03-05 15:23:42.016
193,-65357.35015,-27291.7482,-632.6884786,12228.95232,-6941.222482,-31676.48991,-47698.60032,-43439.58717,0.154,0.864,0.426,192,0,0,0,0,0,0,0,0,0,1.71E+09,0, 2024-03-05 15:23:42.016
194,-65353.90798,-27290.16123,-626.3852866,12224.30315,-6932.058267,-31688.98454,-47700.25434,-43498.08168,0.154,0.864,0.426,192,0,0,0,0,0,0,0,0,0,1.71E+09,0, 2024-03-05 15:23:42.016
195,-65356.18786,-27292.12818,-625.9382517,12222.40325,-6927.274993,-31693.38783,-47699.49439,-43487.59872,0.154,0.864,0.426,192,0,0,0,0,0,0,0,0,0,1.71E+09,0, 2024-03-05 15:23:42.016
196,-65364.86034,-27296.77734,-637.1811792,12220.63747,-6937.780313,-31692.11378,-47699.65085,-43449.84662,0.154,0.864,0.426,192,0,0,0,0,0,0,0,0,0,1.71E+09,0, 2024-03-05 15:23:42.016
197,-65372.88462,-27298.45372,-643.2161502,12220.97274,-6947.458619,-31689.81155,-47696.76747,-43417.07896,0.156,0.87,0.426,192,4,224,27,48,13,80,0,0,0,1.71E+09,0, 2024-03-05 15:23:42.016
198,-65361.23936,-27283.70157,-627.3687634,12234.85318,-6935.500435,-31680.04384,-47689.03377,-43416.78839,0.156,0.87,0.426,192,0,0,0,0,0,0,0,0,0,1.71E+09,0, 2024-03-05 15:23:42.016
199,-65351.04696,-27275.74435,-610.2920306,12242.49747,-6917.395522,-31678.21099,-47684.31755,-43432.38991,0.156,0.87,0.426,192,0,0,0,0,0,0,0,0,0,1.71E+09,0, 2024-03-05 15:23:42.016
200,-65355.18203,-27280.8629,-606.6933998,12240.23995,-6912.098159,-31682.90486,-47688.43027,-43453.15468,0.156,0.87,0.426,192,0,0,0,0,0,0,0,0,0,1.71E+09,0, 2024-03-05 15:23:42.016
201,-65363.18396,-27290.16123,-619.0986179,12233.57913,-6925.218633,-31688.42574,-47696.63336,-43459.99431,0.156,0.87,0.426,192,0,0,0,0,0,0,0,0,0,1.71E+09,0, 2024-03-05 15:23:42.016
202,-65361.21701,-27290.11652,-627.3464116,12233.19915,-6939.255528,-31688.4928,-47700.85784,-43467.23628,0.156,0.87,0.426,192,0,0,0,0,0,0,0,0,0,1.71E+09,0, 2024-03-05 15:23:42.016
203,-65352.7904,-27285.78029,-621.0208679,12237.6695,-6935.925118,-31688.4928,-47699.47203,-43487.71047,0.156,0.87,0.426,192,0,0,0,0,0,0,0,0,0,1.71E+09,0, 2024-03-05 15:23:42.016
204,-65341.54747,-27274.62676,-603.4300451,12251.86285,-6915.383865,-31677.18281,-47692.61005,-43473.53947,0.156,0.87,0.426,192,0,0,0,0,0,0,0,0,0,1.71E+09,0, 2024-03-05 15:23:42.016
205,-65338.55234,-27267.87654,-595.8304519,12262.34582,-6904.364455,-31664.19645,-47688.85496,-43445.0857,0.156,0.87,0.426,192,0,0,0,0,0,0,0,0,0,1.71E+09,0, 2024-03-05 15:23:42.016
206,-65349.81762,-27273.01744,-611.9684114,12259.06012,-6920.18949,-31663.28003,-47694.88993,-43442.15762,0.156,0.87,0.426,192,0,0,0,0,0,0,0,0,0,1.71E+09,0, 2024-03-05 15:23:42.016
207,-65360.32294,-27277.26427,-626.2958796,12252.19813,-6939.814322,-31669.06913,-47700.56727,-43449.98073,0.15,0.866,0.43,192,4,176,27,16,13,112,0,0,0,1.71E+09,0, 2024-03-05 15:23:42.016
208,-65358.75831,-27273.1292,-624.3065744,12249.76179,-6939.948432,-31675.08175,-47699.40498,-43471.3937,0.15,0.866,0.43,192,0,0,0,0,0,0,0,0,0,1.71E+09,0, 2024-03-05 15:23:42.016
209,-65357.84189,-27273.95621,-613.3542196,12248.13011,-6925.330392,-31679.99913,-47692.87827,-43495.13125,0.15,0.866,0.43,192,0,0,0,0,0,0,0,0,0,1.71E+09,0, 2024-03-05 15:23:42.016
210,-65359.42887,-27279.16417,-610.8955277,12247.88424,-6918.311944,-31677.20517,-47689.81608,-43479.0827,0.15,0.866,0.43,192,0,0,0,0,0,0,0,0,0,1.71E+09,0, 2024-03-05 15:23:42.016
211,-65370.40357,-27289.2001,-626.2735279,12242.8551,-6932.304136,-31670.92433,-47693.90645,-43440.10126,0.15,0.866,0.43,192,0,0,0,0,0,0,0,0,0,1.71E+09,0, 2024-03-05 15:23:42.016
212,-65380.43951,-27297.20203,-640.7351066,12236.21663,-6949.202055,-31672.69011,-47697.75095,-43422.97982,0.15,0.866,0.43,192,0,0,0,0,0,0,0,0,0,1.71E+09,0, 2024-03-05 15:23:42.016
213,-65369.62126,-27289.17775,-631.2132634,12248.51009,-6942.675345,-31656.99919,-47692.23007,-43404.31612,0.15,0.866,0.43,192,0,0,0,0,0,0,0,0,0,1.71E+09,0, 2024-03-05 15:23:42.016
214,-65360.34529,-27280.43822,-615.1200074,12262.50228,-6923.810473,-31643.76696,-47686.32921,-43397.56589,0.15,0.866,0.43,192,0,0,0,0,0,0,0,0,0,1.71E+09,0, 2024-03-05 15:23:42.016
215,-65367.49785,-27285.37795,-616.5058156,12261.58586,-6921.642354,-31643.78931,-47687.5362,-43410.95458,0.15,0.866,0.43,192,0,0,0,0,0,0,0,0,0,1.71E+09,0, 2024-03-05 15:23:42.016
216,-65386.0945,-27301.65002,-636.2424059,12247.01253,-6940.931909,-31653.75819,-47694.10762,-43404.00319,0.15,0.866,0.43,192,0,0,0,0,0,0,0,0,0,1.71E+09,0, 2024-03-05 15:23:42.016
217,-65390.83307,-27306.05332,-645.1384002,12242.22925,-6954.231197,-31654.09346,-47694.46524,-43373.62717,0.154,0.862,0.426,192,4,208,26,240,13,80,0,0,0,1.71E+09,0, 2024-03-05 15:23:42.016
218,-65383.47934,-27298.94546,-638.2987664,12242.18455,-6950.699622,-31660.62017,-47691.31365,-43413.65915,0.154,0.862,0.426,192,0,0,0,0,0,0,0,0,0,1.71E+09,0, 2024-03-05 15:23:42.016
219,-65374.71746,-27290.69767,-625.737086,12242.00573,-6937.109761,-31669.53852,-47691.55952,-43448.52787,0.154,0.862,0.426,192,0,0,0,0,0,0,0,0,0,1.71E+09,0, 2024-03-05 15:23:42.016
220,-65378.58431,-27290.96589,-623.0995802,12238.92119,-6931.499473,-31673.91946,-47691.67128,-43435.72032,0.154,0.862,0.426,192,0,0,0,0,0,0,0,0,0,1.71E+09,0, 2024-03-05 15:23:42.016
221,-65389.51431,-27296.41972,-633.7166588,12234.09322,-6940.574281,-31672.22073,-47691.71598,-43377.35991,0.154,0.862,0.426,192,0,0,0,0,0,0,0,0,0,1.71E+09,0, 2024-03-05 15:23:42.016
222,-65390.49779,-27296.03974,-644.6466618,12227.03007,-6954.208845,-31681.18378,-47697.0804,-43399.55519,0.154,0.862,0.426,192,0,0,0,0,0,0,0,0,0,1.71E+09,0, 2024-03-05 15:23:42.016
223,-65379.81366,-27289.17775,-637.2705862,12226.20305,-6952.241892,-31691.17501,-47699.31557,-43440.43653,0.154,0.862,0.426,192,0,0,0,0,0,0,0,0,0,1.71E+09,0, 2024-03-05 15:23:42.016
224,-65367.05081,-27278.98535,-619.0539144,12234.09322,-6933.779351,-31688.67161,-47697.39332,-43452.88646,0.154,0.862,0.426,192,0,0,0,0,0,0,0,0,0,1.71E+09,0, 2024-03-05 15:23:42.016
225,-65369.73302,-27282.67339,-615.5670423,12231.70158,-6927.520863,-31695.64536,-47699.85201,-43476.62401,0.154,0.862,0.426,192,0,0,0,0,0,0,0,0,0,1.71E+09,0, 2024-03-05 15:23:42.016
226,-65390.05076,-27301.96295,-635.9294815,12214.37898,-6946.273976,-31712.9009,-47710.04441,-43503.60256,0.154,0.862,0.426,192,0,0,0,0,0,0,0,0,0,1.71E+09,0, 2024-03-05 15:23:42.016
227,-65400.2208,-27310.30015,-648.7370311,12207.78521,-6964.691814,-31719.40526,-47717.66635,-43522.10981,0.148,0.866,0.426,192,4,160,27,16,13,80,0,0,0,1.71E+09,0, 2024-03-05 15:23:42.016
228,-65394.78933,-27302.70056,-637.7623245,12218.13407,-6957.695718,-31712.00683,-47713.66539,-43504.63075,0.148,0.866,0.426,192,0,0,0,0,0,0,0,0,0,1.71E+09,0, 2024-03-05 15:23:42.016
229,-65385.82628,-27290.58591,-617.8469202,12233.04269,-6935.0534,-31701.54622,-47705.59641,-43505.23424,0.148,0.866,0.426,192,0,0,0,0,0,0,0,0,0,1.71E+09,0, 2024-03-05 15:23:42.016
230,-65388.37437,-27290.18358,-615.9246702,12236.19428,-6926.135054,-31698.70754,-47702.06484,-43514.15259,0.148,0.866,0.426,192,0,0,0,0,0,0,0,0,0,1.71E+09,0, 2024-03-05 15:23:42.016
231,-65399.5726,-27295.77151,-626.877025,12239.43528,-6934.181682,-31685.43061,-47701.93073,-43435.27328,0.148,0.866,0.426,192,0,0,0,0,0,0,0,0,0,1.71E+09,0, 2024-03-05 15:23:42.016
232,-65406.32283,-27294.05043,-639.0587257,12242.1622,-6947.838598,-31678.14394,-47702.10954,-43419.96234,0.148,0.866,0.426,192,0,0,0,0,0,0,0,0,0,1.71E+09,0, 2024-03-05 15:23:42.016
233,-65399.50554,-27282.74045,-631.5708913,12251.7958,-6944.083505,-31669.98555,-47699.42733,-43422.7116,0.148,0.866,0.426,192,0,0,0,0,0,0,0,0,0,1.71E+09,0, 2024-03-05 15:23:42.016
234,-65390.11781,-27271.89985,-612.5942603,12262.85991,-6924.212804,-31660.44136,-47690.93367,-43421.10228,0.148,0.866,0.426,192,0,0,0,0,0,0,0,0,0,1.71E+09,0, 2024-03-05 15:23:42.016
235,-65391.48127,-27273.44212,-611.1190452,12259.95419,-6919.54129,-31660.26254,-47691.89479,-43432.09933,0.148,0.866,0.426,192,0,0,0,0,0,0,0,0,0,1.71E+09,0, 2024-03-05 15:23:42.016
236,-65405.60757,-27284.59564,-627.6146326,12252.19813,-6933.488778,-31657.31211,-47693.21355,-43414.26264,0.148,0.866,0.426,192,0,0,0,0,0,0,0,0,0,1.71E+09,0, 2024-03-05 15:23:42.016
237,-65417.87868,-27288.61896,-642.0315077,12252.42165,-6950.29729,-31646.40446,-47696.25338,-43394.39194,0.15,0.862,0.432,192,4,176,26,240,13,128,0,0,0,1.71E+09,0, 2024-03-05 15:23:42.016
238,-65420.80676,-27287.09904,-645.6748421,12252.35459,-6957.628662,-31644.54927,-47701.68486,-43414.66497,0.15,0.862,0.432,192,0,0,0,0,0,0,0,0,0,1.71E+09,0, 2024-03-05 15:23:42.016
239,-65406.23342,-27274.69382,-633.09081,12260.69179,-6943.614119,-31639.43072,-47700.94725,-43418.80005,0.15,0.862,0.432,192,0,0,0,0,0,0,0,0,0,1.71E+09,0, 2024-03-05 15:23:42.016
240,-65402.63479,-27268.41298,-627.2123012,12267.71024,-6933.041743,-31632.1664,-47698.04152,-43380.3774,0.15,0.862,0.432,192,0,0,0,0,0,0,0,0,0,1.71E+09,0, 2024-03-05 15:23:42.016
241,-65417.23048,-27278.44891,-642.5008944,12259.21658,-6947.279805,-31640.4589,-47702.80244,-43362.98774,0.15,0.862,0.432,192,0,0,0,0,0,0,0,0,0,1.71E+09,0, 2024-03-05 15:23:42.016
242,-65423.06428,-27285.04268,-659.0188335,12246.87841,-6966.301139,-31657.98267,-47711.162,-43406.77481,0.15,0.862,0.432,192,0,0,0,0,0,0,0,0,0,1.71E+09,0, 2024-03-05 15:23:42.016
243,-65412.08958,-27276.4149,-653.4756009,12248.42069,-6964.065965,-31665.87283,-47712.39134,-43459.63668,0.15,0.862,0.432,192,0,0,0,0,0,0,0,0,0,1.71E+09,0, 2024-03-05 15:23:42.016
244,-65409.63088,-27275.0291,-641.0927345,12248.17482,-6949.40322,-31675.46173,-47711.51962,-43472.77951,0.15,0.862,0.432,192,0,0,0,0,0,0,0,0,0,1.71E+09,0, 2024-03-05 15:23:42.016
245,-65412.78248,-27278.8736,-637.3599931,12243.54801,-6941.289537,-31684.96122,-47713.84421,-43481.09436,0.15,0.862,0.432,192,0,0,0,0,0,0,0,0,0,1.71E+09,0, 2024-03-05 15:23:42.016
246,-65417.5434,-27283.79098,-642.9032258,12238.98825,-6948.486799,-31687.41991,-47716.3476,-43442.00116,0.15,0.862,0.432,192,0,0,0,0,0,0,0,0,0,1.71E+09,0, 2024-03-05 15:23:42.016
247,-65417.16342,-27283.47806,-650.3016532,12235.859,-6962.59075,-31694.37131,-47719.4992,-43450.80774,0.152,0.86,0.432,192,4,192,26,224,13,128,0,0,0,1.71E+09,0, 2024-03-05 15:23:42.016
248,-65418.32571,-27283.07572,-649.1170107,12231.94745,-6966.703471,-31705.8601,-47720.8403,-43497.54524,0.152,0.86,0.432,192,0,0,0,0,0,0,0,0,0,1.71E+09,0, 2024-03-05 15:23:42.016
249,-65409.92146,-27275.47613,-627.5475773,12241.33518,-6939.456694,-31700.89802,-47710.67026,-43488.6716,0.152,0.86,0.432,192,0,0,0,0,0,0,0,0,0,1.71E+09,0, 2024-03-05 15:23:42.016
250,-65407.88745,-27276.19139,-618.5174726,12244.03974,-6928.839615,-31698.39462,-47706.714,-43473.62888,0.152,0.86,0.432,192,0,0,0,0,0,0,0,0,0,1.71E+09,0, 2024-03-05 15:23:42.016
251,-65415.75526,-27281.62286,-626.4076384,12243.92798,-6936.126284,-31692.13613,-47704.14355,-43448.23729,0.152,0.86,0.432,192,0,0,0,0,0,0,0,0,0,1.71E+09,0, 2024-03-05 15:23:42.016
252,-65425.94766,-27283.56746,-634.9460047,12246.87841,-6946.005755,-31683.3519,-47703.78592,-43405.59017,0.152,0.86,0.432,192,0,0,0,0,0,0,0,0,0,1.71E+09,0, 2024-03-05 15:23:42.016
253,-65422.86312,-27277.08546,-634.1636937,12249.53827,-6948.509151,-31681.85433,-47708.14451,-43429.41712,0.152,0.86,0.432,192,0,0,0,0,0,0,0,0,0,1.71E+09,0, 2024-03-05 15:23:42.016
254,-65414.39181,-27270.08936,-616.6175743,12253.0922,-6931.45477,-31683.48601,-47701.79662,-43472.89127,0.152,0.86,0.432,192,0,0,0,0,0,0,0,0,0,1.71E+09,0, 2024-03-05 15:23:42.016
255,-65418.50453,-27275.52083,-612.5942603,12251.68404,-6923.944583,-31684.06715,-47700.38846,-43471.21489,0.152,0.86,0.432,192,0,0,0,0,0,0,0,0,0,1.71E+09,0, 2024-03-05 15:23:42.016
0,-65430.3286,-27284.23801,-623.636022,12250.74527,-6933.712296,-31674.29944,-47702.13189,-43417.34718,0.152,0.86,0.432,192,0,0,0,0,0,0,0,0,0,1.71E+09,0, 2024-03-05 15:23:42.016
1,-65432.34026,-27283.12043,-629.1792547,12257.16022,-6943.949395,-31659.39083,-47699.31557,-43385.09362,0.146,0.862,0.422,192,4,144,26,240,13,48,0,0,0,1.71E+09,0, 2024-03-05 15:23:42.016
2,-65425.34416,-27278.60538,-630.0509727,12257.65196,-6950.520808,-31662.45302,-47703.29418,-43431.51819,0.146,0.862,0.422,192,0,0,0,0,0,0,0,0,0,1.71E+09,0, 2024-03-05 15:23:42.016
3,-65414.10123,-27270.80462,-617.4445888,12268.71607,-6937.780313,-31654.09346,-47701.79662,-43442.31408,0.146,0.862,0.422,192,0,0,0,0,0,0,0,0,0,1.71E+09,0, 2024-03-05 15:23:42.016
4,-65411.57549,-27266.55778,-609.9791062,12280.85307,-6927.654973,-31638.42489,-47695.40402,-43425.17029,0.146,0.862,0.422,192,0,0,0,0,0,0,0,0,0,1.71E+09,0, 2024-03-05 15:23:42.016
5,-65434.32956,-27285.73558,-634.1860454,12267.2185,-6952.197188,-31648.63964,-47708.27862,-43469.80673,0.146,0.862,0.422,192,0,0,0,0,0,0,0,0,0,1.71E+09,0, 2024-03-05 15:23:42.016
6,-65450.57928,-27298.31961,-657.7000806,12253.65099,-6979.51102,-31656.64156,-47722.11435,-43476.64636,0.146,0.862,0.422,192,0,0,0,0,0,0,0,0,0,1.71E+09,0, 2024-03-05 15:23:42.016
7,-65445.84071,-27294.65393,-654.6602434,12258.16605,-6978.773413,-31649.53371,-47719.56625,-43427.02549,0.146,0.862,0.422,192,0,0,0,0,0,0,0,0,0,1.71E+09,0, 2024-03-05 15:23:42.016
8,-65432.02733,-27286.6073,-633.9401762,12271.10771,-6957.98629,-31639.22955,-47710.73731,-43400.18104,0.146,0.862,0.422,192,0,0,0,0,0,0,0,0,0,1.71E+09,0, 2024-03-05 15:23:42.016
9,-65427.69109,-27289.37892,-624.5524436,12270.83949,-6946.162217,-31641.77765,-47707.16103,-43390.48039,0.146,0.862,0.422,192,0,0,0,0,0,0,0,0,0,1.71E+09,0, 2024-03-05 15:23:42.016
10,-65439.78339,-27304.5781,-638.4552286,12255.77441,-6959.148581,-31658.31794,-47711.13964,-43400.80689,0.146,0.862,0.422,192,0,0,0,0,0,0,0,0,0,1.71E+09,0, 2024-03-05 15:23:42.016
11,-65444.83488,-27312.33416,-654.2132085,12244.37502,-6977.58877,-31673.07009,-47712.43605,-43439.40835,0.15,0.864,0.424,192,4,176,27,0,13,64,0,0,0,1.71E+09,0, 2024-03-05 15:23:42.016
12,-65439.89515,-27311.19422,-654.168505,12243.01156,-6981.165049,-31681.22848,-47712.95014,-43441.39766,0.15,0.864,0.424,192,0,0,0,0,0,0,0,0,0,1.71E+09,0, 2024-03-05 15:23:42.016
13,-65432.25085,-27307.66264,-640.3104234,12244.7997,-6966.167029,-31692.78433,-47711.60903,-43477.67454,0.15,0.864,0.424,192,0,0,0,0,0,0,0,0,0,1.71E+09,0, 2024-03-05 15:23:42.016
14,-65425.94766,-27305.85215,-630.810932,12245.87259,-6949.64909,-31701.21094,-47709.70913,-43524.25558,0.15,0.864,0.424,192,0,0,0,0,0,0,0,0,0,1.71E+09,0, 2024-03-05 15:23:42.016
15,-65435.08952,-27313.63056,-642.4561909,12240.17289,-6958.813305,-31707.17886,-47712.52545,-43531.6093,0.15,0.864,0.424,192,0,0,0,0,0,0,0,0,0,1.71E+09,0, 2024-03-05 15:23:42.016
16,-65441.99621,-27318.72676,-652.1121445,12237.7589,-6969.810363,-31707.1565,-47713.95596,-43488.58219,0.15,0.864,0.424,192,0,0,0,0,0,0,0,0,0,1.71E+09,0, 2024-03-05 15:23:42.016
17,-65433.59195,-27311.79772,-645.0266415,12244.12915,-6965.496476,-31701.30035,-47710.89378,-43476.80282,0.15,0.864,0.424,192,0,0,0,0,0,0,0,0,0,1.71E+09,0, 2024-03-05 15:23:42.016
18,-65425.94766,-27308.93669,-628.7769233,12248.86772,-6946.698659,-31701.65797,-47705.84228,-43500.56273,0.15,0.864,0.424,192,0,0,0,0,0,0,0,0,0,1.71E+09,0, 2024-03-05 15:23:42.016
19,-65428.18283,-27314.92696,-618.0480859,12249.38181,-6930.404238,-31699.69102,-47699.53909,-43484.08949,0.15,0.864,0.424,192,0,0,0,0,0,0,0,0,0,1.71E+09,0, 2024-03-05 15:23:42.016
20,-65436.29652,-27321.87835,-620.4620743,12249.00183,-6930.784217,-31692.18084,-47692.90062,-43456.0604,0.15,0.864,0.424,192,0,0,0,0,0,0,0,0,0,1.71E+09,0, 2024-03-05 15:23:42.016
21,-65444.72312,-27328.74034,-634.4766181,12238.92119,-6948.307985,-31699.84748,-47697.54978,-43485.98939,0.15,0.858,0.424,192,4,176,26,208,13,64,0,0,0,1.71E+09,0, 2024-03-05 15:23:42.016
22,-65440.5657,-27325.81226,-637.4717519,12238.29535,-6954.722936,-31698.43932,-47701.84132,-43495.69005,0.15,0.858,0.424,192,0,0,0,0,0,0,0,0,0,1.71E+09,0, 2024-03-05 15:23:42.016
23,-65423.53367,-27311.06011,-622.2278621,12250.40999,-6937.22152,-31685.3859,-47694.73346,-43500.2051,0.15,0.858,0.424,192,0,0,0,0,0,0,0,0,0,1.71E+09,0, 2024-03-05 15:23:42.017
24,-65427.37817,-27312.60238,-619.2327284,12253.76275,-6928.481988,-31678.81449,-47695.02404,-43481.34023,0.15,0.858,0.424,192,0,0,0,0,0,0,0,0,0,1.71E+09,0, 2024-03-05 15:23:42.017
25,-65443.42672,-27323.86766,-634.0072315,12251.05819,-6939.479046,-31672.37719,-47699.89672,-43422.39868,0.15,0.858,0.424,192,0,0,0,0,0,0,0,0,0,1.71E+09,0, 2024-03-05 15:23:42.017
26,-65451.5404,-27327.42159,-651.5757026,12248.44304,-6958.075697,-31668.75621,-47704.36707,-43410.32874,0.15,0.858,0.424,192,0,0,0,0,0,0,0,0,0,1.71E+09,0, 2024-03-05 15:23:42.497
27,-65444.76783,-27319.3079,-652.4921241,12252.17578,-6962.21077,-31666.05165,-47707.49631,-43439.83304,0.15,0.858,0.424,192,0,0,0,0,0,0,0,0,0,1.71E+09,0, 2024-03-05 15:23:42.497
28,-65437.92819,-27312.20005,-640.7351066,12257.74136,-6950.856084,-31661.64835,-47708.54684,-43467.5045,0.15,0.858,0.424,192,0,0,0,0,0,0,0,0,0,1.71E+09,0, 2024-03-05 15:23:42.497
29,-65437.81643,-27312.35651,-631.3026704,12261.02707,-6941.490703,-31654.85342,-47709.03858,-43468.66679,0.15,0.858,0.424,192,0,0,0,0,0,0,0,0,0,1.71E+09,0, 2024-03-05 15:23:42.497
30,-65449.34993,-27324.64997,-642.8585223,12252.57811,-6948.866778,-31658.07207,-47715.18531,-43474.00886,0.15,0.858,0.424,192,0,0,0,0,0,0,0,0,0,1.71E+09,0, 2024-03-05 15:23:42.497
31,-65458.87178,-27333.50126,-662.4162987,12247.10193,-6970.637378,-31657.53563,-47724.99773,-43456.97683,0.15,0.858,0.424,192,0,0,0,0,0,0,0,0,0,1.71E+09,0, 2024-03-05 15:23:42.497
32,-65449.17112,-27321.63248,-652.7156416,12263.35165,-6966.703471,-31639.9001,-47718.38161,-43418.46477,0.16,0.86,0.428,192,5,0,26,224,13,96,0,0,0,1.71E+09,0, 2024-03-05 15:23:42.497
33,-65434.79895,-27312.1777,-635.0801152,12271.35358,-6950.431401,-31637.32965,-47716.45936,-43427.74074,0.16,0.86,0.428,192,0,0,0,0,0,0,0,0,0,1.71E+09,0, 2024-03-05 15:23:42.497
34,-65429.94862,-27310.52367,-628.9110337,12271.59944,-6942.004793,-31640.77182,-47716.41466,-43422.48808,0.16,0.86,0.428,192,0,0,0,0,0,0,0,0,0,1.71E+09,0, 2024-03-05 15:23:42.497
35,-65439.04578,-27316.96097,-637.2482344,12265.47507,-6950.16318,-31648.95256,-47717.73341,-43407.35595,0.16,0.86,0.428,192,0,0,0,0,0,0,0,0,0,1.71E+09,0, 2024-03-05 15:23:42.498
36,-65443.762,-27321.2525,-649.7205078,12258.32251,-6968.737479,-31658.60852,-47722.62844,-43408.56295,0.16,0.86,0.428,192,0,0,0,0,0,0,0,0,0,1.71E+09,0, 2024-03-05 15:23:42.498
37,-65439.29165,-27318.99498,-650.7933916,12252.64517,-6974.683043,-31673.8077,-47726.65176,-43462.05067,0.16,0.86,0.428,192,0,0,0,0,0,0,0,0,0,1.71E+09,0, 2024-03-05 15:23:42.498
38,-65433.83782,-27318.615,-642.6350048,12245.24674,-6966.010566,-31692.96315,-47730.51861,-43530.2682,0.16,0.86,0.428,192,0,0,0,0,0,0,0,0,0,1.71E+09,0, 2024-03-05 15:23:42.498
39,-65429.52394,-27318.0115,-634.3425076,12242.67629,-6956.555779,-31699.69102,-47730.98799,-43522.53449,0.16,0.86,0.428,192,0,0,0,0,0,0,0,0,0,1.71E+09,0, 2024-03-05 15:23:42.498
40,-65434.88836,-27323.68884,-642.5008944,12234.78612,-6963.373061,-31703.20025,-47726.36118,-43494.416,0.16,0.86,0.428,192,0,0,0,0,0,0,0,0,0,1.71E+09,0, 2024-03-05 15:23:42.498
41,-65441.59388,-27331.15433,-657.1189352,12223.65495,-6976.404128,-31710.21869,-47729.40102,-43475.75229,0.16,0.86,0.428,192,0,0,0,0,0,0,0,0,0,1.71E+09,0, 2024-03-05 15:23:42.498
42,-65432.83199,-27321.74424,-650.4357636,12229.48876,-6971.173819,-31702.52969,-47722.51668,-43463.30237,0.154,0.866,0.43,192,4,208,27,16,13,112,0,0,0,1.71E+09,0, 2024-03-05 15:23:42.498
43,-65427.84756,-27313.5188,-634.744839,12236.73072,-6954.119438,-31698.10405,-47713.68774,-43472.98067,0.154,0.866,0.43,192,0,0,0,0,0,0,0,0,0,1.71E+09,0, 2024-03-05 15:23:42.498
44,-65430.30625,-27315.08342,-628.3969436,12236.70837,-6942.876511,-31700.62979,-47709.68678,-43494.39365,0.154,0.866,0.43,192,0,0,0,0,0,0,0,0,0,1.71E+09,0, 2024-03-05 15:23:42.498
45,-65440.83392,-27324.94054,-637.6505658,12231.61217,-6950.073773,-31704.58605,-47708.03275,-43486.52583,0.154,0.866,0.43,192,0,0,0,0,0,0,0,0,0,1.71E+09,0, 2024-03-05 15:23:42.498
46,-65449.23818,-27332.85306,-651.3745369,12227.14182,-6964.624758,-31704.31783,-47707.04928,-43451.5677,0.154,0.866,0.43,192,0,0,0,0,0,0,0,0,0,1.71E+09,0, 2024-03-05 15:23:42.498
47,-65449.39464,-27331.31079,-653.1850282,12229.3323,-6966.234084,-31697.05352,-47702.9142,-43436.68144,0.154,0.866,0.43,192,0,0,0,0,0,0,0,0,0,1.71E+09,0, 2024-03-05 15:23:42.498
48,-65441.83975,-27323.21946,-639.818685,12234.02616,-6951.928967,-31696.47237,-47698.62267,-43478.45685,0.154,0.866,0.43,192,0,0,0,0,0,0,0,0,0,1.71E+09,0, 2024-03-05 15:23:42.498
49,-65443.53848,-27325.02995,-633.2249204,12233.80264,-6942.317717,-31695.77947,-47698.89089,-43481.60845,0.154,0.866,0.43,192,0,0,0,0,0,0,0,0,0,1.71E+09,0, 2024-03-05 15:23:42.498
50,-65454.75906,-27333.79183,-643.1937984,12229.55581,-6950.610215,-31692.04672,-47699.7179,-43447.94672,0.154,0.866,0.43,192,0,0,0,0,0,0,0,0,0,1.71E+09,0, 2024-03-05 15:23:42.498
51,-65461.30812,-27335.73643,-658.1247637,12229.10878,-6966.614064,-31687.30815,-47699.42733,-43442.51525,0.154,0.866,0.43,192,0,0,0,0,0,0,0,0,0,1.71E+09,0, 2024-03-05 15:23:42.498
52,-65457.53067,-27329.03091,-658.4600399,12233.55678,-6973.297235,-31683.17308,-47700.34375,-43473.83004,0.16,0.872,0.426,192,5,0,27,64,13,80,0,0,0,1.71E+09,0, 2024-03-05 15:23:42.498
53,-65450.06519,-27325.29817,-650.0334322,12231.03103,-6968.513962,-31692.40435,-47706.22226,-43553.78223,0.16,0.872,0.426,192,0,0,0,0,0,0,0,0,0,1.71E+09,0, 2024-03-05 15:23:42.498
54,-65444.81253,-27321.02899,-643.4620194,12234.87553,-6960.377927,-31686.74936,-47710.06676,-43540.17002,0.16,0.872,0.426,192,0,0,0,0,0,0,0,0,0,1.71E+09,0, 2024-03-05 15:23:42.498
55,-65449.26053,-27319.97845,-645.8089525,12247.14664,-6962.34488,-31659.59199,-47709.53032,-43407.78064,0.16,0.872,0.426,192,0,0,0,0,0,0,0,0,0,1.71E+09,0, 2024-03-05 15:23:42.498
56,-65455.60842,-27321.58778,-658.6165021,12245.3585,-6981.321511,-31657.84856,-47714.26889,-43415.26847,0.16,0.872,0.426,192,0,0,0,0,0,0,0,0,0,1.71E+09,0, 2024-03-05 15:23:42.498
57,-65448.50057,-27314.14465,-655.040223,12250.94643,-6984.584866,-31653.40056,-47717.33108,-43423.06923,0.16,0.872,0.426,192,0,0,0,0,0,0,0,0,0,1.71E+09,0, 2024-03-05 15:23:42.498
58,-65437.54821,-27308.78023,-640.3998304,12255.6403,-6972.760793,-31655.38986,-47721.06382,-43433.32868,0.16,0.872,0.426,192,0,0,0,0,0,0,0,0,0,1.71E+09,0, 2024-03-05 15:23:42.498
59,-65437.12353,-27315.55281,-635.3259844,12249.04653,-6967.038747,-31669.78439,-47727.12114,-43467.48215,0.16,0.872,0.426,192,0,0,0,0,0,0,0,0,0,1.71E+09,0, 2024-03-05 15:23:42.498
60,-65446.33245,-27327.82392,-645.6524903,12238.83179,-6976.024148,-31684.76006,-47731.16681,-43475.68524,0.16,0.872,0.426,192,0,0,0,0,0,0,0,0,0,1.71E+09,0, 2024-03-05 15:23:42.498
61,-65454.66965,-27337.8822,-663.6232929,12226.15835,-6996.408939,-31703.51317,-47736.88885,-43498.50637,0.16,0.872,0.426,192,0,0,0,0,0,0,0,0,0,1.71E+09,0, 2024-03-05 15:23:42.498
62,-65448.72408,-27333.03187,-664.3832522,12226.7842,-7001.594544,-31709.0117,-47738.1182,-43506.97768,0.156,0.864,0.426,192,4,224,27,0,13,80,0,0,0,1.71E+09,0, 2024-03-05 15:23:42.498
63,-65443.69494,-27328.56152,-655.2860922,12227.76767,-6992.787956,-31713.48205,-47740.0628,-43501.21093,0.156,0.864,0.426,192,0,0,0,0,0,0,0,0,0,1.71E+09,0, 2024-03-05 15:23:42.498
64,-65437.48116,-27322.03481,-647.2171124,12230.7181,-6981.209753,-31712.63268,-47738.1182,-43494.37129,0.156,0.864,0.426,192,0,0,0,0,0,0,0,0,0,1.71E+09,0, 2024-03-05 15:23:42.498
65,-65444.47725,-27326.81809,-655.2860922,12224.90665,-6988.09409,-31714.28671,-47739.61577,-43489.09628,0.156,0.864,0.426,192,0,0,0,0,0,0,0,0,0,1.71E+09,0, 2024-03-05 15:23:42.498
66,-65455.02728,-27334.97647,-668.6971389,12217.70939,-7002.779186,-31716.92422,-47737.67117,-43466.81159,0.156,0.864,0.426,192,0,0,0,0,0,0,0,0,0,1.71E+09,0, 2024-03-05 15:23:42.498
67,-65447.27122,-27326.46046,-661.946912,12224.34786,-6999.649942,-31712.09624,-47726.02591,-43466.58808,0.156,0.864,0.426,192,0,0,0,0,0,0,0,0,0,1.71E+09,0, 2024-03-05 15:23:42.498
68,-65432.34026,-27313.87643,-642.3667839,12232.75211,-6980.270979,-31710.21869,-47716.81699,-43508.67641,0.156,0.864,0.426,192,0,0,0,0,0,0,0,0,0,1.71E+09,0, 2024-03-05 15:23:42.498
69,-65430.41801,-27310.2778,-630.4756559,12241.06696,-6965.407069,-31699.04282,-47716.32525,-43492.33729,0.156,0.864,0.426,192,0,0,0,0,0,0,0,0,0,1.71E+09,0, 2024-03-05 15:23:42.498
70,-65444.99134,-27323.33122,-638.7458013,12235.59078,-6970.436212,-31698.88636,-47716.54877,-43479.0827,0.156,0.864,0.426,192,0,0,0,0,0,0,0,0,0,1.71E+09,0, 2024-03-05 15:23:42.498
71,-65452.81445,-27330.12615,-650.0110805,12232.12626,-6982.997892,-31697.5229,-47711.65373,-43472.55599,0.156,0.864,0.426,192,0,0,0,0,0,0,0,0,0,1.71E+09,0, 2024-03-05 15:23:42.498
72,-65447.38298,-27323.19711,-645.4513246,12241.06696,-6979.242799,-31685.56472,-47699.56144,-43450.02543,0.156,0.86,0.426,192,4,224,26,224,13,80,0,0,0,1.71E+09,0, 2024-03-05 15:23:42.498
73,-65444.43255,-27316.17866,-633.4037344,12249.04653,-6964.043613,-31678.16629,-47693.05708,-43449.35488,0.156,0.86,0.426,192,0,0,0,0,0,0,0,0,0,1.71E+09,0, 2024-03-05 15:23:42.498
74,-65449.14877,-27318.10091,-631.9061675,12246.61019,-6957.740421,-31680.71439,-47695.1358,-43466.43161,0.156,0.86,0.426,192,0,0,0,0,0,0,0,0,0,1.71E+09,0, 2024-03-05 15:23:42.498
75,-65459.58703,-27322.01246,-642.1432665,12244.82205,-6964.423593,-31675.7076,-47696.74512,-43442.5823,0.156,0.86,0.426,192,0,0,0,0,0,0,0,0,0,1.71E+09,0, 2024-03-05 15:23:42.498
76,-65464.9738,-27323.68884,-654.8390573,12245.42555,-6979.063985,-31666.36457,-47695.31461,-43424.81267,0.156,0.86,0.426,192,0,0,0,0,0,0,0,0,0,1.71E+09,0, 2024-03-05 15:23:42.498
77,-65463.83386,-27323.64414,-666.1266883,12241.89398,-6996.028959,-31669.87379,-47706.31167,-43474.27708,0.156,0.86,0.426,192,0,0,0,0,0,0,0,0,0,1.71E+09,0, 2024-03-05 15:23:42.498
78,-65458.69296,-27321.96776,-658.9070748,12243.59271,-6987.043558,-31670.11966,-47716.63817,-43500.83095,0.156,0.86,0.426,192,0,0,0,0,0,0,0,0,0,1.71E+09,0, 2024-03-05 15:23:42.498
79,-65457.06129,-27323.30886,-654.3920224,12243.12332,-6981.969712,-31671.39371,-47722.00259,-43512.3421,0.156,0.86,0.426,192,0,0,0,0,0,0,0,0,0,1.71E+09,0, 2024-03-05 15:23:42.498
80,-65464.37031,-27330.01439,-663.9362173,12238.51886,-6991.648017,-31672.91363,-47726.94233,-43478.32274,0.156,0.86,0.426,192,0,0,0,0,0,0,0,0,0,1.71E+09,0, 2024-03-05 15:23:42.498
81,-65467.49955,-27333.993,-676.9002291,12232.28273,-7009.417654,-31676.48991,-47733.29022,-43463.19061,0.156,0.86,0.426,192,0,0,0,0,0,0,0,0,0,1.71E+09,0, 2024-03-05 15:23:42.498
82,-65458.82707,-27328.2933,-675.4473657,12234.04851,-7012.099864,-31674.90294,-47732.91024,-43434.28981,0.16,0.864,0.424,192,5,0,27,0,13,64,0,0,0,1.71E+09,0, 2024-03-05 15:23:42.498
83,-65447.67355,-27320.00081,-659.1752957,12236.77543,-6998.062968,-31677.67455,-47729.28926,-43413.27917,0.16,0.864,0.424,192,0,0,0,0,0,0,0,0,0,1.71E+09,0, 2024-03-05 15:23:42.498
84,-65444.38785,-27318.79381,-647.4182781,12234.13792,-6983.020244,-31688.22458,-47722.11435,-43410.70871,0.16,0.864,0.424,192,0,0,0,0,0,0,0,0,0,1.71E+09,0, 2024-03-05 15:23:42.498
85,-65458.93883,-27331.69077,-662.8856853,12215.36246,-6995.000779,-31711.93978,-47728.73047,-43450.29365,0.16,0.864,0.424,192,0,0,0,0,0,0,0,0,0,1.71E+09,0, 2024-03-05 15:23:42.498
86,-65473.2663,-27343.26897,-686.0197408,12197.68223,-7019.453587,-31735.05148,-47741.09098,-43487.71047,0.16,0.864,0.424,192,0,0,0,0,0,0,0,0,0,1.71E+09,0, 2024-03-05 15:23:42.498
87,-65467.63366,-27337.85985,-689.3725025,12197.70458,-7027.544919,-31741.24291,-47744.68961,-43511.0457,0.16,0.864,0.424,192,0,0,0,0,0,0,0,0,0,1.71E+09,0, 2024-03-05 15:23:42.498
88,-65450.244,-27322.81713,-672.3181215,12206.71233,-7012.233974,-31741.98052,-47742.92383,-43546.58497,0.16,0.864,0.424,192,0,0,0,0,0,0,0,0,0,1.71E+09,0, 2024-03-05 15:23:42.498
89,-65444.94664,-27320.00081,-661.0081388,12207.89697,-6997.928858,-31748.19431,-47742.96853,-43565.33808,0.16,0.864,0.424,192,0,0,0,0,0,0,0,0,0,1.71E+09,0, 2024-03-05 15:23:42.498
90,-65454.60259,-27325.72285,-665.5455429,12207.53934,-7000.611067,-31744.81919,-47745.00254,-43544.4392,0.16,0.864,0.424,192,0,0,0,0,0,0,0,0,0,1.71E+09,0, 2024-03-05 15:23:42.498
91,-65462.15748,-27328.40506,-676.1849733,12209.84157,-7014.335038,-31735.94555,-47741.76153,-43506.91062,0.16,0.864,0.424,192,0,0,0,0,0,0,0,0,0,1.71E+09,0, 2024-03-05 15:23:42.498
92,-65457.46362,-27323.30886,-676.1849733,12217.15059,-7016.749026,-31728.32361,-47739.83928,-43481.25082,0.164,0.862,0.424,192,5,32,26,240,13,64,0,0,0,1.71E+09,0, 2024-03-05 15:23:42.498
93,-65445.55014,-27311.19422,-657.6553771,12231.52277,-6997.347712,-31715.4937,-47729.89276,-43478.99329,0.164,0.862,0.424,192,0,0,0,0,0,0,0,0,0,1.71E+09,0, 2024-03-05 15:23:42.498
94,-65450.17695,-27317.3186,-653.5426561,12226.02424,-6987.155317,-31724.41205,-47726.65176,-43533.39744,0.164,0.862,0.424,192,0,0,0,0,0,0,0,0,0,1.71E+09,0, 2024-03-05 15:23:42.498
95,-65463.65505,-27325.96872,-660.0917173,12224.45962,-6989.971637,-31718.22062,-47725.19889,-43506.95533,0.164,0.862,0.424,192,0,0,0,0,0,0,0,0,0,1.71E+09,0, 2024-03-05 15:23:42.498
96,-65473.98156,-27329.99204,-670.9770168,12225.30898,-7002.376855,-31709.21286,-47723.54486,-43459.27906,0.164,0.862,0.424,192,0,0,0,0,0,0,0,0,0,1.71E+09,0, 2024-03-05 15:23:42.498
97,-65471.58992,-27326.43811,-670.5746854,12230.40518,-7005.059064,-31699.95924,-47719.27568,-43453.66877,0.164,0.862,0.424,192,0,0,0,0,0,0,0,0,0,1.71E+09,0, 2024-03-05 15:23:42.498
98,-65454.42378,-27306.83563,-646.7477258,12254.27684,-6982.640264,-31672.24308,-47705.70817,-43442.5376,0.164,0.862,0.424,192,0,0,0,0,0,0,0,0,0,1.71E+09,0, 2024-03-05 15:23:42.498
99,-65447.85237,-27300.97947,-632.2414437,12264.60335,-6966.56936,-31663.99529,-47699.98612,-43477.02634,0.164,0.862,0.424,192,0,0,0,0,0,0,0,0,0,1.71E+09,0, 2024-03-05 15:23:42.498
100,-65459.54233,-27308.73553,-637.0694205,12265.05038,-6969.810363,-31659.01085,-47705.05997,-43461.38012,0.164,0.862,0.424,192,0,0,0,0,0,0,0,0,0,1.71E+09,0, 2024-03-05 15:23:42.498
101,-65457.12834,-27303.86285,-642.7467636,12271.95707,-6980.472145,-31645.10806,-47703.96473,-43410.30638,0.164,0.862,0.424,192,0,0,0,0,0,0,0,0,0,1.71E+09,0, 2024-03-05 15:23:42.498
102,-65448.12059,-27293.87162,-642.8585223,12277.00857,-6986.015378,-31642.06822,-47703.473,-43426.5561,0.162,0.856,0.422,192,5,16,26,192,13,48,0,0,0,1.71E+09,0, 2024-03-05 15:23:42.498
103,-65435.84948,-27283.18748,-629.6039378,12286.93274,-6973.207828,-31635.22859,-47702.17659,-43402.1927,0.162,0.856,0.422,192,0,0,0,0,0,0,0,0,0,1.71E+09,0, 2024-03-05 15:23:42.498
104,-65428.29459,-27280.68409,-623.3007459,12286.19513,-6964.602407,-31637.08379,-47709.73148,-43412.72037,0.162,0.856,0.422,192,0,0,0,0,0,0,0,0,0,1.71E+09,0, 2024-03-05 15:23:42.498
105,-65438.37523,-27294.83274,-636.0412402,12267.59848,-6977.231142,-31659.61434,-47725.35535,-43474.99233,0.162,0.856,0.422,192,0,0,0,0,0,0,0,0,0,1.71E+09,0, 2024-03-05 15:23:42.498
106,-65446.44421,-27306.94739,-652.156848,12254.25449,-6996.29718,-31674.65707,-47732.30675,-43487.06227,0.162,0.856,0.422,192,0,0,0,0,0,0,0,0,0,1.71E+09,0, 2024-03-05 15:23:42.498
107,-65442.75617,-27306.85798,-652.0897927,12252.75692,-7000.856936,-31678.99331,-47729.93746,-43461.42482,0.162,0.856,0.422,192,0,0,0,0,0,0,0,0,0,1.71E+09,0, 2024-03-05 15:23:42.498
108,-65437.27999,-27304.15342,-640.1092577,12250.11942,-6992.005645,-31690.34799,-47729.781,-43457.2674,0.162,0.856,0.422,192,0,0,0,0,0,0,0,0,0,1.71E+09,0, 2024-03-05 15:23:42.498
109,-65432.85435,-27304.01931,-635.3930396,12238.67532,-6985.233067,-31712.67738,-47734.40781,-43525.52963,0.162,0.856,0.422,192,0,0,0,0,0,0,0,0,0,1.71E+09,0, 2024-03-05 15:23:42.498
110,-65447.27122,-27317.51976,-649.6311008,12224.72784,-6995.447814,-31726.379,-47742.43209,-43512.11858,0.162,0.856,0.422,192,0,0,0,0,0,0,0,0,0,1.71E+09,0, 2024-03-05 15:23:42.498
111,-65453.66382,-27319.9114,-661.2763597,12224.3255,-7007.540108,-31719.22645,-47739.59342,-43443.56578,0.162,0.856,0.422,192,0,0,0,0,0,0,0,0,0,1.71E+09,0, 2024-03-05 15:23:42.498
112,-65447.29357,-27314.09995,-659.8234963,12226.8736,-7010.602297,-31719.40526,-47733.64785,-43449.31018,0.158,0.852,0.428,192,4,240,26,160,13,96,0,0,0,1.71E+09,0, 2024-03-05 15:23:42.498
113,-65439.85044,-27306.94739,-648.3570514,12227.4324,-7001.058102,-31727.45189,-47731.01035,-43509.39167,0.158,0.852,0.428,192,0,0,0,0,0,0,0,0,0,1.71E+09,0, 2024-03-05 15:23:42.498
114,-65439.80574,-27307.43913,-640.869217,12224.10199,-6989.479898,-31735.20794,-47730.16098,-43557.71614,0.158,0.852,0.428,192,0,0,0,0,0,0,0,0,0,1.71E+09,0, 2024-03-05 15:23:42.498
115,-65457.77654,-27323.30886,-652.6038829,12214.62485,-6996.29718,-31737.48782,-47736.2183,-43515.85132,0.158,0.852,0.428,192,0,0,0,0,0,0,0,0,0,1.71E+09,0, 2024-03-05 15:23:42.498
116,-65467.79012,-27328.22625,-663.3327202,12216.27888,-7008.59064,-31725.86491,-47735.54775,-43435.16152,0.158,0.852,0.428,192,0,0,0,0,0,0,0,0,0,1.71E+09,0, 2024-03-05 15:23:42.498
117,-65467.72307,-27326.50516,-666.327854,12215.69773,-7013.8433,-31727.34013,-47731.25621,-43461.33542,0.158,0.852,0.428,192,0,0,0,0,0,0,0,0,0,1.71E+09,0, 2024-03-05 15:23:42.498
118,-65453.9991,-27313.74232,-648.0217752,12227.70062,-6993.167936,-31719.15939,-47718.53807,-43480.87084,0.158,0.852,0.428,192,0,0,0,0,0,0,0,0,0,1.71E+09,0, 2024-03-05 15:23:42.498
119,-65449.84167,-27311.77536,-633.8284175,12234.18262,-6974.325415,-31715.11373,-47711.92196,-43484.89415,0.158,0.852,0.428,192,0,0,0,0,0,0,0,0,0,1.71E+09,0, 2024-03-05 15:23:42.498
120,-65464.14679,-27326.66163,-643.9761095,12226.56068,-6979.913352,-31720.56755,-47713.1513,-43473.27125,0.158,0.852,0.428,192,0,0,0,0,0,0,0,0,0,1.71E+09,0, 2024-03-05 15:23:42.498
121,-65479.30127,-27338.19513,-663.2433132,12220.95039,-6999.135852,-31720.52285,-47716.25819,-43470.20906,0.158,0.852,0.428,192,0,0,0,0,0,0,0,0,0,1.71E+09,0, 2024-03-05 15:23:42.498
122,-65477.96017,-27335.42351,-668.250104,12226.89596,-7007.920087,-31712.47622,-47713.95596,-43471.52781,0.16,0.858,0.43,192,5,0,26,208,13,112,0,0,0,1.71E+09,0, 2024-03-05 15:23:42.498
123,-65471.09818,-27325.76756,-656.1578102,12241.22342,-6996.118366,-31699.62397,-47711.05024,-43480.24499,0.16,0.858,0.43,192,0,0,0,0,0,0,0,0,0,1.71E+09,0, 2024-03-05 15:23:42.498
124,-65466.38196,-27320.73841,-644.4454961,12247.54897,-6982.170878,-31695.64536,-47710.22322,-43511.17981,0.16,0.858,0.43,192,0,0,0,0,0,0,0,0,0,1.71E+09,0, 2024-03-05 15:23:42.498
125,-65474.49565,-27324.26999,-649.7428596,12245.96199,-6985.27777,-31692.18084,-47712.61486,-43495.39947,0.16,0.858,0.43,192,0,0,0,0,0,0,0,0,0,1.71E+09,0, 2024-03-05 15:23:42.498
126,-65479.59184,-27324.96289,-663.4221272,12245.49261,-6999.24761,-31686.77171,-47715.63235,-43462.453,0.16,0.858,0.43,192,0,0,0,0,0,0,0,0,0,1.71E+09,0, 2024-03-05 15:23:42.498
127,-65469.01947,-27311.79772,-664.4950109,12254.18744,-7005.126119,-31675.97582,-47714.73828,-43451.14302,0.16,0.858,0.43,192,0,0,0,0,0,0,0,0,0,1.71E+09,0, 2024-03-05 15:23:42.498
128,-65457.2401,-27302.23117,-654.6155399,12260.28946,-6997.19125,-31672.39954,-47716.59347,-43454.65224,0.16,0.858,0.43,192,0,0,0,0,0,0,0,0,0,1.71E+09,0, 2024-03-05 15:23:42.498
129,-65448.52292,-27296.62088,-643.7302403,12260.1777,-6984.830735,-31677.54044,-47716.48171,-43480.04383,0.16,0.858,0.43,192,0,0,0,0,0,0,0,0,0,1.71E+09,0, 2024-03-05 15:23:42.498
130,-65454.42378,-27301.78413,-647.6417956,12256.75789,-6987.06591,-31677.51809,-47719.11922,-43449.86897,0.16,0.858,0.43,192,0,0,0,0,0,0,0,0,0,1.71E+09,0, 2024-03-05 15:23:42.498
131,-65461.88926,-27308.17673,-661.4328219,12251.05819,-7003.673256,-31678.99331,-47726.83057,-43428.72422,0.16,0.858,0.43,192,0,0,0,0,0,0,0,0,0,1.71E+09,0, 2024-03-05 15:23:42.498
132,-65463.20802,-27309.60724,-668.4512697,12245.3585,-7013.642134,-31688.91748,-47732.50791,-43460.4637,0.156,0.862,0.436,192,4,224,26,240,13,160,0,0,0,1.71E+09,0, 2024-03-05 15:23:42.498
133,-65452.59094,-27303.19229,-657.05188,12246.25257,-7004.075587,-31699.33339,-47731.88206,-43498.3499,0.156,0.862,0.436,192,0,0,0,0,0,0,0,0,0,1.71E+09,0, 2024-03-05 15:23:42.498
134,-65441.63858,-27296.73264,-636.8011995,12256.10969,-6982.483802,-31695.13127,-47723.9919,-43456.68625,0.156,0.862,0.436,192,0,0,0,0,0,0,0,0,0,1.71E+09,0, 2024-03-05 15:23:42.498
135,-65447.0477,-27301.42651,-637.6952693,12252.37694,-6982.997892,-31701.05448,-47724.75186,-43459.99431,0.156,0.862,0.436,192,0,0,0,0,0,0,0,0,0,1.71E+09,0, 2024-03-05 15:23:42.498
136,-65460.25759,-27310.43426,-653.4756009,12242.22925,-6998.912334,-31710.44221,-47730.18333,-43461.60364,0.156,0.862,0.436,192,0,0,0,0,0,0,0,0,0,1.71E+09,0, 2024-03-05 15:23:42.498
137,-65464.8844,-27314.68109,-660.4716969,12232.39448,-7011.049332,-31721.2381,-47733.75961,-43470.49963,0.156,0.862,0.436,192,0,0,0,0,0,0,0,0,0,1.71E+09,0, 2024-03-05 15:23:42.498
138,-65460.14583,-27311.75301,-653.0732695,12228.39352,-7004.410863,-31732.41398,-47733.20082,-43510.10692,0.156,0.862,0.436,192,0,0,0,0,0,0,0,0,0,1.71E+09,0, 2024-03-05 15:23:42.498
139,-65457.1954,-27312.46827,-646.7700776,12225.37604,-6994.732558,-31738.94068,-47733.75961,-43530.60347,0.156,0.862,0.436,192,0,0,0,0,0,0,0,0,0,1.71E+09,0, 2024-03-05 15:23:42.498
140,-65464.3256,-27315.70927,-651.978034,12225.91248,-6996.788919,-31731.67637,-47736.33006,-43468.77855,0.156,0.862,0.436,192,0,0,0,0,0,0,0,0,0,1.71E+09,0, 2024-03-05 15:23:42.498
141,-65478.18368,-27327.71216,-673.0333773,12211.09327,-7019.274774,-31742.47226,-47744.24258,-43481.65315,0.156,0.862,0.436,192,0,0,0,0,0,0,0,0,0,1.71E+09,0, 2024-03-05 15:23:42.498
142,-65481.13411,-27329.56735,-685.0586158,12202.33139,-7033.691649,-31754.13987,-47747.64004,-43544.52861,0.162,0.866,0.436,192,5,16,27,16,13,160,0,0,0,1.71E+09,0, 2024-03-05 15:23:42.498
143,-65475.05444,-27321.9007,-673.6592261,12208.83575,-7023.499253,-31751.45766,-47745.53898,-43542.24873,0.162,0.866,0.436,192,0,0,0,0,0,0,0,0,0,1.71E+09,0, 2024-03-05 15:23:42.498
144,-65464.68323,-27312.8706,-652.5815311,12224.01258,-7001.885116,-31736.54905,-47735.25718,-43499.48984,0.162,0.866,0.436,192,0,0,0,0,0,0,0,0,0,1.71E+09,0, 2024-03-05 15:23:42.498
145,-65478.00487,-27323.42062,-656.7836591,12223.99023,-7003.114462,-31730.91641,-47733.73726,-43472.80186,0.162,0.866,0.436,192,0,0,0,0,0,0,0,0,0,1.71E+09,0, 2024-03-05 15:23:42.498
