Sample Index, EXG Channel 0, EXG Channel 1, EXG Channel 2, EXG Channel 3, EXG Channel 4, EXG Channel 5, EXG Channel 6, EXG Channel 7, Accel Channel 0, Accel Channel 1, Accel Channel 2, Other, Other.1, Other.2, Other.3, Other.4, Other.5, Other.6, Analog Channel 0, Analog Channel 1, Analog Channel 2, Timestamp, Other.7, Timestamp (Formatted)
0,-99571.65713,-31160.74576,-19191.72188,-31914.15601,-11070.52846,-29990.31901,-42735.10489,-78320.51257,-0.036,0.898,0.344,192,254,224,28,16,10,192,0,0,0,1709548886,0, 2024-03-04 16:11:26.353
1,-99535.89434,-31134.66127,-19171.71707,-31892.296,-11131.52637,-29993.3812,-42754.05917,-78343.87014,-0.036,0.898,0.344,192,0,0,0,0,0,0,0,0,0,1709548886,0, 2024-03-04 16:11:26.353
2,-99541.50463,-31134.326,-19181.44008,-31889.92672,-11873.02314,-29993.04593,-42767.2467,-78339.10922,-0.036,0.898,0.344,192,0,0,0,0,0,0,0,0,0,1709548886,0, 2024-03-04 16:11:26.353
3,-99571.41126,-31151.35803,-19196.50515,-31903.44952,-12297.34865,-29989.00026,-42754.43915,-78333.87891,-0.036,0.898,0.344,192,0,0,0,0,0,0,0,0,0,1709548886,0, 2024-03-04 16:11:26.353
4,-99579.79316,-31158.26472,-19194.5382,-31910.7809,-11771.14389,-29984.17228,-42729.29343,-78334.3036,-0.036,0.898,0.344,192,0,0,0,0,0,0,0,0,0,1709548886,0, 2024-03-04 16:11:26.353
5,-99557.84375,-31148.69817,-19181.7083,-31905.79646,-11081.14553,-29988.95556,-42725.11366,-78354.50957,-0.036,0.898,0.344,192,0,0,0,0,0,0,0,0,0,1709548886,0, 2024-03-04 16:11:26.353
6,-99535.11203,-31131.10735,-19173.48286,-31889.85966,-11127.30189,-29990.22961,-42761.97168,-78356.63299,-0.036,0.898,0.344,192,0,0,0,0,0,0,0,0,0,1709548886,0, 2024-03-04 16:11:26.353
7,-99533.52505,-31126.41348,-19179.98721,-31879.55551,-11863.30013,-29977.89144,-42764.51978,-78322.90421,-0.036,0.898,0.344,192,0,0,0,0,0,0,0,0,0,1709548886,0, 2024-03-04 16:11:26.353
8,-99569.48901,-31152.38621,-19194.42644,-31900.65556,-12296.23107,-29979.88075,-42734.65785,-78315.63989,-0.036,0.898,0.344,192,0,0,0,0,0,0,0,0,0,1709548886,0, 2024-03-04 16:11:26.353
9,-99588.19742,-31171.72047,-19192.5936,-31919.90041,-11794.23324,-29984.17228,-42722.83378,-78323.61946,-0.036,0.898,0.344,192,0,0,0,0,0,0,0,0,0,1709548886,0, 2024-03-04 16:11:26.353
10,-99557.62023,-31151.33567,-19169.10191,-31901.2814,-11084.94533,-29973.71167,-42727.68411,-78316.53396,-0.034,0.904,0.342,192,254,240,28,64,10,176,0,0,0,1709548886,0, 2024-03-04 16:11:26.353
11,-99529.90407,-31128.60395,-19165.45858,-31882.12596,-11117.13184,-29975.4104,-42754.08152,-78345.61358,-0.034,0.904,0.342,192,0,0,0,0,0,0,0,0,0,1709548886,0, 2024-03-04 16:11:26.353
12,-99543.40452,-31134.08013,-19179.04844,-31885.59048,-11878.78989,-29978.47259,-42773.48283,-78361.12569,-0.034,0.904,0.342,192,0,0,0,0,0,0,0,0,0,1709548886,0, 2024-03-04 16:11:26.353
13,-99581.04486,-31150.37455,-19204.66354,-31900.09676,-12343.34854,-29968.43665,-42756.31669,-78312.68946,-0.034,0.904,0.342,192,0,0,0,0,0,0,0,0,0,1709548886,0, 2024-03-04 16:11:26.353
14,-99603.44131,-31169.73116,-19218.70044,-31920.01217,-11818.48488,-29972.88465,-42726.41006,-78310.76721,-0.034,0.904,0.342,192,0,0,0,0,0,0,0,0,0,1709548886,0, 2024-03-04 16:11:26.353
15,-99587.39276,-31166.57956,-19209.9609,-31915.9665,-11100.07746,-29976.81856,-42728.26525,-78336.18114,-0.034,0.904,0.342,192,0,0,0,0,0,0,0,0,0,1709548886,0, 2024-03-04 16:11:26.353
16,-99565.21983,-31151.40273,-19199.58969,-31900.76731,-11122.25039,-29981.37831,-42753.00863,-78355.96244,-0.034,0.904,0.342,192,0,0,0,0,0,0,0,0,0,1709548886,0, 2024-03-04 16:11:26.353
17,-99574.96519,-31157.88474,-19217.98518,-31904.00832,-11867.56931,-29985.7369,-42759.58005,-78347.93816,-0.034,0.904,0.342,192,0,0,0,0,0,0,0,0,0,1709548886,0, 2024-03-04 16:11:26.353
18,-99603.24014,-31176.41433,-19233.25142,-31917.66523,-12339.5264,-29979.36666,-42759.04361,-78325.74288,-0.034,0.904,0.342,192,0,0,0,0,0,0,0,0,0,1709548886,0, 2024-03-04 16:11:26.353
19,-99614.39367,-31188.97601,-19235.33013,-31935.52428,-11834.55579,-29984.19463,-42736.84832,-78328.04511,-0.034,0.904,0.342,192,0,0,0,0,0,0,0,0,0,1709548886,0, 2024-03-04 16:11:26.353
20,-99593.58419,-31180.68352,-19222.67905,-31933.17734,-11105.53129,-29992.57654,-42750.7064,-78350.82154,-0.034,0.908,0.338,192,254,240,28,96,10,144,0,0,0,1709548886,0, 2024-03-04 16:11:26.353
21,-99561.88942,-31156.38717,-19200.12614,-31910.71384,-11113.46616,-29989.91668,-42762.77635,-78347.31231,-0.034,0.908,0.338,192,0,0,0,0,0,0,0,0,0,1709548886,0, 2024-03-04 16:11:26.353
22,-99567.11973,-31155.00136,-19206.38462,-31906.9811,-11850.91726,-29987.90502,-42759.78121,-78312.77887,-0.034,0.908,0.338,192,0,0,0,0,0,0,0,0,0,1709548886,0, 2024-03-04 16:11:26.353
23,-99597.11577,-31171.25108,-19220.17565,-31919.78865,-12330.04926,-29984.14993,-42744.06794,-78269.79646,-0.034,0.908,0.338,192,0,0,0,0,0,0,0,0,0,1709548886,0, 2024-03-04 16:11:26.353
24,-99612.80669,-31185.84677,-19229.1834,-31938.45236,-11866.20586,-29991.99539,-42731.97564,-78290.87416,-0.034,0.908,0.338,192,0,0,0,0,0,0,0,0,0,1709548886,0, 2024-03-04 16:11:26.353
25,-99590.18673,-31176.012,-19216.04058,-31935.01019,-11147.06083,-29999.1256,-42725.44893,-78298.31729,-0.034,0.908,0.338,192,0,0,0,0,0,0,0,0,0,1709548886,0, 2024-03-04 16:11:26.353
26,-99559.74365,-31154.97901,-19198.49446,-31916.39118,-11109.17462,-30002.67953,-42746.72779,-78293.60107,-0.034,0.908,0.338,192,0,0,0,0,0,0,0,0,0,1709548886,0, 2024-03-04 16:11:26.353
27,-99558.67077,-31147.31236,-19198.89679,-31908.94805,-11830.97951,-30000.75728,-42771.00179,-78306.34157,-0.034,0.908,0.338,192,0,0,0,0,0,0,0,0,0,1709548886,0, 2024-03-04 16:11:26.353
28,-99586.61045,-31163.875,-19215.14651,-31923.94607,-12322.06968,-30001.76311,-42773.05815,-78314.96934,-0.034,0.908,0.338,192,0,0,0,0,0,0,0,0,0,1709548886,0, 2024-03-04 16:11:26.353
29,-99593.53949,-31170.49112,-19213.24661,-31931.83624,-11851.65487,-29997.31511,-42727.23707,-78319.86437,-0.034,0.908,0.338,192,0,0,0,0,0,0,0,0,0,1709548886,0, 2024-03-04 16:11:26.353
30,-99569.44431,-31157.70592,-19195.92401,-31922.91789,-11133.29215,-29998.36564,-42733.42851,-78337.25403,-0.038,0.9,0.348,192,254,208,28,32,10,224,0,0,0,1709548886,0, 2024-03-04 16:11:26.353
31,-99543.76215,-31136.56117,-19181.17186,-31902.15312,-11097.77523,-29997.96331,-42769.05719,-78343.13254,-0.038,0.9,0.348,192,0,0,0,0,0,0,0,0,0,1709548886,0, 2024-03-04 16:11:26.353
32,-99548.65718,-31132.09082,-19192.14656,-31890.44081,-11801.74342,-29986.56392,-42771.04649,-78325.87699,-0.038,0.9,0.348,192,0,0,0,0,0,0,0,0,0,1709548886,0, 2024-03-04 16:11:26.353
33,-99579.81552,-31149.07815,-19210.11737,-31900.20852,-12306.17759,-29976.34917,-42755.73555,-78305.62631,-0.038,0.9,0.348,192,0,0,0,0,0,0,0,0,0,1709548886,0, 2024-03-04 16:11:26.353
34,-99593.31597,-31162.37744,-19193.01828,-31912.7255,-11861.37788,-29975.18688,-42734.05435,-78313.24825,-0.038,0.9,0.348,192,0,0,0,0,0,0,0,0,0,1709548886,0, 2024-03-04 16:11:26.353
35,-99571.36656,-31149.77105,-19185.93278,-31904.83533,-11132.64395,-29974.13635,-42742.12333,-78336.76229,-0.038,0.9,0.348,192,0,0,0,0,0,0,0,0,0,1709548886,0, 2024-03-04 16:11:26.353
36,-99544.70093,-31130.25798,-19179.29431,-31889.32322,-11091.94143,-29977.57852,-42763.98334,-78363.07029,-0.038,0.9,0.348,192,0,0,0,0,0,0,0,0,0,1709548886,0, 2024-03-04 16:11:26.353
37,-99553.3287,-31135.04125,-19192.41478,-31891.78191,-11819.58012,-29982.11592,-42772.83463,-78374.53674,-0.038,0.9,0.348,192,0,0,0,0,0,0,0,0,0,1709548886,0, 2024-03-04 16:11:26.353
38,-99592.26544,-31162.04216,-19220.26506,-31913.64192,-12341.60511,-29983.7029,-42765.72678,-78367.80886,-0.038,0.9,0.348,192,0,0,0,0,0,0,0,0,0,1709548886,0, 2024-03-04 16:11:26.353
39,-99613.47724,-31182.04697,-19230.68097,-31926.62828,-11905.63433,-29979.03138,-42744.64908,-78321.04901,-0.038,0.9,0.348,192,0,0,0,0,0,0,0,0,0,1709548886,0, 2024-03-04 16:11:26.353
40,-99588.84562,-31165.61844,-19203.81417,-31905.79646,-11151.39707,-29963.54162,-42731.93094,-78287.5661,-0.04,0.898,0.344,192,254,192,28,16,10,192,0,0,0,1709548886,0, 2024-03-04 16:11:26.353
41,-99568.68435,-31154.06259,-19201.98133,-31902.28723,-11091.94143,-29980.48424,-42760.04943,-78349.99452,-0.04,0.898,0.344,192,0,0,0,0,0,0,0,0,0,1709548886,0, 2024-03-04 16:11:26.353
42,-99574.02641,-31155.22488,-19211.45847,-31904.4777,-11826.10683,-29984.32874,-42772.65582,-78369.01586,-0.04,0.898,0.344,192,0,0,0,0,0,0,0,0,0,1709548886,0, 2024-03-04 16:11:26.353
43,-99603.73188,-31174.17916,-19218.2087,-31910.98206,-12346.47779,-29968.92839,-42737.11654,-78292.28232,-0.04,0.898,0.344,192,0,0,0,0,0,0,0,0,0,1709548886,0, 2024-03-04 16:11:26.353
44,-99621.2333,-31193.9381,-19226.5459,-31925.08601,-11897.63241,-29965.79915,-42719.3022,-78254.73139,-0.04,0.898,0.344,192,0,0,0,0,0,0,0,0,0,1709548886,0, 2024-03-04 16:11:26.353
45,-99602.54724,-31186.51732,-19224.08721,-31919.87806,-11151.59823,-29968.52606,-42727.50529,-78259.78288,-0.04,0.898,0.344,192,0,0,0,0,0,0,0,0,0,1709548886,0, 2024-03-04 16:11:26.353
46,-99575.05459,-31169.03826,-19210.94438,-31908.05398,-11075.98228,-29976.61739,-42735.8872,-78297.22205,-0.04,0.898,0.344,192,0,0,0,0,0,0,0,0,0,1709548886,0, 2024-03-04 16:11:26.353
47,-99576.50746,-31166.44545,-19205.93759,-31906.10938,-11836.29922,-29980.88658,-42768.05136,-78320.04318,-0.04,0.898,0.344,192,0,0,0,0,0,0,0,0,0,1709548886,0, 2024-03-04 16:11:26.353
48,-99610.3033,-31189.98184,-19222.56729,-31926.8518,-12372.51757,-29986.9886,-42760.45177,-78316.981,-0.04,0.898,0.344,192,0,0,0,0,0,0,0,0,0,1709548886,0, 2024-03-04 16:11:26.353
49,-99621.07684,-31202.83409,-19231.128,-31941.67101,-11941.10655,-29990.36372,-42740.26814,-78312.04126,-0.04,0.898,0.344,192,0,0,0,0,0,0,0,0,0,1709548886,0, 2024-03-04 16:11:26.353
50,-99595.52879,-31188.37252,-19215.19121,-31935.41252,-11183.40477,-29997.40452,-42734.76961,-78322.41247,-0.044,0.896,0.344,192,254,160,28,0,10,192,0,0,0,1709548886,0, 2024-03-04 16:11:26.353
51,-99562.13529,-31163.00329,-19194.15822,-31914.0666,-11102.89378,-30001.51724,-42751.75694,-78356.20831,-0.044,0.896,0.344,192,0,0,0,0,0,0,0,0,0,1709548886,0, 2024-03-04 16:11:26.353
52,-99567.34324,-31163.27151,-19193.15239,-31907.85282,-11824.43044,-30004.62413,-42765.72678,-78348.3852,-0.044,0.896,0.344,192,0,0,0,0,0,0,0,0,0,1709548886,0, 2024-03-04 16:11:26.353
53,-99596.2217,-31182.15873,-19204.93176,-31919.38632,-12350.05407,-30000.4667,-42745.36434,-78310.96838,-0.044,0.896,0.344,192,0,0,0,0,0,0,0,0,0,1709548886,0, 2024-03-04 16:11:26.353
54,-99593.74065,-31181.17525,-19196.14752,-31916.32413,-11924.56626,-29982.38414,-42718.18462,-78276.70315,-0.044,0.896,0.344,192,0,0,0,0,0,0,0,0,0,1709548886,0, 2024-03-04 16:11:26.353
55,-99564.66103,-31158.57764,-19174.82396,-31898.66625,-11167.95971,-29975.27629,-42719.65983,-78297.82555,-0.044,0.896,0.344,192,0,0,0,0,0,0,0,0,0,1709548886,0, 2024-03-04 16:11:26.353
56,-99543.35982,-31142.03735,-19167.60435,-31886.48455,-11090.13094,-29985.13341,-42753.00863,-78355.426,-0.044,0.896,0.344,192,0,0,0,0,0,0,0,0,0,1709548886,0, 2024-03-04 16:11:26.353
57,-99544.36565,-31138.30461,-19177.10384,-31878.52733,-11808.06897,-29980.21602,-42754.95324,-78359.04698,-0.044,0.896,0.344,192,0,0,0,0,0,0,0,0,0,1709548886,0, 2024-03-04 16:11:26.353
58,-99569.3102,-31152.945,-19183.80936,-31886.32809,-12345.00257,-29969.37543,-42742.34685,-78318.41151,-0.044,0.896,0.344,192,0,0,0,0,0,0,0,0,0,1709548886,0, 2024-03-04 16:11:26.353
59,-99582.58713,-31162.24333,-19177.05914,-31891.98308,-11917.4137,-29959.09363,-42722.36439,-78296.37269,-0.044,0.896,0.344,192,0,0,0,0,0,0,0,0,0,1709548886,0, 2024-03-04 16:11:26.353
60,-99568.19261,-31153.16852,-19181.19421,-31885.9034,-11154.79453,-29959.36185,-42723.59374,-78319.41734,-0.046,0.894,0.344,192,254,144,27,240,10,192,0,0,0,1709548886,0, 2024-03-04 16:11:26.353
61,-99540.27528,-31129.45332,-19153.20982,-31865.36215,-11072.87539,-29959.87594,-42747.86773,-78341.54556,-0.046,0.894,0.344,192,0,0,0,0,0,0,0,0,0,1709548886,0, 2024-03-04 16:11:26.353
62,-99545.88557,-31128.98393,-19158.48484,-31862.1882,-11795.84256,-29959.09363,-42753.79095,-78332.11313,-0.046,0.894,0.344,192,0,0,0,0,0,0,0,0,0,1709548886,0, 2024-03-04 16:11:26.353
63,-99577.6921,-31151.38038,-19184.23405,-31880.69545,-12347.34951,-29958.51248,-42745.14082,-78327.12869,-0.046,0.894,0.344,192,0,0,0,0,0,0,0,0,0,1709548886,0, 2024-03-04 16:11:26.353
64,-99593.51714,-31169.6194,-19197.42157,-31900.74496,-11926.75673,-29961.99935,-42723.72785,-78337.74577,-0.046,0.894,0.344,192,0,0,0,0,0,0,0,0,0,1709548886,0, 2024-03-04 16:11:26.353
65,-99581.06721,-31166.17723,-19194.91818,-31900.5438,-11150.77122,-29967.98962,-42717.80464,-78359.67283,-0.046,0.894,0.344,192,0,0,0,0,0,0,0,0,0,1709548886,0, 2024-03-04 16:11:26.353
66,-99558.58136,-31147.8488,-19183.20586,-31880.6731,-11070.79668,-29965.39682,-42760.38471,-78342.97607,-0.046,0.894,0.344,192,0,0,0,0,0,0,0,0,0,1709548886,0, 2024-03-04 16:11:26.353
67,-99553.19459,-31137.41054,-19175.9192,-31866.41268,-11798.39066,-29951.15876,-42770.39829,-78308.26382,-0.046,0.894,0.344,192,0,0,0,0,0,0,0,0,0,1709548886,0, 2024-03-04 16:11:26.353
68,-99582.92241,-31155.71662,-19194.71701,-31879.98019,-12368.60602,-29944.27442,-42746.01254,-78255.91603,-0.046,0.894,0.344,192,0,0,0,0,0,0,0,0,0,1709548886,0, 2024-03-04 16:11:26.353
69,-99609.47628,-31181.59994,-19207.27869,-31905.34942,-11988.69341,-29953.90802,-42719.39161,-78261.39221,-0.046,0.894,0.344,192,0,0,0,0,0,0,0,0,0,1709548886,0, 2024-03-04 16:11:26.353
70,-99599.4627,-31182.51636,-19204.82,-31914.31247,-11235.61844,-29972.59408,-42722.94554,-78314.05292,-0.04,0.9,0.342,192,254,192,28,32,10,176,0,0,0,1709548886,0, 2024-03-04 16:11:26.353
71,-99574.98754,-31163.04799,-19193.48767,-31901.34846,-11122.13863,-29979.09844,-42743.10681,-78341.27734,-0.04,0.9,0.342,192,0,0,0,0,0,0,0,0,0,1709548886,0, 2024-03-04 16:11:26.353
72,-99572.35003,-31158.44353,-19196.41575,-31891.75956,-11819.69187,-29974.56103,-42744.2244,-78309.3814,-0.04,0.9,0.342,192,0,0,0,0,0,0,0,0,0,1709548886,0, 2024-03-04 16:11:26.353
73,-99599.23918,-31179.8118,-19212.84428,-31908.76924,-12404.30175,-29977.93615,-42731.41685,-78301.0442,-0.04,0.9,0.342,192,0,0,0,0,0,0,0,0,0,1709548886,0, 2024-03-04 16:11:26.353
74,-99612.76199,-31192.23937,-19215.48178,-31923.99078,-12029.08302,-29981.66889,-42723.21376,-78301.22302,-0.04,0.9,0.342,192,0,0,0,0,0,0,0,0,0,1709548886,0, 2024-03-04 16:11:26.353
75,-99585.31405,-31170.73699,-19184.54697,-31911.20558,-11259.66892,-29979.81369,-42721.49267,-78320.42316,-0.04,0.9,0.342,192,0,0,0,0,0,0,0,0,0,1709548886,0, 2024-03-04 16:11:26.353
76,-99554.17807,-31146.68651,-19167.55964,-31891.11136,-11103.31847,-29984.12758,-42748.29242,-78333.85656,-0.04,0.9,0.342,192,0,0,0,0,0,0,0,0,0,1709548886,0, 2024-03-04 16:11:26.353
77,-99557.06144,-31144.78661,-19175.47216,-31888.54091,-11780.86689,-29989.29083,-42771.67234,-78346.70882,-0.04,0.9,0.342,192,0,0,0,0,0,0,0,0,0,1709548886,0, 2024-03-04 16:11:26.353
78,-99575.94866,-31152.74383,-19180.12132,-31890.39611,-12352.62452,-29976.08095,-42735.82014,-78312.73416,-0.04,0.9,0.342,192,0,0,0,0,0,0,0,0,0,1709548886,0, 2024-03-04 16:11:26.353
79,-99582.7883,-31156.36482,-19174.26517,-31894.86645,-12015.09082,-29967.6767,-42716.19531,-78302.67588,-0.04,0.9,0.342,192,0,0,0,0,0,0,0,0,0,1709548886,0, 2024-03-04 16:11:26.353
80,-99563.85637,-31145.61363,-19162.73167,-31891.82662,-11239.93233,-29971.49884,-42720.01746,-78329.1627,-0.034,0.9,0.34,192,254,240,28,32,10,160,0,0,0,1709548886,0, 2024-03-04 16:11:26.353
81,-99538.66595,-31129.02863,-19147.86776,-31875.44279,-11057.65385,-29974.53868,-42739.86581,-78341.9926,-0.034,0.9,0.34,192,0,0,0,0,0,0,0,0,0,1709548886,0, 2024-03-04 16:11:26.353
82,-99544.58917,-31130.45915,-19155.19913,-31870.81598,-11755.02828,-29975.18688,-42753.07569,-78334.68358,-0.034,0.9,0.34,192,0,0,0,0,0,0,0,0,0,1709548886,0, 2024-03-04 16:11:26.353
83,-99575.52398,-31149.32402,-19177.93085,-31885.72459,-12363.06278,-29972.66113,-42737.85415,-78323.37359,-0.034,0.9,0.34,192,0,0,0,0,0,0,0,0,0,1709548886,0, 2024-03-04 16:11:26.353
84,-99597.07106,-31171.60871,-19188.48088,-31909.99858,-12021.70694,-29980.48424,-42712.93196,-78348.27344,-0.034,0.9,0.34,192,0,0,0,0,0,0,0,0,0,1709548886,0, 2024-03-04 16:11:26.353
85,-99584.82231,-31166.28899,-19187.87738,-31909.59625,-11254.48331,-29983.54643,-42720.33038,-78335.28707,-0.034,0.9,0.34,192,0,0,0,0,0,0,0,0,0,1709548886,0, 2024-03-04 16:11:26.353
86,-99550.35592,-31134.66127,-19155.64616,-31882.23772,-11072.18249,-29973.5552,-42732.33327,-78337.14227,-0.034,0.9,0.34,192,0,0,0,0,0,0,0,0,0,1709548886,0, 2024-03-04 16:11:26.353
87,-99560.01187,-31136.06943,-19167.49259,-31885.34461,-11752.03314,-29979.32195,-42749.07473,-78367.87592,-0.034,0.9,0.34,192,0,0,0,0,0,0,0,0,0,1709548886,0, 2024-03-04 16:11:26.353
88,-99599.28389,-31160.29872,-19204.86471,-31904.74593,-12363.2416,-29977.06443,-42760.16119,-78325.29584,-0.034,0.9,0.34,192,0,0,0,0,0,0,0,0,0,1709548886,0, 2024-03-04 16:11:26.353
89,-99613.03021,-31166.75838,-19194.60525,-31909.66331,-12043.16462,-29961.77583,-42728.53347,-78278.31248,-0.034,0.9,0.34,192,0,0,0,0,0,0,0,0,0,1709548886,0, 2024-03-04 16:11:26.353
90,-99599.57446,-31160.74576,-19192.83947,-31910.53503,-11252.78458,-29966.22383,-42725.56069,-78307.25799,-0.04,0.9,0.342,192,254,192,28,32,10,176,0,0,0,1709548887,0, 2024-03-04 16:11:26.833
91,-99576.12748,-31143.40081,-19182.3565,-31898.91212,-11044.1981,-29972.99641,-42751.93575,-78344.92068,-0.04,0.9,0.342,192,0,0,0,0,0,0,0,0,0,1709548887,0, 2024-03-04 16:11:26.833
92,-99586.83396,-31144.42899,-19196.86278,-31896.92281,-11721.18774,-29974.35987,-42774.17574,-78313.49412,-0.04,0.9,0.342,192,0,0,0,0,0,0,0,0,0,1709548887,0, 2024-03-04 16:11:26.833
93,-99615.4889,-31159.87404,-19210.5644,-31907.83047,-12353.22802,-29968.66017,-42752.04751,-78279.76534,-0.04,0.9,0.342,192,0,0,0,0,0,0,0,0,0,1709548887,0, 2024-03-04 16:11:26.833
94,-99636.07486,-31180.90703,-19217.0017,-31929.62342,-12043.85752,-29977.08678,-42733.89789,-78294.91982,-0.04,0.9,0.342,192,0,0,0,0,0,0,0,0,0,1709548887,0, 2024-03-04 16:11:26.833
95,-99621.74739,-31177.19664,-19212.15137,-31931.32215,-11250.5047,-29983.90406,-42733.45086,-78296.17152,-0.04,0.9,0.342,192,0,0,0,0,0,0,0,0,0,1709548887,0, 2024-03-04 16:11:26.833
96,-99591.8184,-31158.86821,-19194.5382,-31918.73812,-11029.22243,-29992.17421,-42749.3206,-78312.73416,-0.04,0.9,0.342,192,0,0,0,0,0,0,0,0,0,1709548887,0, 2024-03-04 16:11:26.833
97,-99581.84953,-31147.17825,-19191.72188,-31911.58556,-11686.1402,-29993.89529,-42771.67234,-78328.76037,-0.04,0.9,0.342,192,0,0,0,0,0,0,0,0,0,1709548887,0, 2024-03-04 16:11:26.833
98,-99614.1478,-31167.65245,-19214.16303,-31933.2444,-12321.48854,-30003.35008,-42763.71512,-78319.08206,-0.04,0.9,0.342,192,0,0,0,0,0,0,0,0,0,1709548887,0, 2024-03-04 16:11:26.833
99,-99619.02048,-31170.71464,-19201.91427,-31936.32894,-12030.62529,-29995.68343,-42730.81335,-78295.948,-0.04,0.9,0.342,192,0,0,0,0,0,0,0,0,0,1709548887,0, 2024-03-04 16:11:26.833
100,-99597.20517,-31161.2822,-19200.01438,-31933.87025,-11255.84677,-30003.23832,-42742.88329,-78331.86726,-0.044,0.902,0.346,192,254,160,28,48,10,208,0,0,0,1709548887,0, 2024-03-04 16:11:26.833
101,-99568.0138,-31140.62919,-19171.18063,-31914.51364,-11025.60145,-30005.18292,-42772.05232,-78353.72726,-0.044,0.902,0.346,192,0,0,0,0,0,0,0,0,0,1709548887,0, 2024-03-04 16:11:26.833
102,-99569.06433,-31135.95767,-19173.01347,-31903.31541,-11671.43275,-30002.16544,-42785.59748,-78358.667,-0.044,0.902,0.346,192,0,0,0,0,0,0,0,0,0,1709548887,0, 2024-03-04 16:11:26.833
103,-99590.14202,-31146.17242,-19186.8939,-31906.08703,-12311.83258,-29989.5367,-42761.5023,-78333.0519,-0.044,0.902,0.346,192,0,0,0,0,0,0,0,0,0,1709548887,0, 2024-03-04 16:11:26.833
104,-99598.68039,-31157.34829,-19193.48767,-31919.38632,-12046.1821,-29988.2403,-42739.7764,-78339.4445,-0.044,0.902,0.346,192,0,0,0,0,0,0,0,0,0,1709548887,0, 2024-03-04 16:11:26.833
105,-99584.24116,-31149.99457,-19182.4012,-31918.80517,-11250.92939,-29993.89529,-42743.88912,-78360.90217,-0.044,0.902,0.346,192,0,0,0,0,0,0,0,0,0,1709548887,0, 2024-03-04 16:11:26.833
106,-99554.73686,-31122.30076,-19162.17287,-31890.86549,-11005.17196,-29980.97598,-42751.37696,-78314.32114,-0.044,0.902,0.346,192,0,0,0,0,0,0,0,0,0,1709548887,0, 2024-03-04 16:11:26.833
107,-99555.51917,-31117.85276,-19166.10678,-31882.77416,-11646.97995,-29976.1033,-42764.22921,-78284.3698,-0.044,0.902,0.346,192,0,0,0,0,0,0,0,0,0,1709548887,0, 2024-03-04 16:11:26.833
108,-99590.29848,-31143.15494,-19190.17961,-31902.46605,-12295.44876,-29980.21602,-42758.08248,-78282.15698,-0.044,0.902,0.346,192,0,0,0,0,0,0,0,0,0,1709548887,0, 2024-03-04 16:11:26.833
109,-99613.25373,-31165.61844,-19203.5236,-31921.62149,-12039.54363,-29983.18881,-42729.62871,-78285.37563,-0.044,0.902,0.346,192,0,0,0,0,0,0,0,0,0,1709548887,0, 2024-03-04 16:11:26.833
110,-99594.09828,-31151.98388,-19191.20779,-31910.28916,-11270.50951,-29976.81856,-42744.96201,-78296.48445,-0.038,0.9,0.34,192,254,208,28,32,10,160,0,0,0,1709548887,0, 2024-03-04 16:11:26.833
111,-99566.56093,-31130.03446,-19172.34292,-31894.62058,-11016.95132,-29976.95267,-42755.84731,-78319.14911,-0.038,0.9,0.34,192,0,0,0,0,0,0,0,0,0,1709548887,0, 2024-03-04 16:11:26.833
112,-99576.3957,-31134.66127,-19187.00566,-31898.93447,-11655.54066,-29984.06052,-42778.91431,-78334.3483,-0.038,0.9,0.34,192,0,0,0,0,0,0,0,0,0,1709548887,0, 2024-03-04 16:11:26.833
113,-99612.9408,-31157.88474,-19220.53328,-31915.72063,-12327.18823,-29982.80883,-42773.39343,-78326.27932,-0.038,0.9,0.34,192,0,0,0,0,0,0,0,0,0,1709548887,0, 2024-03-04 16:11:26.833
114,-99634.73375,-31175.45321,-19225.65183,-31930.76336,-12090.34915,-29979.45606,-42745.5655,-78310.87897,-0.038,0.9,0.34,192,0,0,0,0,0,0,0,0,0,1709548887,0, 2024-03-04 16:11:26.833
115,-99619.73573,-31164.83613,-19205.19998,-31921.50973,-11288.97205,-29970.02363,-42736.31188,-78269.0365,-0.038,0.9,0.34,192,0,0,0,0,0,0,0,0,0,1709548887,0, 2024-03-04 16:11:26.833
116,-99590.74552,-31146.06066,-19191.3419,-31905.21531,-11027.03196,-29970.76124,-42738.77057,-78268.58947,-0.038,0.9,0.34,192,0,0,0,0,0,0,0,0,0,1709548887,0, 2024-03-04 16:11:26.833
117,-99593.74065,-31145.83715,-19194.87348,-31903.49423,-11645.19181,-29976.23741,-42774.95805,-78272.1434,-0.038,0.9,0.34,192,0,0,0,0,0,0,0,0,0,1709548887,0, 2024-03-04 16:11:26.833
118,-99622.37324,-31162.10922,-19212.68782,-31917.84405,-12316.16882,-29977.64557,-42766.66555,-78278.42424,-0.038,0.9,0.34,192,0,0,0,0,0,0,0,0,0,1709548887,0, 2024-03-04 16:11:26.833
119,-99646.2896,-31182.60577,-19228.22228,-31939.01115,-12097.72522,-29983.92641,-42741.56454,-78264.63321,-0.038,0.9,0.34,192,0,0,0,0,0,0,0,0,0,1709548887,0, 2024-03-04 16:11:26.833
120,-99629.01171,-31174.00034,-19213.69364,-31936.37364,-11285.7534,-29986.40746,-42727.52765,-78235.84416,-0.038,0.9,0.34,192,0,0,0,0,0,0,0,0,0,1709548887,0, 2024-03-04 16:11:26.833
121,-99595.64055,-31148.42995,-19196.75102,-31919.43102,-11004.85903,-29991.21308,-42746.88426,-78260.0511,-0.038,0.902,0.342,192,254,208,28,48,10,176,0,0,0,1709548887,0, 2024-03-04 16:11:26.833
122,-99595.55114,-31144.11606,-19202.67423,-31916.48059,-11609.54077,-29999.61734,-42774.06398,-78280.65941,-0.038,0.902,0.342,192,0,0,0,0,0,0,0,0,0,1709548887,0, 2024-03-04 16:11:26.833
123,-99620.27217,-31157.50476,-19223.03667,-31925.68951,-12294.57704,-29996.6222,-42766.46438,-78274.66914,-0.038,0.902,0.342,192,0,0,0,0,0,0,0,0,0,1709548887,0, 2024-03-04 16:11:26.833
124,-99630.8669,-31167.27247,-19227.66348,-31936.396,-12089.87976,-29996.13047,-42752.94158,-78286.9179,-0.038,0.902,0.342,192,0,0,0,0,0,0,0,0,0,1709548887,0, 2024-03-04 16:11:26.833
125,-99612.35966,-31157.72827,-19207.99395,-31933.75849,-11307.94869,-30002.38895,-42748.87356,-78310.65545,-0.038,0.902,0.342,192,0,0,0,0,0,0,0,0,0,1709548887,0, 2024-03-04 16:11:26.833
126,-99586.29752,-31139.5116,-19198.76268,-31919.27456,-11022.71807,-30005.96523,-42772.85698,-78321.33959,-0.038,0.902,0.342,192,0,0,0,0,0,0,0,0,0,1709548887,0, 2024-03-04 16:11:26.833
127,-99574.65226,-31125.13943,-19172.70054,-31899.985,-11617.52035,-29993.56002,-42776.16504,-78284.21334,-0.038,0.902,0.342,192,0,0,0,0,0,0,0,0,0,1709548887,0, 2024-03-04 16:11:26.833
128,-99600.7144,-31140.00334,-19191.81129,-31908.83629,-12300.58966,-29987.97208,-42766.28557,-78259.78288,-0.038,0.902,0.342,192,0,0,0,0,0,0,0,0,0,1709548887,0, 2024-03-04 16:11:26.833
129,-99621.38976,-31155.5378,-19201.46724,-31922.85084,-12099.42396,-29987.32388,-42727.23707,-78262.10746,-0.038,0.902,0.342,192,0,0,0,0,0,0,0,0,0,1709548887,0, 2024-03-04 16:11:26.833
130,-99609.92332,-31152.45326,-19199.81321,-31924.46016,-11311.23439,-29995.41521,-42730.1428,-78295.56802,-0.038,0.902,0.342,192,0,0,0,0,0,0,0,0,0,1709548887,0, 2024-03-04 16:11:26.833
131,-99577.84856,-31127.9334,-19179.1155,-31901.05789,-11013.86678,-29991.79423,-42766.62085,-78309.18024,-0.04,0.896,0.334,192,254,192,28,0,10,112,0,0,0,1709548887,0, 2024-03-04 16:11:26.833
132,-99580.77664,-31127.30755,-19183.6529,-31896.40872,-11601.20357,-29993.40355,-42781.79768,-78324.87116,-0.04,0.896,0.334,192,0,0,0,0,0,0,0,0,0,1709548887,0, 2024-03-04 16:11:26.833
133,-99618.05935,-31151.93917,-19210.13972,-31913.91014,-12293.59356,-29994.34233,-42773.21461,-78317.42803,-0.04,0.896,0.334,192,0,0,0,0,0,0,0,0,0,1709548887,0, 2024-03-04 16:11:26.833
134,-99636.96893,-31165.88666,-19216.26409,-31923.47669,-12128.52593,-29983.41232,-42738.74822,-78270.71288,-0.04,0.896,0.334,192,0,0,0,0,0,0,0,0,0,1709548887,0, 2024-03-04 16:11:26.833
135,-99621.97091,-31161.72924,-19203.18832,-31920.72742,-11344.56084,-29980.08191,-42736.69186,-78271.47284,-0.04,0.896,0.334,192,0,0,0,0,0,0,0,0,0,1709548887,0, 2024-03-04 16:11:26.833
136,-99597.85337,-31149.59224,-19190.55959,-31910.35621,-11026.04848,-29983.54643,-42758.50716,-78286.06853,-0.04,0.896,0.334,192,0,0,0,0,0,0,0,0,0,1709548887,0, 2024-03-04 16:11:26.833
137,-99600.53558,-31148.76522,-19201.22137,-31906.48936,-11597.7167,-29983.45703,-42775.13686,-78278.13366,-0.04,0.896,0.334,192,0,0,0,0,0,0,0,0,0,1709548887,0, 2024-03-04 16:11:26.833
138,-99641.37222,-31176.19081,-19218.56632,-31928.25996,-12289.41378,-29987.90502,-42764.22921,-78271.65166,-0.04,0.896,0.334,192,0,0,0,0,0,0,0,0,0,1709548887,0, 2024-03-04 16:11:26.833
139,-99661.37703,-31191.61352,-19221.76262,-31942.09569,-12142.27225,-29983.0547,-42740.60342,-78269.93057,-0.04,0.896,0.334,192,0,0,0,0,0,0,0,0,0,1709548887,0, 2024-03-04 16:11:26.833
140,-99644.85909,-31182.49401,-19223.70723,-31940.17344,-11348.13712,-29985.044,-42738.14472,-78300.75363,-0.04,0.896,0.334,192,0,0,0,0,0,0,0,0,0,1709548887,0, 2024-03-04 16:11:26.833
141,-99613.07491,-31159.9858,-19202.13779,-31919.65454,-11026.00378,-29983.52408,-42754.34974,-78289.91303,-0.042,0.894,0.332,192,254,176,27,240,10,96,0,0,0,1709548887,0, 2024-03-04 16:11:26.833
142,-99602.0555,-31144.09371,-19185.08341,-31899.82854,-11597.672,-29970.3142,-42765.12328,-78248.5176,-0.042,0.894,0.332,192,0,0,0,0,0,0,0,0,0,1709548887,0, 2024-03-04 16:11:26.833
143,-99629.48109,-31158.30942,-19207.79278,-31910.33386,-12310.17856,-29967.1179,-42744.93965,-78222.47782,-0.042,0.894,0.332,192,0,0,0,0,0,0,0,0,0,1709548887,0, 2024-03-04 16:11:26.833
144,-99653.06218,-31179.92356,-19225.80829,-31932.77501,-12150.52004,-29973.48815,-42725.56069,-78229.47392,-0.042,0.894,0.332,192,0,0,0,0,0,0,0,0,0,1709548887,0, 2024-03-04 16:11:26.833
145,-99637.12539,-31172.10045,-19224.19896,-31936.10542,-11350.01467,-29981.49007,-42745.27493,-78257.95004,-0.042,0.894,0.332,192,0,0,0,0,0,0,0,0,0,1709548887,0, 2024-03-04 16:11:26.833
146,-99601.60847,-31146.41829,-19206.09405,-31919.29691,-11014.40323,-29984.59697,-42759.40123,-78266.15313,-0.042,0.894,0.332,192,0,0,0,0,0,0,0,0,0,1709548887,0, 2024-03-04 16:11:26.833
147,-99598.03219,-31143.24434,-19206.09405,-31915.9665,-11586.92081,-29991.72717,-42777.70731,-78284.28039,-0.042,0.894,0.332,192,0,0,0,0,0,0,0,0,0,1709548887,0, 2024-03-04 16:11:26.833
148,-99624.72017,-31158.19766,-19222.7014,-31926.94121,-12305.84232,-29991.77188,-42774.44396,-78272.00929,-0.042,0.894,0.332,192,0,0,0,0,0,0,0,0,0,1709548887,0, 2024-03-04 16:11:26.833
149,-99639.65114,-31167.98772,-19227.887,-31939.50289,-12164.624,-29992.1295,-42760.27295,-78256.60893,-0.042,0.894,0.332,192,0,0,0,0,0,0,0,0,0,1709548887,0, 2024-03-04 16:11:26.833
150,-99617.94759,-31158.84586,-19222.41082,-31936.86538,-11357.39074,-29995.45991,-42755.13205,-78276.05495,-0.042,0.894,0.332,192,0,0,0,0,0,0,0,0,0,1709548887,0, 2024-03-04 16:11:26.833
151,-99581.11192,-31133.7225,-19201.5343,-31917.88875,-10983.51311,-29997.91861,-42764.94447,-78303.32408,-0.042,0.898,0.332,192,254,176,28,16,10,96,0,0,0,1709548887,0, 2024-03-04 16:11:26.833
152,-99578.13914,-31131.08499,-19189.24084,-31912.1667,-11541.18914,-30005.11587,-42779.09312,-78336.15879,-0.042,0.898,0.332,192,0,0,0,0,0,0,0,0,0,1709548887,0, 2024-03-04 16:11:26.833
153,-99609.94567,-31147.51353,-19202.13779,-31920.68272,-12269.67719,-30001.89722,-42772.09702,-78304.21815,-0.042,0.898,0.332,192,0,0,0,0,0,0,0,0,0,1709548887,0, 2024-03-04 16:11:26.833
154,-99624.29549,-31156.99067,-19210.00561,-31928.68464,-12140.26059,-29992.19656,-42745.99019,-78272.12104,-0.042,0.898,0.332,192,0,0,0,0,0,0,0,0,0,1709548887,0, 2024-03-04 16:11:26.833
155,-99611.19737,-31156.05189,-19200.57317,-31927.96939,-11350.61817,-29994.69995,-42738.92704,-78289.06367,-0.042,0.898,0.332,192,0,0,0,0,0,0,0,0,0,1709548887,0, 2024-03-04 16:11:26.833
156,-99582.05069,-31138.8187,-19180.34484,-31910.44562,-10978.55103,-29995.50462,-42753.76859,-78307.45915,-0.042,0.898,0.332,192,0,0,0,0,0,0,0,0,0,1709548887,0, 2024-03-04 16:11:26.833
157,-99572.32768,-31132.22493,-19178.46729,-31901.32611,-11528.71687,-29993.67177,-42772.18643,-78311.326,-0.042,0.898,0.332,192,0,0,0,0,0,0,0,0,0,1709548887,0, 2024-03-04 16:11:26.833
158,-99608.89514,-31158.75645,-19204.57413,-31920.01217,-12255.41678,-29996.30928,-42773.48283,-78313.47177,-0.042,0.898,0.332,192,0,0,0,0,0,0,0,0,0,1709548887,0, 2024-03-04 16:11:26.833
159,-99629.48109,-31174.84971,-19204.06004,-31927.03061,-12133.62213,-29982.92059,-42739.53053,-78269.57295,-0.042,0.898,0.332,192,0,0,0,0,0,0,0,0,0,1709548887,0, 2024-03-04 16:11:26.833
160,-99613.47724,-31170.15584,-19194.26998,-31925.17542,-11368.87954,-29981.49007,-42737.69769,-78284.95095,-0.042,0.898,0.332,192,0,0,0,0,0,0,0,0,0,1709548887,0, 2024-03-04 16:11:26.833
161,-99590.14202,-31155.76132,-19184.77049,-31909.32803,-10994.89015,-29981.2442,-42762.93281,-78293.80224,-0.05,0.898,0.328,192,254,112,28,16,10,64,0,0,0,1709548887,0, 2024-03-04 16:11:26.833
162,-99591.79605,-31153.66026,-19196.25928,-31900.07441,-11521.22903,-29977.17619,-42773.88516,-78271.71871,-0.05,0.898,0.328,192,0,0,0,0,0,0,0,0,0,1709548887,0, 2024-03-04 16:11:26.833
163,-99613.16432,-31162.60095,-19194.5829,-31902.04136,-12241.31283,-29964.32393,-42760.63058,-78252.33975,-0.05,0.898,0.328,192,0,0,0,0,0,0,0,0,0,1709548887,0, 2024-03-04 16:11:26.833
164,-99636.67835,-31178.40364,-19214.09598,-31916.83822,-12146.94377,-29959.13833,-42737.96591,-78233.31842,-0.05,0.898,0.328,192,0,0,0,0,0,0,0,0,0,1709548887,0, 2024-03-04 16:11:26.833
165,-99627.76001,-31177.48722,-19199.6791,-31922.3144,-11380.94948,-29966.62616,-42739.86581,-78238.95106,-0.05,0.898,0.328,192,0,0,0,0,0,0,0,0,0,1709548887,0, 2024-03-04 16:11:26.833
166,-99605.18475,-31167.69715,-19198.00272,-31918.89458,-10986.41884,-29982.31709,-42759.44594,-78280.07827,-0.05,0.898,0.328,192,0,0,0,0,0,0,0,0,0,1709548887,0, 2024-03-04 16:11:26.834
167,-99598.34511,-31158.75645,-19200.79669,-31909.93153,-11510.03081,-29981.8924,-42767.53727,-78290.74005,-0.05,0.898,0.328,192,0,0,0,0,0,0,0,0,0,1709548887,0, 2024-03-04 16:11:26.834
168,-99627.64825,-31178.13542,-19222.65669,-31927.18708,-12247.77248,-29984.61932,-42768.18547,-78283.14045,-0.05,0.898,0.328,192,0,0,0,0,0,0,0,0,0,1709548887,0, 2024-03-04 16:11:26.834
169,-99646.82605,-31194.11691,-19227.55173,-31943.36974,-12173.76586,-29981.31126,-42747.51011,-78251.40098,-0.05,0.898,0.328,192,0,0,0,0,0,0,0,0,0,1709548887,0, 2024-03-04 16:11:26.834
170,-99637.01363,-31196.30738,-19219.52745,-31950.49995,-11411.95135,-29990.43077,-42746.23606,-78261.86159,-0.05,0.898,0.328,192,0,0,0,0,0,0,0,0,0,1709548887,0, 2024-03-04 16:11:26.834
171,-99611.71146,-31184.70683,-19210.02796,-31944.30851,-11019.56648,-30002.23249,-42766.66555,-78279.63123,-0.042,0.896,0.334,192,254,176,28,0,10,112,0,0,0,1709548887,0, 2024-03-04 16:11:26.834
172,-99596.33346,-31167.92067,-19205.22233,-31927.52235,-11521.18433,-29998.20918,-42774.22044,-78262.88977,-0.042,0.896,0.334,192,0,0,0,0,0,0,0,0,0,1709548887,0, 2024-03-04 16:11:26.834
173,-99624.94369,-31185.04211,-19228.98224,-31942.2745,-12272.3147,-30006.97106,-42769.70539,-78288.39311,-0.042,0.896,0.334,192,0,0,0,0,0,0,0,0,0,1709548887,0, 2024-03-04 16:11:26.834
174,-99649.35179,-31203.01291,-19242.43799,-31960.96056,-12210.46742,-30015.1965,-42774.46631,-78313.47177,-0.042,0.896,0.334,192,0,0,0,0,0,0,0,0,0,1709548887,0, 2024-03-04 16:11:26.834
175,-99630.39751,-31190.7865,-19232.53616,-31955.14911,-11416.35465,-30017.43168,-42772.09702,-78310.38723,-0.042,0.896,0.334,192,0,0,0,0,0,0,0,0,0,1709548887,0, 2024-03-04 16:11:26.834
176,-99592.64542,-31163.04799,-19207.85984,-31933.75849,-11006.04367,-30017.90107,-42772.11938,-78339.66802,-0.042,0.896,0.334,192,0,0,0,0,0,0,0,0,0,1709548887,0, 2024-03-04 16:11:26.834
177,-99579.65905,-31149.07815,-19186.87155,-31918.98399,-11522.7266,-30014.34714,-42786.80447,-78342.14906,-0.042,0.896,0.334,192,0,0,0,0,0,0,0,0,0,1709548887,0, 2024-03-04 16:11:26.834
178,-99608.67162,-31166.28899,-19213.7607,-31932.30563,-12256.42261,-30013.02838,-42773.43813,-78297.60203,-0.042,0.896,0.334,192,0,0,0,0,0,0,0,0,0,1709548887,0, 2024-03-04 16:11:26.834
179,-99627.51414,-31181.55523,-19214.96769,-31943.19093,-12199.02333,-30004.49002,-42747.55481,-78261.36986,-0.042,0.896,0.334,192,0,0,0,0,0,0,0,0,0,1709548887,0, 2024-03-04 16:11:26.834
180,-99612.78434,-31176.30257,-19186.8939,-31938.94409,-11421.22733,-30003.90887,-42749.9688,-78283.05105,-0.042,0.896,0.334,192,0,0,0,0,0,0,0,0,0,1709548887,0, 2024-03-04 16:11:26.834
181,-99581.91658,-31155.35899,-19172.34292,-31920.34744,-10993.68316,-30003.46184,-42766.86672,-78311.77304,-0.034,0.898,0.336,192,254,240,28,16,10,128,0,0,0,1709548887,0, 2024-03-04 16:11:26.834
182,-99573.22175,-31146.17242,-19172.78995,-31909.05981,-11467.09311,-30002.3219,-42785.28455,-78318.83619,-0.034,0.898,0.336,192,0,0,0,0,0,0,0,0,0,1709548887,0, 2024-03-04 16:11:26.834
183,-99594.41121,-31155.89543,-19178.04261,-31910.66914,-12202.68902,-29992.93417,-42759.37888,-78291.70117,-0.034,0.898,0.336,192,0,0,0,0,0,0,0,0,0,1709548887,0, 2024-03-04 16:11:26.834
184,-99618.90872,-31173.21803,-19191.74423,-31925.98008,-12166.43449,-29992.7777,-42737.54123,-78280.5253,-0.034,0.898,0.336,192,0,0,0,0,0,0,0,0,0,1709548887,0, 2024-03-04 16:11:26.834
185,-99615.5336,-31176.59315,-19191.65482,-31931.92565,-11378.24492,-30000.31024,-42734.92607,-78290.00244,-0.034,0.898,0.336,192,0,0,0,0,0,0,0,0,0,1709548887,0, 2024-03-04 16:11:26.834
186,-99587.34805,-31157.57181,-19179.1602,-31917.19585,-10939.30136,-30001.87486,-42749.65587,-78317.80801,-0.034,0.898,0.336,192,0,0,0,0,0,0,0,0,0,1709548887,0, 2024-03-04 16:11:26.834
187,-99579.34613,-31147.93821,-19179.49548,-31905.32707,-11435.39833,-29997.33746,-42771.56058,-78323.95474,-0.034,0.898,0.336,192,0,0,0,0,0,0,0,0,0,1709548887,0, 2024-03-04 16:11:26.834
188,-99607.01759,-31163.94206,-19200.26025,-31915.07243,-12200.16327,-29992.82241,-42773.88516,-78312.06361,-0.034,0.898,0.336,192,0,0,0,0,0,0,0,0,0,1709548887,0, 2024-03-04 16:11:26.834
189,-99629.95048,-31181.06349,-19216.97935,-31928.1035,-12181.3431,-29984.50756,-42747.95714,-78262.82272,-0.034,0.898,0.336,192,0,0,0,0,0,0,0,0,0,1709548887,0, 2024-03-04 16:11:26.834
190,-99621.68033,-31180.43765,-19217.11346,-31931.45626,-11397.51213,-29986.63097,-42733.69673,-78290.94121,-0.034,0.898,0.336,192,0,0,0,0,0,0,0,0,0,1709548887,0, 2024-03-04 16:11:26.834
191,-99589.1809,-31156.1413,-19167.71611,-31910.53503,-10956.08752,-29981.2442,-42759.98238,-78309.35905,-0.036,0.9,0.336,192,254,224,28,32,10,128,0,0,0,1709548887,0, 2024-03-04 16:11:26.834
192,-99582.1848,-31144.5631,-19170.13009,-31892.22895,-11432.11263,-29966.13442,-42770.51005,-78247.84705,-0.036,0.9,0.336,192,0,0,0,0,0,0,0,0,0,1709548887,0, 2024-03-04 16:11:26.834
193,-99614.34896,-31164.61261,-19200.17084,-31904.90239,-12206.82409,-29964.72627,-42770.93473,-78221.18142,-0.036,0.9,0.336,192,0,0,0,0,0,0,0,0,0,1709548887,0, 2024-03-04 16:11:26.834
194,-99637.84065,-31180.75057,-19216.957,-31924.37076,-12225.15252,-29970.58242,-42749.90174,-78232.98314,-0.036,0.9,0.336,192,0,0,0,0,0,0,0,0,0,1709548887,0, 2024-03-04 16:11:26.834
195,-99629.25758,-31180.83998,-19211.39141,-31932.90912,-11454.33026,-29984.70872,-42742.19039,-78255.89368,-0.036,0.9,0.336,192,0,0,0,0,0,0,0,0,0,1709548887,0, 2024-03-04 16:11:26.834
196,-99603.77659,-31168.74768,-19201.44489,-31930.38338,-10982.01555,-30003.73006,-42754.12622,-78283.1181,-0.036,0.9,0.336,192,0,0,0,0,0,0,0,0,0,1709548887,0, 2024-03-04 16:11:26.834
197,-99594.03123,-31158.48823,-19204.48473,-31924.52722,-11457.43715,-30013.63188,-42793.62175,-78290.8071,-0.036,0.9,0.336,192,0,0,0,0,0,0,0,0,0,1709548887,0, 2024-03-04 16:11:26.834
198,-99619.31105,-31173.37449,-19223.26019,-31940.55342,-12235.99312,-30023.22078,-42797.19803,-78300.37365,-0.036,0.9,0.336,192,0,0,0,0,0,0,0,0,0,1709548887,0, 2024-03-04 16:11:26.834
199,-99642.31099,-31191.07708,-19231.86561,-31963.3969,-12244.48678,-30032.63086,-42761.30113,-78319.99848,-0.036,0.9,0.336,192,0,0,0,0,0,0,0,0,0,1709548887,0, 2024-03-04 16:11:26.834
200,-99633.90674,-31193.13344,-19232.42441,-31973.45519,-11448.76468,-30045.75134,-42757.30017,-78338.75159,-0.036,0.9,0.336,192,0,0,0,0,0,0,0,0,0,1709548887,0, 2024-03-04 16:11:26.834
201,-99600.28971,-31172.23456,-19217.0017,-31956.89254,-10966.34698,-30045.57252,-42773.39343,-78351.91677,-0.044,0.898,0.34,192,254,160,28,16,10,160,0,0,0,1709548887,0, 2024-03-04 16:11:26.834
202,-99591.63959,-31161.59513,-19204.84235,-31942.74389,-11418.56747,-30041.32569,-42791.27482,-78346.30648,-0.044,0.898,0.34,192,0,0,0,0,0,0,0,0,0,1709548887,0, 2024-03-04 16:11:26.834
203,-99616.89706,-31176.14611,-19217.29228,-31947.99655,-12211.00387,-30036.16244,-42778.1767,-78322.34541,-0.044,0.898,0.34,192,0,0,0,0,0,0,0,0,0,1709548887,0, 2024-03-04 16:11:26.834
204,-99633.86203,-31186.87495,-19214.47596,-31954.32209,-12251.90756,-30025.61242,-42763.46925,-78304.68754,-0.044,0.898,0.34,192,0,0,0,0,0,0,0,0,0,1709548887,0, 2024-03-04 16:11:26.834
205,-99610.19154,-31170.15584,-19199.41088,-31939.25702,-11474.35742,-30010.48029,-42755.91436,-78287.85667,-0.044,0.898,0.34,192,0,0,0,0,0,0,0,0,0,1709548887,0, 2024-03-04 16:11:26.834
206,-99581.00016,-31152.83324,-19184.74814,-31926.1589,-10993.77257,-30014.43654,-42773.43813,-78328.93918,-0.044,0.898,0.34,192,0,0,0,0,0,0,0,0,0,1709548887,0, 2024-03-04 16:11:26.834
207,-99566.96326,-31139.91393,-19180.16603,-31912.50198,-11431.71029,-30011.10613,-42783.16114,-78355.56011,-0.044,0.898,0.34,192,0,0,0,0,0,0,0,0,0,1709548887,0, 2024-03-04 16:11:26.834
208,-99587.66098,-31147.64764,-19193.13004,-31913.39605,-12187.84746,-29998.20918,-42783.49641,-78315.10345,-0.044,0.898,0.34,192,0,0,0,0,0,0,0,0,0,1709548887,0, 2024-03-04 16:11:26.834
209,-99618.037,-31171.38519,-19208.37393,-31930.94217,-12226.56068,-29995.77284,-42764.6986,-78260.74401,-0.044,0.898,0.34,192,0,0,0,0,0,0,0,0,0,1709548887,0, 2024-03-04 16:11:26.834
210,-99610.45976,-31168.3677,-19200.70728,-31930.96452,-11465.37202,-29994.23057,-42748.7618,-78262.26393,-0.044,0.898,0.34,192,0,0,0,0,0,0,0,0,0,1709548887,0, 2024-03-04 16:11:27.314
211,-99578.22854,-31147.17825,-19179.92016,-31912.39022,-10983.22254,-29988.9332,-42760.74234,-78280.36884,-0.04,0.904,0.344,192,254,192,28,64,10,192,0,0,0,1709548887,0, 2024-03-04 16:11:27.314
212,-99573.98171,-31144.0043,-19179.56253,-31907.0258,-11408.71035,-29992.44243,-42779.02606,-78304.32991,-0.04,0.904,0.344,192,0,0,0,0,0,0,0,0,0,1709548887,0, 2024-03-04 16:11:27.314
213,-99604.6036,-31161.72924,-19199.05325,-31916.86057,-12190.79789,-29990.05079,-42784.83752,-78291.96939,-0.04,0.904,0.344,192,0,0,0,0,0,0,0,0,0,1709548887,0, 2024-03-04 16:11:27.314
214,-99633.52676,-31184.88564,-19222.52258,-31937.53593,-12250.78997,-29992.84476,-42759.66945,-78301.87122,-0.04,0.904,0.344,192,0,0,0,0,0,0,0,0,0,1709548887,0, 2024-03-04 16:11:27.314
215,-99628.67643,-31186.96436,-19220.91326,-31941.55925,-11468.74714,-29993.87294,-42748.87356,-78290.7177,-0.04,0.904,0.344,192,0,0,0,0,0,0,0,0,0,1709548887,0, 2024-03-04 16:11:27.314
216,-99601.74258,-31171.22873,-19194.80642,-31925.93538,-10961.07196,-29994.96818,-42755.53438,-78277.41841,-0.04,0.904,0.344,192,0,0,0,0,0,0,0,0,0,1709548887,0, 2024-03-04 16:11:27.314
217,-99599.52976,-31168.65828,-19192.16891,-31921.88971,-11379.40721,-30001.29372,-42769.32541,-78277.30665,-0.04,0.904,0.344,192,0,0,0,0,0,0,0,0,0,1709548887,0, 2024-03-04 16:11:27.314
218,-99618.86401,-31176.36963,-19210.27383,-31927.20943,-12169.1614,-29996.06341,-42776.56737,-78270.64583,-0.04,0.904,0.344,192,0,0,0,0,0,0,0,0,0,1709548887,0, 2024-03-04 16:11:27.314
219,-99641.26046,-31191.74763,-19221.02502,-31942.14039,-12244.24091,-29995.90695,-42760.87645,-78253.72556,-0.04,0.904,0.344,192,0,0,0,0,0,0,0,0,0,1709548887,0, 2024-03-04 16:11:27.314
220,-99637.863,-31196.86618,-19222.07555,-31953.60684,-11480.83943,-30008.73685,-42749.25354,-78250.52926,-0.04,0.904,0.344,192,0,0,0,0,0,0,0,0,0,1709548887,0, 2024-03-04 16:11:27.314
221,-99610.50446,-31183.58924,-19208.28452,-31952.08692,-10969.09624,-30026.6853,-42767.73843,-78305.62631,-0.032,0.902,0.348,192,255,0,28,48,10,224,0,0,0,1709548887,0, 2024-03-04 16:11:27.314
222,-99592.60071,-31165.97607,-19195.58873,-31936.99949,-11386.71623,-30025.12068,-42781.82003,-78303.90523,-0.032,0.902,0.348,192,0,0,0,0,0,0,0,0,0,1709548887,0, 2024-03-04 16:11:27.314
223,-99612.35966,-31172.8604,-19210.11737,-31940.79929,-12184.02531,-30020.47152,-42779.76367,-78289.62246,-0.032,0.902,0.348,192,0,0,0,0,0,0,0,0,0,1709548887,0, 2024-03-04 16:11:27.314
224,-99638.06416,-31190.45123,-19223.75193,-31958.68068,-12248.35363,-30022.93021,-42760.2506,-78294.83042,-0.032,0.902,0.348,192,0,0,0,0,0,0,0,0,0,1709548887,0, 2024-03-04 16:11:27.314
225,-99626.01657,-31185.91382,-19214.99005,-31959.44064,-11465.97552,-30024.53953,-42753.9027,-78291.72352,-0.032,0.902,0.348,192,0,0,0,0,0,0,0,0,0,1709548887,0, 2024-03-04 16:11:27.314
226,-99590.56671,-31159.89639,-19192.72771,-31936.03837,-10934.49574,-30019.30923,-42764.18451,-78297.37852,-0.032,0.902,0.348,192,0,0,0,0,0,0,0,0,0,1709548887,0, 2024-03-04 16:11:27.314
227,-99574.47345,-31142.95377,-19190.55959,-31920.05687,-11345.72313,-30016.42585,-42780.92596,-78301.22302,-0.032,0.902,0.348,192,0,0,0,0,0,0,0,0,0,1709548887,0, 2024-03-04 16:11:27.314
228,-99599.418,-31154.2861,-19211.97256,-31927.58941,-12138.89714,-30015.33061,-42785.28455,-78310.18607,-0.032,0.902,0.348,192,0,0,0,0,0,0,0,0,0,1709548887,0, 2024-03-04 16:11:27.314
229,-99624.38489,-31172.25691,-19211.36906,-31939.25702,-12237.6695,-30010.97202,-42765.77148,-78317.0257,-0.032,0.902,0.348,192,0,0,0,0,0,0,0,0,0,1709548887,0, 2024-03-04 16:11:27.314
230,-99613.70076,-31168.85944,-19203.85888,-31937.55829,-11477.35256,-30007.93219,-42752.82982,-78325.42996,-0.032,0.902,0.348,192,0,0,0,0,0,0,0,0,0,1709548887,0, 2024-03-04 16:11:27.314
231,-99575.54633,-31139.82453,-19170.33126,-31914.29012,-10955.39462,-30001.58429,-42756.29434,-78321.78662,-0.038,0.898,0.35,192,254,208,28,16,10,240,0,0,0,1709548887,0, 2024-03-04 16:11:27.314
232,-99563.85637,-31128.91687,-19172.14175,-31900.09676,-11341.52101,-29996.89043,-42784.0105,-78306.7439,-0.038,0.898,0.35,192,0,0,0,0,0,0,0,0,0,1709548887,0, 2024-03-04 16:11:27.314
233,-99585.85049,-31137.94698,-19187.5421,-31901.8849,-12134.65031,-29988.26265,-42787.74325,-78292.0588,-0.038,0.898,0.35,192,0,0,0,0,0,0,0,0,0,1709548887,0, 2024-03-04 16:11:27.314
234,-99613.61135,-31160.0305,-19199.27677,-31921.86736,-12252.08637,-29992.17421,-42757.59074,-78305.46985,-0.038,0.898,0.35,192,0,0,0,0,0,0,0,0,0,1709548887,0, 2024-03-04 16:11:27.314
235,-99612.69493,-31167.36188,-19200.48376,-31931.05393,-11491.03182,-30000.08672,-42766.41968,-78328.49214,-0.038,0.898,0.35,192,0,0,0,0,0,0,0,0,0,1709548887,0, 2024-03-04 16:11:27.314
236,-99589.67264,-31154.68844,-19186.98331,-31920.32509,-10956.80278,-30002.72423,-42782.51294,-78332.18018,-0.038,0.898,0.35,192,0,0,0,0,0,0,0,0,0,1709548887,0, 2024-03-04 16:11:27.314
237,-99581.80482,-31147.42412,-19183.02705,-31908.47867,-11332.31209,-29997.80685,-42786.84918,-78295.45627,-0.038,0.898,0.35,192,0,0,0,0,0,0,0,0,0,1709548887,0, 2024-03-04 16:11:27.314
238,-99604.5589,-31158.6447,-19195.09699,-31912.68079,-12136.48315,-29989.24613,-42777.68496,-78259.46996,-0.038,0.898,0.35,192,0,0,0,0,0,0,0,0,0,1709548887,0, 2024-03-04 16:11:27.314
239,-99631.09042,-31177.01783,-19210.65381,-31931.65743,-12283.60233,-29991.28014,-42747.91244,-78278.08896,-0.038,0.898,0.35,192,0,0,0,0,0,0,0,0,0,1709548887,0, 2024-03-04 16:11:27.314
240,-99625.61424,-31176.86137,-19205.64702,-31933.46792,-11530.68382,-29988.41911,-42741.94452,-78270.44466,-0.038,0.898,0.35,192,0,0,0,0,0,0,0,0,0,1709548887,0, 2024-03-04 16:11:27.314
241,-99596.28875,-31158.22001,-19196.72867,-31918.67106,-10961.38489,-29987.5921,-42757.99307,-78259.46996,-0.042,0.894,0.346,192,254,176,27,240,10,208,0,0,0,1709548887,0, 2024-03-04 16:11:27.314
242,-99589.31501,-31154.2861,-19194.91818,-31914.0666,-11323.93018,-29995.77284,-42779.22723,-78277.2843,-0.042,0.894,0.346,192,0,0,0,0,0,0,0,0,0,1709548887,0, 2024-03-04 16:11:27.314
243,-99611.01855,-31168.03243,-19208.6645,-31923.7002,-12137.7572,-29998.58916,-42779.16018,-78272.27751,-0.042,0.894,0.346,192,0,0,0,0,0,0,0,0,0,1709548887,0, 2024-03-04 16:11:27.314
244,-99646.66958,-31196.26268,-19225.22714,-31949.80704,-12306.267,-30009.38505,-42758.26129,-78263.87325,-0.042,0.894,0.346,192,0,0,0,0,0,0,0,0,0,1709548887,0, 2024-03-04 16:11:27.314
245,-99637.41596,-31197.20145,-19226.16592,-31957.5631,-11549.19106,-30016.91759,-42742.16804,-78271.42814,-0.042,0.894,0.346,192,0,0,0,0,0,0,0,0,0,1709548887,0, 2024-03-04 16:11:27.314
246,-99598.68039,-31171.22873,-19203.76947,-31939.56994,-10964.44708,-30017.11875,-42767.06788,-78307.61561,-0.042,0.894,0.346,192,0,0,0,0,0,0,0,0,0,1709548887,0, 2024-03-04 16:11:27.314
247,-99583.50355,-31158.0859,-19196.05812,-31926.65063,-11322.41026,-30018.54927,-42781.82003,-78324.82646,-0.042,0.894,0.346,192,0,0,0,0,0,0,0,0,0,1709548887,0, 2024-03-04 16:11:27.314
248,-99594.74648,-31160.85752,-19196.97454,-31924.3037,-12130.33642,-30007.93219,-42777.41674,-78282.22403,-0.042,0.894,0.346,192,0,0,0,0,0,0,0,0,0,1709548887,0, 2024-03-04 16:11:27.314
249,-99618.79696,-31176.36963,-19209.40211,-31939.92757,-12295.96285,-30007.82043,-42764.38567,-78274.7362,-0.042,0.894,0.346,192,0,0,0,0,0,0,0,0,0,1709548887,0, 2024-03-04 16:11:27.314
250,-99610.57152,-31176.86137,-19202.9201,-31945.26964,-11528.80627,-30011.88845,-42753.29921,-78304.2852,-0.042,0.894,0.346,192,0,0,0,0,0,0,0,0,0,1709548887,0, 2024-03-04 16:11:27.314
251,-99579.92728,-31156.92361,-19180.4566,-31929.82458,-10937.245,-30013.52012,-42761.5023,-78329.43092,-0.042,0.894,0.346,192,0,0,0,0,0,0,0,0,0,1709548887,0, 2024-03-04 16:11:27.314
252,-99563.07406,-31139.22103,-19170.84535,-31909.5292,-11271.89532,-30006.14405,-42769.90655,-78303.637,-0.034,0.902,0.35,192,254,240,28,48,10,240,0,0,0,1709548887,0, 2024-03-04 16:11:27.314
253,-99595.10411,-31158.71175,-19208.46334,-31922.58262,-12084.80592,-30008.28981,-42771.76175,-78287.67786,-0.034,0.902,0.35,192,0,0,0,0,0,0,0,0,0,1709548887,0, 2024-03-04 16:11:27.314
254,-99622.99909,-31178.04601,-19204.08239,-31938.94409,-12258.79189,-30007.35104,-42744.89495,-78288.9072,-0.034,0.902,0.35,192,0,0,0,0,0,0,0,0,0,1709548887,0, 2024-03-04 16:11:27.314
255,-99610.348,-31171.00521,-19189.17378,-31936.75362,-11517.45159,-30004.46767,-42746.97366,-78301.11126,-0.034,0.902,0.35,192,0,0,0,0,0,0,0,0,0,1709548887,0, 2024-03-04 16:11:27.314
0,-99578.83204,-31152.11799,-19176.72386,-31921.53209,-10934.51809,-30004.9147,-42758.52952,-78308.1297,-0.034,0.902,0.35,192,0,0,0,0,0,0,0,0,0,1709548887,0, 2024-03-04 16:11:27.314
1,-99566.96326,-31141.61267,-19178.31083,-31910.40092,-11258.28311,-30004.95941,-42776.05328,-78313.85175,-0.034,0.902,0.35,192,0,0,0,0,0,0,0,0,0,1709548887,0, 2024-03-04 16:11:27.314
2,-99588.66681,-31148.83228,-19190.11255,-31911.65261,-12047.74672,-29997.51627,-42787.02799,-78305.78277,-0.034,0.902,0.35,192,0,0,0,0,0,0,0,0,0,1709548887,0, 2024-03-04 16:11:27.314
3,-99608.71632,-31159.49406,-19195.16405,-31918.08992,-12221.84446,-29986.18394,-42747.93479,-78289.77892,-0.034,0.902,0.35,192,0,0,0,0,0,0,0,0,0,1709548887,0, 2024-03-04 16:11:27.314
4,-99609.34217,-31167.36188,-19201.86957,-31930.45043,-11497.26796,-29995.2811,-42737.51888,-78317.53979,-0.034,0.902,0.35,192,0,0,0,0,0,0,0,0,0,1709548887,0, 2024-03-04 16:11:27.314
5,-99576.28394,-31148.18408,-19180.94834,-31911.45145,-10913.14982,-29987.56975,-42764.16215,-78290.38242,-0.034,0.902,0.35,192,0,0,0,0,0,0,0,0,0,1709548887,0, 2024-03-04 16:11:27.314
6,-99566.8515,-31139.53395,-19176.92502,-31898.26392,-11223.45909,-29982.42885,-42767.11258,-78268.92475,-0.032,0.902,0.35,192,255,0,28,48,10,240,0,0,0,1709548887,0, 2024-03-04 16:11:27.314
7,-99594.61237,-31154.62138,-19200.43906,-31911.63026,-12034.22392,-29986.65333,-42778.15435,-78273.50685,-0.032,0.902,0.35,192,0,0,0,0,0,0,0,0,0,1709548887,0, 2024-03-04 16:11:27.314
8,-99621.1886,-31170.11114,-19211.99491,-31923.34258,-12235.50138,-29979.2549,-42761.99404,-78247.15415,-0.032,0.902,0.35,192,0,0,0,0,0,0,0,0,0,1709548887,0, 2024-03-04 16:11:27.314
9,-99619.31105,-31175.90024,-19209.9162,-31932.6409,-11507.77328,-29984.64167,-42745.67726,-78243.62257,-0.032,0.902,0.35,192,0,0,0,0,0,0,0,0,0,1709548887,0, 2024-03-04 16:11:27.314
10,-99597.85337,-31167.11601,-19217.58285,-31935.90426,-10920.70471,-30003.5736,-42759.51299,-78280.70411,-0.032,0.902,0.35,192,0,0,0,0,0,0,0,0,0,1709548887,0, 2024-03-04 16:11:27.314
11,-99587.07983,-31155.78367,-19196.59456,-31927.29884,-11230.72341,-30008.78155,-42781.73063,-78295.54567,-0.032,0.902,0.35,192,0,0,0,0,0,0,0,0,0,1709548887,0, 2024-03-04 16:11:27.314
12,-99605.9,-31161.9304,-19195.20875,-31930.6963,-12032.03345,-30004.57943,-42773.88516,-78268.9918,-0.032,0.902,0.35,192,0,0,0,0,0,0,0,0,0,1709548887,0, 2024-03-04 16:11:27.314
13,-99630.84455,-31178.91773,-19218.11929,-31949.89645,-12247.52662,-30008.80391,-42754.64031,-78251.35627,-0.032,0.902,0.35,192,0,0,0,0,0,0,0,0,0,1709548887,0, 2024-03-04 16:11:27.314
14,-99623.64729,-31178.49304,-19212.12902,-31957.11606,-11512.35539,-30017.6552,-42739.48583,-78283.27457,-0.032,0.902,0.35,192,0,0,0,0,0,0,0,0,0,1709548887,0, 2024-03-04 16:11:27.314
15,-99586.25282,-31150.55336,-19187.00566,-31934.89843,-10887.80295,-30013.29661,-42749.52176,-78284.3251,-0.032,0.902,0.35,192,0,0,0,0,0,0,0,0,0,1709548887,0, 2024-03-04 16:11:27.314
16,-99570.38308,-31135.04125,-19179.36136,-31918.89458,-11170.9772,-30015.55413,-42771.00179,-78287.85667,-0.034,0.908,0.344,192,254,240,28,96,10,192,0,0,0,1709548887,0, 2024-03-04 16:11:27.314
17,-99588.24212,-31139.33279,-19188.72675,-31921.018,-12002.81972,-30012.22372,-42778.73549,-78289.91303,-0.034,0.908,0.344,192,0,0,0,0,0,0,0,0,0,1709548887,0, 2024-03-04 16:11:27.314
18,-99610.3033,-31153.95083,-19196.99689,-31934.42904,-12237.78125,-30009.58622,-42759.44594,-78286.35911,-0.034,0.908,0.344,192,0,0,0,0,0,0,0,0,0,1709548887,0, 2024-03-04 16:11:27.314
19,-99606.10117,-31156.34247,-19193.82294,-31941.26868,-11491.38945,-30016.89524,-42745.43139,-78306.47568,-0.034,0.908,0.344,192,0,0,0,0,0,0,0,0,0,1709548887,0, 2024-03-04 16:11:27.314
20,-99568.81846,-31128.51454,-19171.24768,-31918.11227,-10861.74081,-30010.92732,-42749.54411,-78296.77502,-0.034,0.908,0.344,192,0,0,0,0,0,0,0,0,0,1709548887,0, 2024-03-04 16:11:27.314
21,-99555.25095,-31113.58358,-19169.5713,-31902.13077,-11148.22312,-30007.57456,-42784.30108,-78287.40964,-0.034,0.908,0.344,192,0,0,0,0,0,0,0,0,0,1709548887,0, 2024-03-04 16:11:27.314
22,-99585.51521,-31130.28033,-19193.15239,-31913.50781,-11975.37178,-30011.37436,-42789.21846,-78298.80903,-0.034,0.908,0.344,192,0,0,0,0,0,0,0,0,0,1709548887,0, 2024-03-04 16:11:27.314
23,-99619.64633,-31153.83907,-19203.65771,-31932.61855,-12233.8697,-30011.37436,-42775.89682,-78301.37948,-0.034,0.908,0.344,192,0,0,0,0,0,0,0,0,0,1709548887,0, 2024-03-04 16:11:27.314
24,-99620.36158,-31160.05286,-19200.43906,-31939.01115,-11528.5604,-30010.10031,-42764.00569,-78295.05393,-0.034,0.908,0.344,192,0,0,0,0,0,0,0,0,0,1709548887,0, 2024-03-04 16:11:27.314
25,-99597.80867,-31147.7594,-19196.99689,-31928.12585,-10895.20137,-30010.36853,-42766.59849,-78289.89068,-0.034,0.908,0.344,192,0,0,0,0,0,0,0,0,0,1709548887,0, 2024-03-04 16:11:27.314
26,-99581.84953,-31131.59908,-19178.44494,-31909.95388,-11179.51556,-30002.81364,-42797.04157,-78289.53305,-0.038,0.906,0.344,192,254,208,28,80,10,192,0,0,0,1709548887,0, 2024-03-04 16:11:27.314
27,-99599.77562,-31138.2152,-19190.0902,-31912.30081,-11993.54374,-29994.00705,-42798.49443,-78288.61663,-0.038,0.906,0.344,192,0,0,0,0,0,0,0,0,0,1709548887,0, 2024-03-04 16:11:27.314
28,-99629.70461,-31161.8857,-19205.13293,-31928.39407,-12237.37892,-29989.02261,-42773.88516,-78258.46413,-0.038,0.906,0.344,192,0,0,0,0,0,0,0,0,0,1709548887,0, 2024-03-04 16:11:27.314
29,-99630.41987,-31169.08296,-19201.69076,-31936.30659,-11527.73339,-29990.47547,-42759.42358,-78255.73722,-0.038,0.906,0.344,192,0,0,0,0,0,0,0,0,0,1709548887,0, 2024-03-04 16:11:27.314
30,-99599.68622,-31149.1452,-19182.96,-31921.33092,-10913.35099,-29988.1956,-42767.51492,-78261.10163,-0.038,0.906,0.344,192,0,0,0,0,0,0,0,0,0,1709548887,0, 2024-03-04 16:11:27.314
31,-99584.41998,-31135.46594,-19183.80936,-31909.59625,-11182.48834,-29988.41911,-42795.02991,-78268.43301,-0.038,0.906,0.344,192,0,0,0,0,0,0,0,0,0,1709548887,0, 2024-03-04 16:11:27.314
32,-99604.78242,-31147.51353,-19207.85984,-31919.92276,-12007.15596,-29992.28597,-42814.63239,-78267.44953,-0.038,0.906,0.344,192,0,0,0,0,0,0,0,0,0,1709548887,0, 2024-03-04 16:11:27.315
33,-99631.58216,-31167.09365,-19223.17078,-31938.05002,-12270.23599,-29994.16351,-42778.02024,-78257.23478,-0.038,0.906,0.344,192,0,0,0,0,0,0,0,0,0,1709548887,0, 2024-03-04 16:11:27.315
34,-99628.18469,-31166.4231,-19197.62274,-31938.65352,-11544.4972,-29990.98956,-42757.63545,-78245.8801,-0.038,0.906,0.344,192,0,0,0,0,0,0,0,0,0,1709548887,0, 2024-03-04 16:11:27.315
35,-99604.46949,-31153.16852,-19195.94636,-31931.61272,-10900.38698,-30000.06437,-42764.85506,-78270.39996,-0.038,0.906,0.344,192,0,0,0,0,0,0,0,0,0,1709548887,0, 2024-03-04 16:11:27.315
36,-99590.56671,-31142.68555,-19180.4566,-31917.2182,-11166.41744,-30001.09255,-42781.66357,-78256.56423,-0.034,0.904,0.346,192,254,240,28,64,10,208,0,0,0,1709548887,0, 2024-03-04 16:11:27.315
37,-99614.21485,-31154.01788,-19198.22624,-31924.32605,-12000.38338,-30005.40644,-42787.58678,-78252.69738,-0.034,0.904,0.346,192,0,0,0,0,0,0,0,0,0,1709548887,0, 2024-03-04 16:11:27.315
38,-99645.01556,-31176.07906,-19221.58381,-31950.07526,-12274.88515,-30017.67755,-42774.26514,-78268.25419,-0.034,0.904,0.346,192,0,0,0,0,0,0,0,0,0,1709548887,0, 2024-03-04 16:11:27.315
39,-99634.64435,-31174.62619,-19221.31559,-31958.99361,-11560.34458,-30027.19939,-42764.27391,-78285.6215,-0.034,0.904,0.346,192,0,0,0,0,0,0,0,0,0,1709548887,0, 2024-03-04 16:11:27.315
40,-99598.8145,-31147.98291,-19191.3866,-31934.36199,-10919.85535,-30020.06918,-42766.57614,-78280.81587,-0.034,0.904,0.346,192,0,0,0,0,0,0,0,0,0,1709548887,0, 2024-03-04 16:11:27.315
41,-99586.43163,-31127.2852,-19177.66263,-31910.26681,-11162.66235,-30011.10613,-42791.11836,-78291.4106,-0.034,0.904,0.346,192,0,0,0,0,0,0,0,0,0,1709548887,0, 2024-03-04 16:11:27.315
42,-99599.90973,-31127.57577,-19188.52558,-31908.47867,-11992.91789,-30004.13239,-42801.35546,-78310.87897,-0.034,0.904,0.346,192,0,0,0,0,0,0,0,0,0,1709548887,0, 2024-03-04 16:11:27.315
43,-99625.83776,-31145.43481,-19206.42933,-31926.09184,-12285.94926,-30005.69701,-42765.36915,-78311.41541,-0.034,0.904,0.346,192,0,0,0,0,0,0,0,0,0,1709548887,0, 2024-03-04 16:11:27.315
44,-99632.69974,-31153.16852,-19215.32532,-31935.47957,-11583.45629,-30007.4181,-42761.56935,-78287.45434,-0.034,0.904,0.346,192,0,0,0,0,0,0,0,0,0,1709548887,0, 2024-03-04 16:11:27.315
45,-99602.97192,-31129.54272,-19198.85209,-31913.99955,-10913.66391,-29997.94096,-42794.00173,-78297.24441,-0.034,0.904,0.346,192,0,0,0,0,0,0,0,0,0,1709548887,0, 2024-03-04 16:11:27.315
46,-99577.87091,-31101.64775,-19178.89198,-31884.94228,-11116.26013,-29981.26656,-42789.41963,-78274.98207,-0.032,0.9,0.342,192,255,0,28,32,10,176,0,0,0,1709548887,0, 2024-03-04 16:11:27.315
47,-99592.15368,-31102.02773,-19175.58392,-31881.58952,-11925.28152,-29969.84481,-42787.45267,-78256.87715,-0.032,0.9,0.342,192,0,0,0,0,0,0,0,0,0,1709548887,0, 2024-03-04 16:11:27.315
48,-99628.02823,-31124.40182,-19204.14945,-31905.01415,-12236.66367,-29973.21993,-42781.86474,-78267.18131,-0.032,0.9,0.342,192,0,0,0,0,0,0,0,0,0,1709548887,0, 2024-03-04 16:11:27.315
49,-99625.21191,-31125.07237,-19198.56151,-31908.2775,-11557.17064,-29969.35308,-42751.2652,-78261.43691,-0.032,0.9,0.342,192,0,0,0,0,0,0,0,0,0,1709548887,0, 2024-03-04 16:11:27.315
50,-99604.53655,-31116.22108,-19188.39147,-31900.61085,-10912.92631,-29972.83995,-42762.88811,-78267.02485,-0.032,0.9,0.342,192,0,0,0,0,0,0,0,0,0,1709548887,0, 2024-03-04 16:11:27.315
51,-99598.25571,-31112.77892,-19179.94251,-31898.88977,-11125.55845,-29982.71942,-42795.29813,-78294.24927,-0.032,0.9,0.342,192,0,0,0,0,0,0,0,0,0,1709548887,0, 2024-03-04 16:11:27.315
52,-99623.55788,-31126.59229,-19202.47307,-31908.36691,-11935.16099,-29982.20533,-42798.15916,-78276.94902,-0.032,0.9,0.342,192,0,0,0,0,0,0,0,0,0,1709548887,0, 2024-03-04 16:11:27.315
53,-99657.57724,-31149.86046,-19219.57215,-31925.71186,-12254.50036,-29976.72915,-42771.56058,-78236.51472,-0.032,0.9,0.342,192,0,0,0,0,0,0,0,0,0,1709548887,0, 2024-03-04 16:11:27.315
54,-99661.51114,-31158.42118,-19220.17565,-31940.3299,-11577.66719,-29981.53478,-42750.50524,-78237.22997,-0.032,0.9,0.342,192,0,0,0,0,0,0,0,0,0,1709548887,0, 2024-03-04 16:11:27.315
55,-99639.22645,-31147.46882,-19211.05614,-31938.89939,-10925.37623,-29992.50948,-42765.59267,-78266.46605,-0.032,0.9,0.342,192,0,0,0,0,0,0,0,0,0,1709548887,0, 2024-03-04 16:11:27.315
56,-99630.33046,-31140.09275,-19207.83749,-31933.13264,-11145.98795,-30001.51724,-42795.65576,-78293.10933,-0.042,0.9,0.342,192,254,176,28,32,10,176,0,0,0,1709548887,0, 2024-03-04 16:11:27.315
57,-99647.65306,-31147.02179,-19221.04737,-31936.82068,-11963.48065,-29999.0809,-42799.54497,-78274.088,-0.042,0.9,0.342,192,0,0,0,0,0,0,0,0,0,1709548887,0, 2024-03-04 16:11:27.315
58,-99669.51307,-31158.6894,-19230.50216,-31945.78373,-12289.36908,-29990.1402,-42763.24573,-78244.80721,-0.042,0.9,0.342,192,0,0,0,0,0,0,0,0,0,1709548887,0, 2024-03-04 16:11:27.315
59,-99672.4635,-31165.35022,-19237.96764,-31955.7079,-11599.41543,-30000.01967,-42739.7764,-78251.19981,-0.042,0.9,0.342,192,0,0,0,0,0,0,0,0,0,1709548887,0, 2024-03-04 16:11:27.315
60,-99636.47719,-31141.61267,-19198.69562,-31934.67491,-10910.95935,-29998.05272,-42758.66363,-78261.52632,-0.042,0.9,0.342,192,0,0,0,0,0,0,0,0,0,1709548887,0, 2024-03-04 16:11:27.315
61,-99607.01759,-31114.94703,-19179.51783,-31908.72454,-11101.91031,-29990.29666,-42789.17376,-78265.90726,-0.042,0.9,0.342,192,0,0,0,0,0,0,0,0,0,1709548887,0, 2024-03-04 16:11:27.315
62,-99620.36158,-31116.69047,-19191.36425,-31905.81881,-11916.22906,-29982.98764,-42794.40406,-78228.73631,-0.042,0.9,0.342,192,0,0,0,0,0,0,0,0,0,1709548887,0, 2024-03-04 16:11:27.315
63,-99642.60157,-31129.9227,-19205.15528,-31920.21333,-12283.82585,-29984.19463,-42772.61111,-78244.89662,-0.042,0.9,0.342,192,0,0,0,0,0,0,0,0,0,1709548887,0, 2024-03-04 16:11:27.315
64,-99635.65017,-31130.70501,-19203.45655,-31929.26579,-11620.76135,-29993.71648,-42761.03291,-78301.55829,-0.042,0.9,0.342,192,0,0,0,0,0,0,0,0,0,1709548887,0, 2024-03-04 16:11:27.315
65,-99608.67162,-31117.87511,-19196.5275,-31921.59914,-10931.81353,-30000.15378,-42773.79576,-78318.63502,-0.042,0.9,0.342,192,0,0,0,0,0,0,0,0,0,1709548887,0, 2024-03-04 16:11:27.315
66,-99581.96128,-31095.2328,-19168.54312,-31895.15703,-11122.45156,-29986.78744,-42788.01147,-78274.84796,-0.04,0.9,0.338,192,254,192,28,32,10,144,0,0,0,1709548887,0, 2024-03-04 16:11:27.315
67,-99600.08855,-31104.03938,-19186.22335,-31895.31349,-11946.33686,-29977.71263,-42790.76073,-78255.31253,-0.04,0.9,0.338,192,0,0,0,0,0,0,0,0,0,1709548887,0, 2024-03-04 16:11:27.315
68,-99631.02336,-31126.637,-19209.9609,-31913.86544,-12308.79275,-29976.39388,-42779.83073,-78271.4952,-0.04,0.9,0.338,192,0,0,0,0,0,0,0,0,0,1709548887,0, 2024-03-04 16:11:27.315
69,-99627.89412,-31128.60395,-19194.82877,-31917.10644,-11641.32495,-29973.44345,-42756.18258,-78288.46017,-0.04,0.9,0.338,192,0,0,0,0,0,0,0,0,0,1709548887,0, 2024-03-04 16:11:27.315
70,-99605.16239,-31115.63994,-19181.1495,-31905.41648,-10948.42088,-29973.59991,-42755.91436,-78274.60209,-0.04,0.9,0.338,192,0,0,0,0,0,0,0,0,0,1709548887,0, 2024-03-04 16:11:27.315
71,-99585.93989,-31098.02676,-19166.15148,-31885.88105,-11132.77806,-29967.83316,-42786.11157,-78265.34847,-0.04,0.9,0.338,192,0,0,0,0,0,0,0,0,0,1709548887,0, 2024-03-04 16:11:27.315
72,-99614.55013,-31117.49513,-19198.58386,-31903.47188,-11942.76058,-29979.00903,-42798.53914,-78290.40477,-0.04,0.9,0.338,192,0,0,0,0,0,0,0,0,0,1709548887,0, 2024-03-04 16:11:27.315
73,-99647.36249,-31140.83035,-19208.48569,-31926.42712,-12294.33117,-29984.68637,-42774.77923,-78295.61273,-0.04,0.9,0.338,192,0,0,0,0,0,0,0,0,0,1709548887,0, 2024-03-04 16:11:27.315
74,-99642.55686,-31141.54561,-19192.10186,-31928.28231,-11626.59515,-29979.76899,-42752.76277,-78275.89849,-0.04,0.9,0.338,192,0,0,0,0,0,0,0,0,0,1709548888,0, 2024-03-04 16:11:27.794
75,-99617.16528,-31125.85469,-19183.42938,-31915.74298,-10931.61236,-29979.2102,-42765.14563,-78268.58947,-0.04,0.9,0.338,192,0,0,0,0,0,0,0,0,0,1709548888,0, 2024-03-04 16:11:27.794
76,-99600.66969,-31111.3037,-19192.19127,-31902.5331,-11080.98907,-29979.97015,-42793.51,-78263.94031,-0.042,0.904,0.338,192,254,176,28,64,10,144,0,0,0,1709548888,0, 2024-03-04 16:11:27.794
77,-99614.48307,-31111.9072,-19198.9862,-31898.5992,-11887.41766,-29968.61547,-42795.47695,-78236.55942,-0.042,0.904,0.338,192,0,0,0,0,0,0,0,0,0,1709548888,0, 2024-03-04 16:11:27.794
78,-99650.26821,-31133.78956,-19220.86855,-31919.58748,-12276.33801,-29971.25297,-42780.70245,-78247.53413,-0.042,0.904,0.338,192,0,0,0,0,0,0,0,0,0,1709548888,0, 2024-03-04 16:11:27.794
79,-99657.39842,-31146.28418,-19232.80439,-31937.15595,-11624.06941,-29982.89823,-42778.57903,-78264.99084,-0.042,0.904,0.338,192,0,0,0,0,0,0,0,0,0,1709548888,0, 2024-03-04 16:11:27.794
80,-99622.08267,-31124.17831,-19202.89775,-31916.99468,-10922.04582,-29975.61156,-42771.1359,-78239.30868,-0.042,0.904,0.338,192,0,0,0,0,0,0,0,0,0,1709548888,0, 2024-03-04 16:11:27.794
81,-99599.55211,-31105.78282,-19188.7491,-31896.29697,-11075.53525,-29971.94588,-42774.39925,-78229.8539,-0.042,0.904,0.338,192,0,0,0,0,0,0,0,0,0,1709548888,0, 2024-03-04 16:11:27.794
82,-99621.09919,-31116.69047,-19205.71407,-31903.56128,-11906.41664,-29974.29281,-42790.93954,-78264.27558,-0.042,0.904,0.338,192,0,0,0,0,0,0,0,0,0,1709548888,0, 2024-03-04 16:11:27.794
83,-99661.26527,-31148.02762,-19232.87144,-31932.21622,-12306.3117,-29984.61932,-42787.2068,-78278.15602,-0.042,0.904,0.338,192,0,0,0,0,0,0,0,0,0,1709548888,0, 2024-03-04 16:11:27.794
84,-99665.86973,-31155.80602,-19231.6868,-31940.59812,-11662.26854,-29985.02165,-42776.56737,-78229.87625,-0.042,0.904,0.338,192,0,0,0,0,0,0,0,0,0,1709548888,0, 2024-03-04 16:11:27.794
85,-99638.13122,-31141.09858,-19215.1018,-31929.84693,-10963.01657,-29986.00513,-42779.38369,-78219.10271,-0.042,0.904,0.338,192,0,0,0,0,0,0,0,0,0,1709548888,0, 2024-03-04 16:11:27.794
86,-99619.08753,-31129.74389,-19214.76653,-31924.259,-11098.11051,-29997.51627,-42796.37102,-78254.93255,-0.034,0.906,0.34,192,254,240,28,80,10,160,0,0,0,1709548888,0, 2024-03-04 16:11:27.794
87,-99629.74931,-31131.19675,-19210.87732,-31927.00826,-11917.39135,-29997.58333,-42783.71993,-78257.88298,-0.034,0.906,0.34,192,0,0,0,0,0,0,0,0,0,1709548888,0, 2024-03-04 16:11:27.794
88,-99648.77065,-31139.37749,-19223.95309,-31934.76432,-12322.78494,-29988.46382,-42791.0066,-78248.76347,-0.034,0.906,0.34,192,0,0,0,0,0,0,0,0,0,1709548888,0, 2024-03-04 16:11:27.794
89,-99654.47034,-31149.25696,-19231.61974,-31950.03056,-11672.50564,-29998.03036,-42779.16018,-78273.30569,-0.034,0.906,0.34,192,0,0,0,0,0,0,0,0,0,1709548888,0, 2024-03-04 16:11:27.794
90,-99624.38489,-31130.07917,-19202.58483,-31940.17344,-10950.29842,-30004.46767,-42781.59652,-78316.62337,-0.034,0.906,0.34,192,0,0,0,0,0,0,0,0,0,1709548888,0, 2024-03-04 16:11:27.794
91,-99598.97096,-31106.60983,-19190.22431,-31918.22403,-11076.54108,-30000.08672,-42798.58384,-78328.53685,-0.034,0.906,0.34,192,0,0,0,0,0,0,0,0,0,1709548888,0, 2024-03-04 16:11:27.794
92,-99617.74643,-31111.59427,-19202.74129,-31919.38632,-11897.92298,-29996.73396,-42812.01724,-78309.58257,-0.034,0.906,0.34,192,0,0,0,0,0,0,0,0,0,1709548888,0, 2024-03-04 16:11:27.794
93,-99641.59574,-31122.8819,-19214.14068,-31925.77892,-12300.12027,-29985.93807,-42789.79961,-78267.51659,-0.034,0.906,0.34,192,0,0,0,0,0,0,0,0,0,1709548888,0, 2024-03-04 16:11:27.794
94,-99638.01946,-31122.70309,-19207.12223,-31925.66716,-11668.99641,-29981.31126,-42767.78314,-78255.11137,-0.034,0.906,0.34,192,0,0,0,0,0,0,0,0,0,1709548888,0, 2024-03-04 16:11:27.794
95,-99611.13031,-31108.0627,-19189.88904,-31915.74298,-10955.86401,-29987.68151,-42774.77923,-78286.51557,-0.034,0.906,0.34,192,0,0,0,0,0,0,0,0,0,1709548888,0, 2024-03-04 16:11:27.794
96,-99589.8291,-31091.52241,-19178.84727,-31897.25809,-11051.61888,-29983.81465,-42778.46727,-78283.7216,-0.036,0.908,0.336,192,254,224,28,96,10,128,0,0,0,1709548888,0, 2024-03-04 16:11:27.794
97,-99608.85043,-31103.92762,-19200.08143,-31904.25419,-11855.9017,-29984.37345,-42785.17279,-78275.04912,-0.036,0.908,0.336,192,0,0,0,0,0,0,0,0,0,1709548888,0, 2024-03-04 16:11:27.794
98,-99643.0039,-31129.52037,-19214.16303,-31925.86832,-12287.7374,-29986.8992,-42783.54112,-78268.00832,-0.036,0.908,0.336,192,0,0,0,0,0,0,0,0,0,1709548888,0, 2024-03-04 16:11:27.794
99,-99644.61322,-31136.78469,-19204.99882,-31933.49027,-11660.56981,-29985.89337,-42755.55673,-78281.70994,-0.036,0.908,0.336,192,0,0,0,0,0,0,0,0,0,1709548888,0, 2024-03-04 16:11:27.794
100,-99613.03021,-31119.79736,-19189.95609,-31919.38632,-10934.87572,-29982.40649,-42758.08248,-78284.43686,-0.036,0.908,0.336,192,0,0,0,0,0,0,0,0,0,1709548888,0, 2024-03-04 16:11:27.794
101,-99601.3626,-31113.22595,-19196.70632,-31913.12783,-11046.99207,-29989.26848,-42792.77239,-78272.21045,-0.036,0.908,0.336,192,0,0,0,0,0,0,0,0,0,1709548888,0, 2024-03-04 16:11:27.794
102,-99617.61232,-31122.8819,-19205.87053,-31916.97233,-11874.96774,-29987.56975,-42787.47502,-78258.7994,-0.036,0.908,0.336,192,0,0,0,0,0,0,0,0,0,1709548888,0, 2024-03-04 16:11:27.794
103,-99657.33137,-31151.76036,-19220.44387,-31943.32504,-12319.65569,-29994.96818,-42777.28263,-78279.58653,-0.036,0.908,0.336,192,0,0,0,0,0,0,0,0,0,1709548888,0, 2024-03-04 16:11:27.794
104,-99660.10298,-31159.42701,-19225.42831,-31955.64085,-11696.60082,-29999.70675,-42765.30209,-78280.86058,-0.036,0.908,0.336,192,0,0,0,0,0,0,0,0,0,1709548888,0, 2024-03-04 16:11:27.794
105,-99625.27896,-31136.73999,-19202.42837,-31938.45236,-10986.79882,-29994.07411,-42769.8395,-78270.64583,-0.036,0.908,0.336,192,0,0,0,0,0,0,0,0,0,1709548888,0, 2024-03-04 16:11:27.794
106,-99608.55986,-31127.82164,-19199.12031,-31930.20456,-11079.33504,-29999.97497,-42792.72768,-78276.21141,-0.038,0.906,0.34,192,254,208,28,80,10,160,0,0,0,1709548888,0, 2024-03-04 16:11:27.794
107,-99626.46361,-31138.52813,-19215.59354,-31938.45236,-11890.25633,-30003.73006,-42802.45069,-78267.31542,-0.038,0.906,0.34,192,0,0,0,0,0,0,0,0,0,1709548888,0, 2024-03-04 16:11:27.794
108,-99651.2964,-31152.9003,-19226.70236,-31948.6224,-12332.21738,-29994.87877,-42784.72576,-78233.81015,-0.038,0.906,0.34,192,0,0,0,0,0,0,0,0,0,1709548888,0, 2024-03-04 16:11:27.794
109,-99657.42077,-31160.6787,-19232.49146,-31960.66999,-11737.66097,-30001.20431,-42774.84629,-78240.00159,-0.038,0.906,0.34,192,0,0,0,0,0,0,0,0,0,1709548888,0, 2024-03-04 16:11:27.794
110,-99634.7114,-31148.96639,-19231.7315,-31957.54075,-11006.84834,-30013.83305,-42783.38465,-78285.84502,-0.038,0.906,0.34,192,0,0,0,0,0,0,0,0,0,1709548888,0, 2024-03-04 16:11:27.794
111,-99609.47628,-31128.49219,-19203.36714,-31938.65352,-11083.71599,-30013.9001,-42791.76656,-78304.73224,-0.038,0.906,0.34,192,0,0,0,0,0,0,0,0,0,1709548888,0, 2024-03-04 16:11:27.794
112,-99620.0263,-31129.878,-19202.51777,-31934.65256,-11864.73064,-30008.64744,-42787.92206,-78276.47963,-0.038,0.906,0.34,192,0,0,0,0,0,0,0,0,0,1709548888,0, 2024-03-04 16:11:27.794
113,-99645.97668,-31145.81479,-19227.39526,-31950.54465,-12315.94531,-30010.27912,-42789.08435,-78264.4544,-0.038,0.906,0.34,192,0,0,0,0,0,0,0,0,0,1709548888,0, 2024-03-04 16:11:27.794
114,-99647.11662,-31149.65929,-19232.75968,-31959.44064,-11716.87385,-30014.4589,-42778.80255,-78296.08211,-0.038,0.906,0.34,192,0,0,0,0,0,0,0,0,0,1709548888,0, 2024-03-04 16:11:27.794
115,-99618.19346,-31132.31434,-19214.07362,-31949.42706,-11008.54707,-30020.18094,-42778.95901,-78334.70593,-0.038,0.906,0.34,192,0,0,0,0,0,0,0,0,0,1709548888,0, 2024-03-04 16:11:27.794
116,-99599.01566,-31116.91399,-19195.54403,-31931.2998,-11088.78983,-30018.10223,-42805.17761,-78305.84983,-0.046,0.902,0.344,192,254,144,28,48,10,192,0,0,0,1709548888,0, 2024-03-04 16:11:27.794
117,-99610.97385,-31118.76918,-19209.55857,-31926.65063,-11881.76267,-30010.6591,-42813.82773,-78299.03254,-0.046,0.902,0.344,192,0,0,0,0,0,0,0,0,0,1709548888,0, 2024-03-04 16:11:27.794
118,-99634.7561,-31131.53203,-19219.68391,-31933.49027,-12350.36699,-29999.7291,-42785.28455,-78282.31344,-0.046,0.902,0.344,192,0,0,0,0,0,0,0,0,0,1709548888,0, 2024-03-04 16:11:27.794
119,-99641.03694,-31141.09858,-19217.82872,-31939.99463,-11764.8854,-29997.76214,-42765.74913,-78268.92475,-0.046,0.902,0.344,192,0,0,0,0,0,0,0,0,0,1709548888,0, 2024-03-04 16:11:27.794
120,-99619.10988,-31130.99559,-19203.30008,-31929.84693,-11022.27104,-29999.32677,-42765.05622,-78271.20462,-0.046,0.902,0.344,192,0,0,0,0,0,0,0,0,0,1709548888,0, 2024-03-04 16:11:27.794
121,-99599.75327,-31118.97035,-19197.35452,-31918.29108,-11063.48766,-30004.66883,-42778.60138,-78284.52626,-0.046,0.902,0.344,192,0,0,0,0,0,0,0,0,0,1709548888,0, 2024-03-04 16:11:27.794
122,-99622.485,-31133.09665,-19218.2981,-31929.24344,-11860.01442,-30008.60274,-42791.02895,-78295.32216,-0.046,0.902,0.344,192,0,0,0,0,0,0,0,0,0,1709548888,0, 2024-03-04 16:11:27.794
123,-99654.38094,-31152.11799,-19220.62269,-31943.01211,-12353.20566,-30001.65135,-42796.32631,-78275.60792,-0.046,0.902,0.344,192,0,0,0,0,0,0,0,0,0,1709548888,0, 2024-03-04 16:11:27.794
124,-99659.96887,-31159.9858,-19227.90935,-31955.81966,-11795.44023,-30004.33356,-42776.52267,-78289.57776,-0.046,0.902,0.344,192,0,0,0,0,0,0,0,0,0,1709548888,0, 2024-03-04 16:11:27.794
125,-99637.75124,-31148.74287,-19215.63825,-31950.5223,-11054.99399,-30009.98855,-42770.95709,-78307.90619,-0.046,0.902,0.344,192,0,0,0,0,0,0,0,0,0,1709548888,0, 2024-03-04 16:11:27.794
126,-99619.53457,-31132.89549,-19210.78792,-31937.82651,-11097.35055,-30012.42489,-42779.87543,-78316.17633,-0.048,0.896,0.344,192,254,128,28,0,10,192,0,0,0,1709548888,0, 2024-03-04 16:11:27.794
127,-99631.13512,-31133.83426,-19226.03181,-31935.70309,-11876.10768,-30006.59108,-42805.49053,-78316.13163,-0.048,0.896,0.344,192,0,0,0,0,0,0,0,0,0,1709548888,0, 2024-03-04 16:11:27.794
128,-99660.70648,-31152.78854,-19241.3651,-31947.77303,-12342.74505,-29998.58916,-42797.42155,-78256.56423,-0.048,0.896,0.344,192,0,0,0,0,0,0,0,0,0,1709548888,0, 2024-03-04 16:11:27.794
129,-99661.37703,-31154.17435,-19227.8423,-31951.34931,-11775.50248,-29993.56002,-42775.42743,-78241.65562,-0.048,0.896,0.344,192,0,0,0,0,0,0,0,0,0,1709548888,0, 2024-03-04 16:11:27.794
130,-99632.61034,-31138.70694,-19220.06389,-31945.64962,-11043.79577,-30001.53959,-42786.17862,-78298.71962,-0.048,0.896,0.344,192,0,0,0,0,0,0,0,0,0,1709548888,0, 2024-03-04 16:11:27.794
131,-99615.37714,-31127.57577,-19215.16886,-31934.60786,-11074.03768,-30007.19458,-42807.65865,-78307.30269,-0.048,0.896,0.344,192,0,0,0,0,0,0,0,0,0,1709548888,0, 2024-03-04 16:11:27.794
132,-99631.71627,-31134.12483,-19227.39526,-31932.12681,-11842.11067,-30000.422,-42812.7772,-78246.32713,-0.048,0.896,0.344,192,0,0,0,0,0,0,0,0,0,1709548888,0, 2024-03-04 16:11:27.794
133,-99660.43826,-31153.10146,-19243.42146,-31947.66127,-12332.88793,-29999.99732,-42791.34188,-78245.34365,-0.048,0.896,0.344,192,0,0,0,0,0,0,0,0,0,1709548888,0, 2024-03-04 16:11:27.794
134,-99669.46836,-31167.25012,-19246.86363,-31964.08981,-11774.80957,-30010.81556,-42777.70731,-78271.83047,-0.048,0.896,0.344,192,0,0,0,0,0,0,0,0,0,1709548888,0, 2024-03-04 16:11:27.794
135,-99638.19827,-31147.64764,-19222.45553,-31947.34835,-11026.62963,-30006.50168,-42764.83271,-78262.93448,-0.048,0.896,0.344,192,0,0,0,0,0,0,0,0,0,1709548888,0, 2024-03-04 16:11:27.794
136,-99608.04577,-31121.94313,-19200.3273,-31919.27456,-11062.92886,-29993.87294,-42779.54015,-78241.07447,-0.048,0.896,0.344,192,0,0,0,0,0,0,0,0,0,1709548888,0, 2024-03-04 16:11:27.794
137,-99619.19929,-31127.48636,-19217.22522,-31921.77795,-11864.77534,-29995.70578,-42792.59357,-78252.71973,-0.04,0.896,0.342,192,254,192,28,0,10,176,0,0,0,1709548888,0, 2024-03-04 16:11:27.794
138,-99647.85423,-31144.6078,-19223.55076,-31935.59133,-12368.04722,-29995.99636,-42782.40118,-78247.19885,-0.04,0.896,0.342,192,0,0,0,0,0,0,0,0,0,1709548888,0, 2024-03-04 16:11:27.794
139,-99646.49077,-31144.78661,-19207.05518,-31938.22884,-11812.60637,-29993.85059,-42755.66849,-78253.90437,-0.04,0.896,0.342,192,0,0,0,0,0,0,0,0,0,1709548888,0, 2024-03-04 16:11:27.794
140,-99620.31688,-31132.44845,-19200.30495,-31933.17734,-11058.12324,-30002.43366,-42760.56352,-78290.8071,-0.04,0.896,0.342,192,0,0,0,0,0,0,0,0,0,1709548888,0, 2024-03-04 16:11:27.794
141,-99600.40147,-31119.79736,-19196.28164,-31922.82849,-11052.40119,-30011.46376,-42786.29038,-78325.02762,-0.04,0.896,0.342,192,0,0,0,0,0,0,0,0,0,1709548888,0, 2024-03-04 16:11:27.794
142,-99604.67066,-31117.29397,-19187.74327,-31917.41936,-11838.64615,-30006.2111,-42789.82196,-78339.89153,-0.04,0.896,0.342,192,0,0,0,0,0,0,0,0,0,1709548888,0, 2024-03-04 16:11:27.794
143,-99626.57537,-31126.32407,-19203.14362,-31919.65454,-12344.80141,-29988.53087,-42766.24087,-78274.24446,-0.04,0.896,0.342,192,0,0,0,0,0,0,0,0,0,1709548888,0, 2024-03-04 16:11:27.794
144,-99633.61617,-31134.23659,-19206.94342,-31929.37755,-11806.45964,-29989.08967,-42765.16798,-78288.50487,-0.04,0.896,0.342,192,0,0,0,0,0,0,0,0,0,1709548888,0, 2024-03-04 16:11:27.794
145,-99612.96315,-31124.62534,-19196.88513,-31926.09184,-11048.42258,-29991.61541,-42777.32733,-78311.66128,-0.04,0.896,0.342,192,0,0,0,0,0,0,0,0,0,1709548888,0, 2024-03-04 16:11:27.794
146,-99592.4219,-31106.52043,-19183.71995,-31906.42231,-11036.93378,-29983.7923,-42786.49155,-78287.70021,-0.04,0.896,0.342,192,0,0,0,0,0,0,0,0,0,1709548888,0, 2024-03-04 16:11:27.794
147,-99611.75616,-31116.13168,-19194.94053,-31905.79646,-11817.27789,-29978.47259,-42789.64314,-78258.50883,-0.038,0.9,0.348,192,254,208,28,32,10,224,0,0,0,1709548888,0, 2024-03-04 16:11:27.794
148,-99646.58018,-31138.72929,-19218.00753,-31923.67785,-12336.64302,-29977.46676,-42775.47214,-78250.08222,-0.038,0.9,0.348,192,0,0,0,0,0,0,0,0,0,1709548888,0, 2024-03-04 16:11:27.794
149,-99649.66472,-31142.84201,-19213.91716,-31930.94217,-11804.60445,-29975.25394,-42772.27584,-78255.67016,-0.038,0.9,0.348,192,0,0,0,0,0,0,0,0,0,1709548888,0, 2024-03-04 16:11:27.794
150,-99626.17303,-31129.81094,-19203.09892,-31921.7109,-11028.28366,-29974.47163,-42760.67528,-78259.60407,-0.038,0.9,0.348,192,0,0,0,0,0,0,0,0,0,1709548888,0, 2024-03-04 16:11:27.794
151,-99604.06716,-31113.53887,-19195.92401,-31905.6847,-11002.89208,-29973.19758,-42780.47893,-78277.329,-0.038,0.9,0.348,192,0,0,0,0,0,0,0,0,0,1709548888,0, 2024-03-04 16:11:27.794
152,-99618.52874,-31117.13751,-19201.28843,-31903.7401,-11788.24297,-29967.34142,-42791.0513,-78261.19104,-0.038,0.9,0.348,192,0,0,0,0,0,0,0,0,0,1709548888,0, 2024-03-04 16:11:27.794
153,-99657.06315,-31143.44551,-19226.38944,-31926.49417,-12334.78783,-29970.24715,-42788.86083,-78251.46803,-0.038,0.9,0.348,192,0,0,0,0,0,0,0,0,0,1709548888,0, 2024-03-04 16:11:27.794
154,-99669.46836,-31157.86238,-19237.00651,-31945.94019,-11816.00384,-29979.14314,-42772.49936,-78264.34264,-0.038,0.9,0.348,192,0,0,0,0,0,0,0,0,0,1709548888,0, 2024-03-04 16:11:27.795
155,-99636.45484,-31142.39498,-19210.13972,-31939.97227,-11066.43809,-29982.92059,-42768.43134,-78266.57781,-0.038,0.9,0.348,192,0,0,0,0,0,0,0,0,0,1709548888,0, 2024-03-04 16:11:27.795
156,-99616.42767,-31131.50968,-19206.6752,-31930.98687,-11042.14174,-29990.54253,-42788.97259,-78266.06372,-0.038,0.9,0.348,192,0,0,0,0,0,0,0,0,0,1709548888,0, 2024-03-04 16:11:27.795
157,-99629.97283,-31129.1851,-19207.23399,-31921.95677,-11812.98635,-29982.87588,-42785.84335,-78250.30574,-0.042,0.898,0.342,192,254,176,28,16,10,176,0,0,0,1709548888,0, 2024-03-04 16:11:27.795
158,-99663.61221,-31147.08884,-19221.42735,-31935.77015,-12342.47683,-29982.07122,-42765.01152,-78253.59145,-0.042,0.898,0.342,192,0,0,0,0,0,0,0,0,0,1709548888,0, 2024-03-04 16:11:27.795
159,-99673.31286,-31158.86821,-19230.07747,-31952.22103,-11818.79781,-29990.69899,-42727.84057,-78272.76925,-0.042,0.898,0.342,192,0,0,0,0,0,0,0,0,0,1709548888,0, 2024-03-04 16:11:27.795
160,-99646.04374,-31142.35027,-19214.09598,-31943.12387,-11052.40119,-29994.00705,-42754.84148,-78285.95677,-0.042,0.898,0.342,192,0,0,0,0,0,0,0,0,0,1709548888,0, 2024-03-04 16:11:27.795
161,-99619.80279,-31120.75849,-19203.36714,-31924.70603,-11048.22142,-29996.08576,-42798.24856,-78279.63123,-0.042,0.898,0.342,192,0,0,0,0,0,0,0,0,0,1709548888,0, 2024-03-04 16:11:27.795
162,-99628.67643,-31119.97618,-19208.70921,-31923.94607,-11814.32746,-29997.42687,-42799.32145,-78284.45921,-0.042,0.898,0.342,192,0,0,0,0,0,0,0,0,0,1709548888,0, 2024-03-04 16:11:27.795
163,-99659.43243,-31138.08109,-19238.88406,-31943.74972,-12354.32325,-30001.51724,-42786.69271,-78281.88876,-0.042,0.898,0.342,192,0,0,0,0,0,0,0,0,0,1709548888,0, 2024-03-04 16:11:27.795
164,-99668.48489,-31144.80897,-19229.22811,-31951.37166,-11818.30607,-29999.03619,-42773.684,-78261.74984,-0.042,0.898,0.342,192,0,0,0,0,0,0,0,0,0,1709548888,0, 2024-03-04 16:11:27.795
165,-99632.99032,-31117.13751,-19201.15432,-31927.74587,-11031.74818,-29984.01582,-42761.18937,-78231.37381,-0.042,0.898,0.342,192,0,0,0,0,0,0,0,0,0,1709548888,0, 2024-03-04 16:11:27.795
166,-99611.37618,-31100.19488,-19203.54595,-31915.81004,-10989.05635,-29990.8331,-42787.13975,-78261.9957,-0.042,0.898,0.342,192,0,0,0,0,0,0,0,0,0,1709548888,0, 2024-03-04 16:11:27.795
167,-99624.4743,-31099.18905,-19202.07074,-31908.83629,-11748.56862,-29984.01582,-42806.31754,-78260.52049,-0.04,0.896,0.35,192,254,192,28,0,10,240,0,0,0,1709548888,0, 2024-03-04 16:11:27.795
168,-99645.90962,-31105.44754,-19211.97256,-31911.00441,-12291.4925,-29970.89535,-42781.06007,-78255.26783,-0.04,0.896,0.35,192,0,0,0,0,0,0,0,0,0,1709548888,0, 2024-03-04 16:11:27.795
169,-99646.40136,-31107.90624,-19214.3642,-31916.83822,-11787.3936,-29967.6767,-42758.59657,-78258.86646,-0.04,0.896,0.35,192,0,0,0,0,0,0,0,0,0,1709548888,0, 2024-03-04 16:11:27.795
170,-99620.5851,-31092.28237,-19194.13587,-31905.50588,-11017.26425,-29966.33559,-42759.31183,-78268.07538,-0.04,0.896,0.35,192,0,0,0,0,0,0,0,0,0,1709548888,0, 2024-03-04 16:11:27.795
171,-99595.17116,-31072.18815,-19179.45077,-31884.85287,-10988.02817,-29961.44056,-42781.03772,-78264.43204,-0.04,0.896,0.35,192,0,0,0,0,0,0,0,0,0,1709548888,0, 2024-03-04 16:11:27.795
172,-99609.00689,-31078.89367,-19194.94053,-31888.4068,-11741.30431,-29962.17817,-42790.15723,-78274.1327,-0.04,0.896,0.35,192,0,0,0,0,0,0,0,0,0,1709548888,0, 2024-03-04 16:11:27.795
173,-99637.63948,-31096.68566,-19212.79957,-31903.02484,-12304.90354,-29959.87594,-42782.11061,-78276.39023,-0.04,0.896,0.35,192,0,0,0,0,0,0,0,0,0,1709548888,0, 2024-03-04 16:11:27.795
174,-99642.86979,-31102.25124,-19213.716,-31912.05495,-11810.48296,-29956.70199,-42772.49936,-78284.16863,-0.04,0.896,0.35,192,0,0,0,0,0,0,0,0,0,1709548888,0, 2024-03-04 16:11:27.795
175,-99623.42377,-31094.04815,-19203.70241,-31908.12104,-11039.54894,-29962.11111,-42765.52561,-78282.93929,-0.04,0.896,0.35,192,0,0,0,0,0,0,0,0,0,1709548888,0, 2024-03-04 16:11:27.795
176,-99598.56863,-31073.32809,-19193.10769,-31885.36696,-10973.87951,-29952.3881,-42778.93666,-78241.63327,-0.04,0.896,0.35,192,0,0,0,0,0,0,0,0,0,1709548888,0, 2024-03-04 16:11:27.795
177,-99607.1517,-31069.19301,-19185.75396,-31875.88982,-11715.6445,-29940.83225,-42796.751,-78224.51183,-0.04,0.904,0.346,192,254,192,28,64,10,208,0,0,0,1709548888,0, 2024-03-04 16:11:27.795
178,-99639.62878,-31090.38247,-19211.41377,-31893.68181,-12285.50223,-29944.0509,-42774.95805,-78235.50889,-0.04,0.904,0.346,192,0,0,0,0,0,0,0,0,0,1709548888,0, 2024-03-04 16:11:27.795
179,-99654.22447,-31107.01217,-19215.0124,-31912.74785,-11822.77642,-29952.87984,-42755.73555,-78223.48365,-0.04,0.904,0.346,192,0,0,0,0,0,0,0,0,0,1709548888,0, 2024-03-04 16:11:27.795
180,-99637.57242,-31101.82656,-19204.82,-31916.21237,-11056.58097,-29965.35211,-42750.12526,-78246.88593,-0.04,0.904,0.346,192,0,0,0,0,0,0,0,0,0,1709548888,0, 2024-03-04 16:11:27.795
181,-99612.22555,-31086.31445,-19200.12614,-31906.86934,-10977.70166,-29974.87396,-42779.92013,-78274.40092,-0.04,0.904,0.346,192,0,0,0,0,0,0,0,0,0,1709548888,0, 2024-03-04 16:11:27.795
182,-99620.07101,-31087.6332,-19208.68685,-31905.88586,-11727.15565,-29973.86813,-42796.52748,-78254.37376,-0.04,0.904,0.346,192,0,0,0,0,0,0,0,0,0,1709548888,0, 2024-03-04 16:11:27.795
183,-99653.9786,-31108.42033,-19229.8316,-31926.36006,-12314.78301,-29977.46676,-42766.30792,-78253.74791,-0.04,0.904,0.346,192,0,0,0,0,0,0,0,0,0,1709548888,0, 2024-03-04 16:11:27.795
184,-99655.29736,-31115.43877,-19226.34473,-31937.67004,-11854.15826,-29981.37831,-42757.92602,-78280.90528,-0.04,0.904,0.346,192,0,0,0,0,0,0,0,0,0,1709548888,0, 2024-03-04 16:11:27.795
185,-99625.43543,-31099.63609,-19209.73739,-31929.48931,-11094.69069,-29987.94973,-42767.76079,-78297.155,-0.04,0.904,0.346,192,0,0,0,0,0,0,0,0,0,1709548888,0, 2024-03-04 16:11:27.795
186,-99597.58515,-31078.49134,-19191.96775,-31905.7294,-11005.59664,-29983.7923,-42787.25151,-78237.6323,-0.04,0.904,0.346,192,0,0,0,0,0,0,0,0,0,1709548888,0, 2024-03-04 16:11:27.795
187,-99602.83781,-31076.25617,-19199.56734,-31899.3368,-11727.96032,-29982.31709,-42784.12226,-78246.10361,-0.04,0.898,0.344,192,254,192,28,16,10,192,0,0,0,1709548888,0, 2024-03-04 16:11:27.795
188,-99629.70461,-31086.76148,-19205.40115,-31903.29306,-12306.82579,-29970.33655,-42770.80062,-78226.21056,-0.04,0.898,0.344,192,0,0,0,0,0,0,0,0,0,1709548888,0, 2024-03-04 16:11:27.795
189,-99638.37709,-31095.07633,-19202.42837,-31911.45145,-11862.71898,-29969.0625,-42754.17092,-78234.45836,-0.04,0.898,0.344,192,0,0,0,0,0,0,0,0,0,1709548888,0, 2024-03-04 16:11:27.795
190,-99611.15266,-31077.9996,-19190.58194,-31900.34263,-11093.37194,-29968.19079,-42752.87452,-78252.80914,-0.04,0.898,0.344,192,0,0,0,0,0,0,0,0,0,1709548888,0, 2024-03-04 16:11:27.795
191,-99587.12454,-31058.37477,-19170.97946,-31881.72363,-10991.09036,-29964.99449,-42771.94056,-78256.27366,-0.04,0.898,0.344,192,0,0,0,0,0,0,0,0,0,1709548888,0, 2024-03-04 16:11:27.795
192,-99604.38008,-31066.95784,-19194.02411,-31885.67989,-11729.99432,-29966.58146,-42792.57122,-78260.76636,-0.04,0.898,0.344,192,0,0,0,0,0,0,0,0,0,1709548888,0, 2024-03-04 16:11:27.795
193,-99638.84647,-31088.39316,-19214.14068,-31903.40482,-12324.41662,-29964.99449,-42789.21846,-78257.57006,-0.04,0.898,0.344,192,0,0,0,0,0,0,0,0,0,1709548888,0, 2024-03-04 16:11:27.795
194,-99655.61028,-31105.5146,-19226.45649,-31924.97425,-11884.1096,-29974.22576,-42769.25835,-78277.86544,-0.04,0.898,0.344,192,0,0,0,0,0,0,0,0,0,1709548888,0, 2024-03-04 16:11:28.276
195,-99632.31976,-31096.75271,-19212.64311,-31921.53209,-11108.68288,-29978.18202,-42758.50716,-78303.72641,-0.04,0.898,0.344,192,0,0,0,0,0,0,0,0,0,1709548888,0, 2024-03-04 16:11:28.276
196,-99609.90096,-31083.36402,-19201.33313,-31905.21531,-10997.86293,-29973.82343,-42767.58197,-78285.42033,-0.04,0.898,0.344,192,0,0,0,0,0,0,0,0,0,1709548888,0, 2024-03-04 16:11:28.276
197,-99625.14485,-31091.03067,-19211.1679,-31907.31638,-11725.52398,-29972.2141,-42765.27974,-78259.42525,-0.038,0.904,0.344,192,254,208,28,64,10,192,0,0,0,1709548888,0, 2024-03-04 16:11:28.276
198,-99661.22057,-31111.81779,-19238.23586,-31924.68368,-12317.68874,-29970.2695,-42761.79287,-78236.49236,-0.038,0.904,0.344,192,0,0,0,0,0,0,0,0,0,1709548888,0, 2024-03-04 16:11:28.276
199,-99678.18554,-31126.23467,-19246.86363,-31940.35225,-11878.11933,-29971.83412,-42767.2914,-78235.7324,-0.038,0.904,0.344,192,0,0,0,0,0,0,0,0,0,1709548888,0, 2024-03-04 16:11:28.276
200,-99654.20212,-31109.76143,-19240.20281,-31932.97618,-11101.35151,-29972.32586,-42764.07275,-78253.6138,-0.038,0.904,0.344,192,0,0,0,0,0,0,0,0,0,1709548888,0, 2024-03-04 16:11:28.276
201,-99626.3295,-31085.59919,-19215.61589,-31915.25124,-11004.85903,-29974.62809,-42791.58775,-78277.48546,-0.038,0.904,0.344,192,0,0,0,0,0,0,0,0,0,1709548888,0, 2024-03-04 16:11:28.276
202,-99639.94171,-31089.60016,-19226.88117,-31916.32413,-11727.82621,-29974.22576,-42815.21354,-78237.31938,-0.038,0.904,0.344,192,0,0,0,0,0,0,0,0,0,1709548888,0, 2024-03-04 16:11:28.276
203,-99667.70258,-31104.97816,-19244.94138,-31928.12585,-12304.99295,-29967.81081,-42782.28942,-78207.32334,-0.038,0.904,0.344,192,0,0,0,0,0,0,0,0,0,1709548888,0, 2024-03-04 16:11:28.276
204,-99671.10004,-31111.86249,-19248.38355,-31938.83234,-11888.06586,-29969.75541,-42769.05719,-78219.59445,-0.038,0.904,0.344,192,0,0,0,0,0,0,0,0,0,1709548888,0, 2024-03-04 16:11:28.276
205,-99645.61905,-31098.67496,-19218.40986,-31933.31145,-11119.07644,-29976.61739,-42776.41091,-78260.38638,-0.038,0.904,0.344,192,0,0,0,0,0,0,0,0,0,1709548888,0, 2024-03-04 16:11:28.276
206,-99620.31688,-31080.92768,-19207.07753,-31919.78865,-11007.51889,-29983.0547,-42796.1475,-78290.1589,-0.038,0.904,0.344,192,0,0,0,0,0,0,0,0,0,1709548888,0, 2024-03-04 16:11:28.276
207,-99624.56371,-31079.38541,-19210.47499,-31912.23376,-11719.17608,-29977.355,-42809.20092,-78250.08222,-0.034,0.902,0.342,192,254,240,28,48,10,176,0,0,0,1709548888,0, 2024-03-04 16:11:28.276
208,-99649.79883,-31093.13173,-19222.94727,-31921.08505,-12302.80248,-29970.29185,-42795.99104,-78210.6761,-0.034,0.902,0.342,192,0,0,0,0,0,0,0,0,0,1709548888,0, 2024-03-04 16:11:28.276
209,-99657.59959,-31100.68662,-19222.0979,-31930.15986,-11878.45461,-29970.51537,-42775.22627,-78214.31943,-0.034,0.902,0.342,192,0,0,0,0,0,0,0,0,0,1709548888,0, 2024-03-04 16:11:28.276
210,-99629.5258,-31081.73234,-19202.09309,-31918.60401,-11099.94335,-29970.87299,-42764.20686,-78236.60412,-0.034,0.902,0.342,192,0,0,0,0,0,0,0,0,0,1709548888,0, 2024-03-04 16:11:28.276
211,-99607.33051,-31065.01324,-19196.88513,-31906.42231,-10975.39943,-29978.69611,-42797.30979,-78257.01127,-0.034,0.902,0.342,192,0,0,0,0,0,0,0,0,0,1709548888,0, 2024-03-04 16:11:28.276
212,-99614.10309,-31064.49915,-19209.02213,-31903.1366,-11677.73595,-29978.89727,-42806.3399,-78254.66433,-0.034,0.902,0.342,192,0,0,0,0,0,0,0,0,0,1709548888,0, 2024-03-04 16:11:28.276
213,-99636.49954,-31073.68571,-19213.42542,-31909.17157,-12291.26898,-29971.11886,-42801.26605,-78234.16778,-0.034,0.902,0.342,192,0,0,0,0,0,0,0,0,0,1709548888,0, 2024-03-04 16:11:28.276
214,-99649.24003,-31083.36402,-19215.43708,-31922.69438,-11897.543,-29975.4551,-42778.71314,-78247.73529,-0.034,0.902,0.342,192,0,0,0,0,0,0,0,0,0,1709548888,0, 2024-03-04 16:11:28.276
215,-99626.95535,-31071.80817,-19206.31757,-31920.30274,-11110.35926,-29984.08288,-42783.80934,-78296.10447,-0.034,0.902,0.342,192,0,0,0,0,0,0,0,0,0,1709548888,0, 2024-03-04 16:11:28.276
216,-99598.61333,-31049.47878,-19176.47799,-31898.53214,-10974.28184,-29981.44537,-42801.8919,-78308.55439,-0.034,0.902,0.342,192,0,0,0,0,0,0,0,0,0,1709548888,0, 2024-03-04 16:11:28.276
217,-99611.51029,-31054.30675,-19190.13491,-31894.10649,-11697.13726,-29977.22089,-42812.66544,-78277.50782,-0.032,0.9,0.348,192,255,0,28,32,10,224,0,0,0,1709548888,0, 2024-03-04 16:11:28.276
218,-99648.23421,-31077.50786,-19212.97839,-31908.38926,-12314.13481,-29973.15287,-42794.91816,-78250.52926,-0.032,0.9,0.348,192,0,0,0,0,0,0,0,0,0,1709548888,0, 2024-03-04 16:11:28.276
219,-99661.10881,-31090.87421,-19216.10763,-31922.22499,-11908.62947,-29973.35404,-42774.44396,-78261.88395,-0.032,0.9,0.348,192,0,0,0,0,0,0,0,0,0,1709548888,0, 2024-03-04 16:11:28.276
220,-99645.41789,-31086.9403,-19208.35158,-31921.39797,-11123.45739,-29976.50563,-42769.8395,-78263.98501,-0.032,0.9,0.348,192,0,0,0,0,0,0,0,0,0,1709548888,0, 2024-03-04 16:11:28.276
221,-99626.28479,-31074.53508,-19201.40018,-31909.32803,-10982.7308,-29978.27142,-42795.34284,-78255.84897,-0.032,0.9,0.348,192,0,0,0,0,0,0,0,0,0,1709548888,0, 2024-03-04 16:11:28.276
222,-99636.54424,-31077.61962,-19214.18538,-31909.41744,-11691.50462,-29977.93615,-42804.86468,-78252.49621,-0.032,0.9,0.348,192,0,0,0,0,0,0,0,0,0,1709548888,0, 2024-03-04 16:11:28.276
223,-99668.84251,-31097.1774,-19236.51478,-31924.259,-12307.47399,-29970.3142,-42790.02312,-78227.73048,-0.032,0.9,0.348,192,0,0,0,0,0,0,0,0,0,1709548888,0, 2024-03-04 16:11:28.276
224,-99682.34297,-31109.85084,-19244.13672,-31939.92757,-11922.21933,-29971.25297,-42772.16408,-78229.8986,-0.032,0.9,0.348,192,0,0,0,0,0,0,0,0,0,1709548888,0, 2024-03-04 16:11:28.276
225,-99659.96887,-31098.54085,-19235.01721,-31935.97131,-11160.22601,-29974.18105,-42792.19124,-78240.35922,-0.032,0.9,0.348,192,0,0,0,0,0,0,0,0,0,1709548888,0, 2024-03-04 16:11:28.276
226,-99641.21576,-31087.74496,-19229.04929,-31928.707,-11002.28858,-29984.4405,-42807.92687,-78254.48552,-0.032,0.9,0.348,192,0,0,0,0,0,0,0,0,0,1709548888,0, 2024-03-04 16:11:28.276
227,-99654.26918,-31093.26584,-19246.68482,-31930.51749,-11689.56002,-29988.48617,-42819.48272,-78253.77026,-0.032,0.9,0.35,192,255,0,28,32,10,240,0,0,0,1709548888,0, 2024-03-04 16:11:28.276
228,-99684.44403,-31112.04131,-19257.9501,-31946.32017,-12326.94236,-29990.92251,-42811.86078,-78256.54188,-0.032,0.9,0.35,192,0,0,0,0,0,0,0,0,0,1709548888,0, 2024-03-04 16:11:28.276
229,-99695.84342,-31123.73127,-19261.39227,-31961.67582,-11950.89661,-29996.44339,-42794.33701,-78270.13174,-0.032,0.9,0.35,192,0,0,0,0,0,0,0,0,0,1709548888,0, 2024-03-04 16:11:28.276
230,-99664.28276,-31103.6594,-19229.29516,-31945.85078,-11163.86934,-29989.71552,-42784.90457,-78247.42237,-0.032,0.9,0.35,192,0,0,0,0,0,0,0,0,0,1709548888,0, 2024-03-04 16:11:28.276
231,-99629.19052,-31078.6478,-19210.78792,-31924.37076,-11004.63551,-29987.77091,-42805.49053,-78244.40488,-0.032,0.9,0.35,192,0,0,0,0,0,0,0,0,0,1709548888,0, 2024-03-04 16:11:28.276
232,-99631.11277,-31072.8587,-19213.24661,-31917.44172,-11677.7583,-29984.17228,-42808.37391,-78250.84218,-0.032,0.9,0.35,192,0,0,0,0,0,0,0,0,0,1709548888,0, 2024-03-04 16:11:28.276
233,-99658.18073,-31085.24157,-19226.00946,-31926.98591,-12292.65479,-29977.9585,-42795.25343,-78232.42435,-0.032,0.9,0.35,192,0,0,0,0,0,0,0,0,0,1709548888,0, 2024-03-04 16:11:28.276
234,-99672.21763,-31097.8256,-19230.14453,-31941.5816,-11935.65273,-29983.54643,-42780.83656,-78239.84513,-0.032,0.9,0.35,192,0,0,0,0,0,0,0,0,0,1709548888,0, 2024-03-04 16:11:28.276
235,-99648.03304,-31086.2921,-19216.39821,-31937.64769,-11149.27365,-29991.99539,-42784.79281,-78263.35916,-0.032,0.9,0.35,192,0,0,0,0,0,0,0,0,0,1709548888,0, 2024-03-04 16:11:28.276
236,-99618.59579,-31064.72266,-19197.7792,-31920.05687,-10964.0671,-29996.10811,-42793.5547,-78291.00827,-0.032,0.9,0.35,192,0,0,0,0,0,0,0,0,0,1709548888,0, 2024-03-04 16:11:28.276
237,-99634.7561,-31072.814,-19215.39238,-31927.14237,-11635.53585,-30009.04977,-42823.41663,-78322.09955,-0.032,0.898,0.348,192,255,0,28,16,10,224,0,0,0,1709548888,0, 2024-03-04 16:11:28.276
238,-99655.61028,-31081.1959,-19227.95406,-31932.70796,-12257.49549,-29999.55028,-42801.04253,-78303.97228,-0.032,0.898,0.348,192,0,0,0,0,0,0,0,0,0,1709548888,0, 2024-03-04 16:11:28.276
239,-99661.0194,-31086.18034,-19237.74412,-31934.94313,-11900.49343,-29986.49686,-42761.25643,-78258.95587,-0.032,0.898,0.348,192,0,0,0,0,0,0,0,0,0,1709548888,0, 2024-03-04 16:11:28.276
240,-99647.22838,-31081.48647,-19202.49542,-31929.33284,-11142.27756,-29987.86032,-42768.5878,-78254.23965,-0.032,0.898,0.348,192,0,0,0,0,0,0,0,0,0,1709548888,0, 2024-03-04 16:11:28.276
241,-99624.27314,-31064.72266,-19192.12421,-31915.07243,-10980.31682,-29992.59889,-42814.52063,-78294.02575,-0.032,0.898,0.348,192,0,0,0,0,0,0,0,0,0,1709548888,0, 2024-03-04 16:11:28.276
242,-99623.37907,-31057.83833,-19198.53916,-31903.7401,-11653.28314,-29980.5066,-42798.38268,-78275.49616,-0.032,0.898,0.348,192,0,0,0,0,0,0,0,0,0,1709548888,0, 2024-03-04 16:11:28.276
243,-99654.5374,-31074.8033,-19222.20966,-31914.20071,-12289.6373,-29971.67766,-42789.1514,-78232.82668,-0.032,0.898,0.348,192,0,0,0,0,0,0,0,0,0,1709548888,0, 2024-03-04 16:11:28.276
244,-99670.04951,-31087.47674,-19231.19506,-31925.6001,-11968.95682,-29969.46483,-42770.86768,-78245.54482,-0.032,0.898,0.348,192,0,0,0,0,0,0,0,0,0,1709548888,0, 2024-03-04 16:11:28.276
245,-99655.94556,-31083.65459,-19222.20966,-31925.73421,-11195.96645,-29975.72332,-42780.94831,-78278.55835,-0.032,0.898,0.348,192,0,0,0,0,0,0,0,0,0,1709548888,0, 2024-03-04 16:11:28.276
246,-99635.89604,-31072.52342,-19212.21843,-31918.44754,-10999.38285,-29984.84284,-42808.55272,-78311.21425,-0.032,0.898,0.348,192,0,0,0,0,0,0,0,0,0,1709548888,0, 2024-03-04 16:11:28.276
247,-99649.62001,-31079.56422,-19227.32821,-31923.14141,-11668.57173,-29988.57558,-42816.84522,-78327.66513,-0.034,0.896,0.348,192,254,240,28,0,10,224,0,0,0,1709548888,0, 2024-03-04 16:11:28.276
248,-99679.25843,-31095.2775,-19241.29805,-31929.53401,-12300.88023,-29970.62713,-42799.43321,-78240.40392,-0.034,0.896,0.348,192,0,0,0,0,0,0,0,0,0,1709548888,0, 2024-03-04 16:11:28.276
249,-99693.6306,-31106.96746,-19247.44478,-31941.24632,-11967.92864,-29963.2287,-42776.50032,-78210.6314,-0.034,0.896,0.348,192,0,0,0,0,0,0,0,0,0,1709548888,0, 2024-03-04 16:11:28.276
250,-99674.63162,-31098.40674,-19240.15811,-31936.4854,-11175.15697,-29963.16164,-42759.02125,-78226.99287,-0.034,0.896,0.348,192,0,0,0,0,0,0,0,0,0,1709548888,0, 2024-03-04 16:11:28.276
251,-99643.54034,-31075.22798,-19239.08523,-31915.56417,-10966.45873,-29960.21121,-42790.9619,-78241.40975,-0.034,0.896,0.348,192,0,0,0,0,0,0,0,0,0,1709548888,0, 2024-03-04 16:11:28.276
252,-99647.00486,-31071.02586,-19219.21453,-31908.81394,-11644.99064,-29956.36671,-42817.20284,-78241.23093,-0.034,0.896,0.348,192,0,0,0,0,0,0,0,0,0,1709548888,0, 2024-03-04 16:11:28.276
253,-99681.4936,-31095.56807,-19244.15907,-31932.10446,-12308.18925,-29963.74279,-42806.76458,-78231.41852,-0.034,0.896,0.348,192,0,0,0,0,0,0,0,0,0,1709548888,0, 2024-03-04 16:11:28.276
254,-99691.59659,-31109.20264,-19248.65177,-31950.11997,-11974.14243,-29969.64365,-42790.85014,-78213.15714,-0.034,0.896,0.348,192,0,0,0,0,0,0,0,0,0,1709548888,0, 2024-03-04 16:11:28.276
255,-99668.12726,-31099.25611,-19234.3243,-31950.72346,-11193.4407,-29983.34527,-42774.17574,-78227.19404,-0.034,0.896,0.348,192,0,0,0,0,0,0,0,0,0,1709548888,0, 2024-03-04 16:11:28.276
0,-99638.08651,-31081.64294,-19213.35837,-31938.11708,-10979.71332,-29996.39869,-42792.99591,-78244.33783,-0.034,0.896,0.348,192,0,0,0,0,0,0,0,0,0,1709548888,0, 2024-03-04 16:11:28.276
1,-99642.33335,-31081.59823,-19218.05223,-31937.37947,-11629.36677,-30007.68632,-42814.63239,-78270.01998,-0.038,0.898,0.34,192,254,208,28,16,10,160,0,0,0,1709548888,0, 2024-03-04 16:11:28.276
2,-99659.38773,-31085.95682,-19226.65766,-31939.32407,-12268.29139,-30000.22084,-42790.38075,-78273.95389,-0.038,0.898,0.34,192,0,0,0,0,0,0,0,0,0,1709548888,0, 2024-03-04 16:11:28.276
3,-99671.43532,-31094.15991,-19229.76455,-31947.25894,-11975.93057,-29998.32094,-42776.14269,-78271.56225,-0.038,0.898,0.34,192,0,0,0,0,0,0,0,0,0,1709548888,0, 2024-03-04 16:11:28.276
4,-99653.73274,-31084.25809,-19216.39821,-31939.77111,-11189.77501,-29999.7738,-42785.35161,-78269.61765,-0.038,0.898,0.34,192,0,0,0,0,0,0,0,0,0,1709548888,0, 2024-03-04 16:11:28.276
5,-99619.13223,-31057.12307,-19202.09309,-31913.28429,-10970.5491,-29994.14116,-42804.70822,-78283.22986,-0.038,0.898,0.34,192,0,0,0,0,0,0,0,0,0,1709548888,0, 2024-03-04 16:11:28.276
6,-99622.30618,-31054.26205,-19214.83358,-31907.85282,-11616.17924,-29991.57071,-42798.89677,-78290.49418,-0.038,0.898,0.34,192,0,0,0,0,0,0,0,0,0,1709548888,0, 2024-03-04 16:11:28.276
7,-99654.98443,-31074.24451,-19212.19608,-31923.56609,-12283.8929,-29992.1295,-42804.12707,-78298.87608,-0.038,0.898,0.34,192,0,0,0,0,0,0,0,0,0,1709548888,0, 2024-03-04 16:11:28.276
8,-99670.49654,-31089.44369,-19228.35639,-31939.48054,-11976.60112,-29992.48713,-42782.51294,-78303.05586,-0.038,0.898,0.34,192,0,0,0,0,0,0,0,0,0,1709548888,0, 2024-03-04 16:11:28.276
9,-99649.26239,-31080.97238,-19221.06972,-31935.77015,-11182.04131,-29990.98956,-42794.91816,-78292.39408,-0.038,0.898,0.34,192,0,0,0,0,0,0,0,0,0,1709548888,0, 2024-03-04 16:11:28.276
10,-99616.27121,-31059.00062,-19197.7345,-31913.46311,-10949.24789,-29983.43468,-42804.86468,-78275.18323,-0.038,0.898,0.34,192,0,0,0,0,0,0,0,0,0,1709548888,0, 2024-03-04 16:11:28.276
11,-99620.42864,-31058.68769,-19206.027,-31908.56807,-11603.43875,-29982.29474,-42802.04836,-78267.0919,-0.038,0.898,0.34,192,0,0,0,0,0,0,0,0,0,1709548888,0, 2024-03-04 16:11:28.276
12,-99655.09619,-31081.06179,-19228.60226,-31924.46016,-12276.29331,-29978.6514,-42791.56539,-78237.14056,-0.04,0.896,0.342,192,254,192,28,0,10,176,0,0,0,1709548888,0, 2024-03-04 16:11:28.276
13,-99665.33329,-31091.92474,-19226.83647,-31933.95966,-12000.53984,-29971.90118,-42772.67817,-78236.67118,-0.04,0.896,0.342,192,0,0,0,0,0,0,0,0,0,1709548888,0, 2024-03-04 16:11:28.276
14,-99654.06801,-31089.39899,-19221.87438,-31934.63021,-11210.47273,-29978.27142,-42778.60138,-78263.60503,-0.04,0.896,0.342,192,0,0,0,0,0,0,0,0,0,1709548888,0, 2024-03-04 16:11:28.276
15,-99636.90187,-31082.58171,-19224.66835,-31930.27162,-10965.92229,-29991.32484,-42805.60229,-78318.23269,-0.04,0.896,0.342,192,0,0,0,0,0,0,0,0,0,1709548888,0, 2024-03-04 16:11:28.276
16,-99637.39361,-31079.18424,-19226.14357,-31922.82849,-11599.59425,-29984.3958,-42809.55855,-78299.54664,-0.04,0.896,0.342,192,0,0,0,0,0,0,0,0,0,1709548888,0, 2024-03-04 16:11:28.276
17,-99660.39356,-31090.1813,-19238.7276,-31923.63315,-12280.0037,-29963.11694,-42795.70047,-78210.69845,-0.04,0.896,0.342,192,0,0,0,0,0,0,0,0,0,1709548888,0, 2024-03-04 16:11:28.276
18,-99683.41585,-31112.48834,-19270.15415,-31947.9295,-12007.82651,-29970.9177,-42773.37107,-78215.03469,-0.04,0.896,0.342,192,0,0,0,0,0,0,0,0,0,1709548888,0, 2024-03-04 16:11:28.276
19,-99664.19335,-31104.82169,-19246.01427,-31949.33766,-11216.64181,-29977.93615,-42785.9104,-78250.4622,-0.04,0.896,0.342,192,0,0,0,0,0,0,0,0,0,1709548888,0, 2024-03-04 16:11:28.276
20,-99638.48885,-31090.60598,-19216.73348,-31939.27937,-10967.06223,-29986.51922,-42806.76458,-78268.65652,-0.04,0.896,0.342,192,0,0,0,0,0,0,0,0,0,1709548888,0, 2024-03-04 16:11:28.276
21,-99643.92032,-31093.82464,-19230.85978,-31938.94409,-11606.56799,-29989.71552,-42820.64501,-78255.67016,-0.04,0.896,0.342,192,0,0,0,0,0,0,0,0,0,1709548888,0, 2024-03-04 16:11:28.276
22,-99671.61413,-31111.92955,-19244.20378,-31951.46107,-12280.18251,-29987.21212,-42804.06002,-78240.47097,-0.034,0.898,0.336,192,254,240,28,16,10,128,0,0,0,1709548888,0, 2024-03-04 16:11:28.276
23,-99691.79776,-31130.45915,-19256.0055,-31972.02468,-12006.59716,-29995.86225,-42776.81324,-78264.63321,-0.034,0.898,0.336,192,0,0,0,0,0,0,0,0,0,1709548888,0, 2024-03-04 16:11:28.276
24,-99671.23415,-31121.31728,-19242.81797,-31967.17435,-11217.44647,-30000.04202,-42783.9211,-78270.39996,-0.034,0.898,0.336,192,0,0,0,0,0,0,0,0,0,1709548888,0, 2024-03-04 16:11:28.276
25,-99639.09234,-31096.50685,-19215.14651,-31944.46497,-10965.16233,-29998.76797,-42804.68587,-78280.32413,-0.034,0.898,0.336,192,0,0,0,0,0,0,0,0,0,1709548888,0, 2024-03-04 16:11:28.276
26,-99641.28281,-31090.15895,-19217.6052,-31933.69143,-11584.81974,-29997.15865,-42812.19605,-78279.89945,-0.034,0.898,0.336,192,0,0,0,0,0,0,0,0,0,1709548888,0, 2024-03-04 16:11:28.276
27,-99670.65301,-31105.67106,-19233.00555,-31942.36391,-12267.30791,-29995.07993,-42792.97355,-78252.78679,-0.034,0.898,0.336,192,0,0,0,0,0,0,0,0,0,1709548888,0, 2024-03-04 16:11:28.276
28,-99682.83471,-31116.17638,-19244.53905,-31956.11023,-12012.43097,-29995.95165,-42776.36621,-78248.22703,-0.034,0.898,0.336,192,0,0,0,0,0,0,0,0,0,1709548888,0, 2024-03-04 16:11:28.276
29,-99660.66178,-31106.02869,-19239.06287,-31952.15398,-11214.33958,-30000.91374,-42770.75592,-78267.94127,-0.034,0.898,0.336,192,0,0,0,0,0,0,0,0,0,1709548888,0, 2024-03-04 16:11:28.276
30,-99631.35864,-31083.83341,-19217.67225,-31932.97618,-10940.01662,-30002.88069,-42790.44781,-78273.03747,-0.034,0.898,0.336,192,0,0,0,0,0,0,0,0,0,1709548888,0, 2024-03-04 16:11:28.276
31,-99622.86498,-31070.9588,-19194.94053,-31917.48642,-11561.32806,-29994.6329,-42825.18242,-78269.41648,-0.034,0.898,0.336,192,0,0,0,0,0,0,0,0,0,1709548888,0, 2024-03-04 16:11:28.276
32,-99654.00096,-31092.28237,-19223.55076,-31930.85276,-12259.19423,-29992.0848,-42822.23199,-78256.00544,-0.034,0.896,0.338,192,254,240,28,0,10,144,0,0,0,1709548888,0, 2024-03-04 16:11:28.276
33,-99674.27399,-31108.97912,-19235.06191,-31947.326,-12006.84303,-29993.51531,-42794.44877,-78262.15217,-0.034,0.896,0.338,192,0,0,0,0,0,0,0,0,0,1709548888,0, 2024-03-04 16:11:28.276
34,-99650.46938,-31094.15991,-19217.31463,-31938.63117,-11216.06066,-29991.25779,-42779.69662,-78283.14045,-0.034,0.896,0.338,192,0,0,0,0,0,0,0,0,0,1709548888,0, 2024-03-04 16:11:28.276
35,-99630.9116,-31083.11815,-19210.11737,-31930.56219,-10943.72701,-29997.13629,-42806.71988,-78297.62439,-0.034,0.896,0.338,192,0,0,0,0,0,0,0,0,0,1709548888,0, 2024-03-04 16:11:28.277
36,-99638.39944,-31087.49909,-19221.74027,-31932.12681,-11550.64393,-29998.81268,-42817.3146,-78283.94512,-0.034,0.896,0.338,192,0,0,0,0,0,0,0,0,0,1709548888,0, 2024-03-04 16:11:28.277
37,-99673.06699,-31111.14724,-19245.03079,-31952.4669,-12256.15439,-30001.40548,-42816.75581,-78286.20264,-0.034,0.896,0.338,192,0,0,0,0,0,0,0,0,0,1709548888,0, 2024-03-04 16:11:28.277
38,-99691.50718,-31127.17344,-19254.91026,-31968.98484,-12034.55919,-30001.00315,-42803.61298,-78297.62439,-0.034,0.896,0.338,192,0,0,0,0,0,0,0,0,0,1709548888,0, 2024-03-04 16:11:28.277
39,-99674.63162,-31121.38434,-19241.29805,-31964.15686,-11239.53,-29996.77867,-42795.25343,-78290.13655,-0.034,0.896,0.338,192,0,0,0,0,0,0,0,0,0,1709548888,0, 2024-03-04 16:11:28.277
40,-99650.33527,-31107.54861,-19237.61001,-31948.73416,-10940.30719,-29996.13047,-42823.059,-78273.17158,-0.034,0.896,0.338,192,0,0,0,0,0,0,0,0,0,1709548888,0, 2024-03-04 16:11:28.277
41,-99648.48008,-31103.72646,-19239.4205,-31937.51358,-11550.19689,-29989.46965,-42822.4555,-78254.28435,-0.034,0.896,0.338,192,0,0,0,0,0,0,0,0,0,1709548888,0, 2024-03-04 16:11:28.277
42,-99675.16806,-31116.77988,-19230.63627,-31945.4261,-12261.31764,-29982.22768,-42815.16884,-78237.18527,-0.038,0.898,0.348,192,254,208,28,16,10,224,0,0,0,1709548888,0, 2024-03-04 16:11:28.277
43,-99693.78706,-31131.26381,-19251.19987,-31958.9042,-12045.89153,-29976.97502,-42798.49443,-78221.13672,-0.038,0.898,0.348,192,0,0,0,0,0,0,0,0,0,1709548888,0, 2024-03-04 16:11:28.277
44,-99675.88331,-31123.95479,-19247.0201,-31955.90907,-11257.05376,-29977.80204,-42790.55956,-78229.74214,-0.038,0.898,0.348,192,0,0,0,0,0,0,0,0,0,1709548888,0, 2024-03-04 16:11:28.277
45,-99643.87562,-31101.58069,-19232.58087,-31941.17927,-10972.00197,-29983.0994,-42822.00847,-78238.57108,-0.038,0.898,0.348,192,0,0,0,0,0,0,0,0,0,1709548888,0, 2024-03-04 16:11:28.277
46,-99631.31394,-31087.23087,-19225.62948,-31930.6516,-11560.23283,-29979.63488,-42826.16589,-78230.21152,-0.038,0.898,0.348,192,0,0,0,0,0,0,0,0,0,1709548888,0, 2024-03-04 16:11:28.277
47,-99666.40617,-31108.84501,-19253.16682,-31948.77886,-12274.95221,-29983.7923,-42826.09884,-78230.45739,-0.038,0.898,0.348,192,0,0,0,0,0,0,0,0,0,1709548888,0, 2024-03-04 16:11:28.277
48,-99691.97657,-31123.82068,-19258.91122,-31959.84298,-12067.39391,-29980.61836,-42797.19803,-78218.78978,-0.038,0.898,0.348,192,0,0,0,0,0,0,0,0,0,1709548888,0, 2024-03-04 16:11:28.277
49,-99666.22736,-31104.93345,-19229.92101,-31944.75555,-11268.05082,-29972.61643,-42782.73645,-78217.22516,-0.038,0.898,0.348,192,0,0,0,0,0,0,0,0,0,1709548888,0, 2024-03-04 16:11:28.277
50,-99629.90578,-31083.02874,-19211.77139,-31929.62342,-10951.61718,-29980.14897,-42800.43904,-78245.2766,-0.038,0.898,0.348,192,0,0,0,0,0,0,0,0,0,1709548888,0, 2024-03-04 16:11:28.277
51,-99622.55205,-31075.76443,-19216.48761,-31925.93538,-11539.98214,-29989.55905,-42808.79859,-78278.42424,-0.038,0.898,0.348,192,0,0,0,0,0,0,0,0,0,1709548888,0, 2024-03-04 16:11:28.277
52,-99652.27987,-31094.5846,-19243.48852,-31943.25798,-12249.67238,-29998.79032,-42809.06681,-78298.31729,-0.036,0.898,0.35,192,254,224,28,16,10,240,0,0,0,1709548888,0, 2024-03-04 16:11:28.277
53,-99669.11074,-31110.16376,-19238.61584,-31955.0597,-12042.35995,-30002.72423,-42805.98227,-78307.25799,-0.036,0.898,0.35,192,0,0,0,0,0,0,0,0,0,1709548888,0, 2024-03-04 16:11:28.277
54,-99639.33821,-31091.65652,-19212.26313,-31939.99463,-11238.56887,-29998.65621,-42793.44294,-78295.76919,-0.036,0.898,0.35,192,0,0,0,0,0,0,0,0,0,1709548888,0, 2024-03-04 16:11:28.277
55,-99611.93497,-31073.23868,-19186.44687,-31922.00147,-10916.0779,-30001.0255,-42800.48374,-78262.33098,-0.036,0.898,0.35,192,0,0,0,0,0,0,0,0,0,1709548888,0, 2024-03-04 16:11:28.277
56,-99608.06812,-31066.06377,-19190.58194,-31911.11617,-11489.60131,-29996.97983,-42801.33311,-78248.07057,-0.036,0.898,0.35,192,0,0,0,0,0,0,0,0,0,1709548888,0, 2024-03-04 16:11:28.277
57,-99638.37709,-31083.63224,-19211.99491,-31923.92372,-12216.94943,-29995.50462,-42816.91227,-78241.40975,-0.036,0.898,0.35,192,0,0,0,0,0,0,0,0,0,1709548888,0, 2024-03-04 16:11:28.277
58,-99653.2857,-31096.95388,-19217.89577,-31938.65352,-12031.36289,-29995.19169,-42798.42738,-78243.53316,-0.036,0.898,0.35,192,0,0,0,0,0,0,0,0,0,1709548888,0, 2024-03-04 16:11:28.277
59,-99631.31394,-31084.79453,-19206.42933,-31933.57968,-11231.50572,-29994.54349,-42782.55764,-78268.70123,-0.036,0.898,0.35,192,0,0,0,0,0,0,0,0,0,1709548889,0, 2024-03-04 16:11:28.757
60,-99607.91166,-31068.90244,-19195.8346,-31921.84501,-10926.80674,-30000.04202,-42799.20969,-78304.1958,-0.036,0.898,0.35,192,0,0,0,0,0,0,0,0,0,1709548889,0, 2024-03-04 16:11:28.757
61,-99616.38297,-31071.85287,-19207.43516,-31920.79448,-11534.57302,-30004.28885,-42819.66154,-78301.11126,-0.036,0.898,0.35,192,0,0,0,0,0,0,0,0,0,1709548889,0, 2024-03-04 16:11:28.757
62,-99646.55783,-31085.97917,-19222.90256,-31927.20943,-12268.29139,-29991.41425,-42810.89965,-78256.43012,-0.04,0.896,0.344,192,254,192,28,0,10,192,0,0,0,1709548889,0, 2024-03-04 16:11:28.757
63,-99666.00384,-31099.1667,-19230.4798,-31939.77111,-12083.01778,-29982.71942,-42786.24568,-78240.69449,-0.04,0.896,0.344,192,0,0,0,0,0,0,0,0,0,1709548889,0, 2024-03-04 16:11:28.757
64,-99646.51312,-31087.99083,-19221.91909,-31935.30076,-11287.38508,-29979.41136,-42779.04842,-78275.29499,-0.04,0.896,0.344,192,0,0,0,0,0,0,0,0,0,1709548889,0, 2024-03-04 16:11:28.757
65,-99616.51708,-31068.00837,-19206.69755,-31920.01217,-10944.01758,-29981.53478,-42794.56053,-78319.19382,-0.04,0.896,0.344,192,0,0,0,0,0,0,0,0,0,1709548889,0, 2024-03-04 16:11:28.757
66,-99620.29453,-31067.87426,-19220.53328,-31913.73133,-11511.34956,-29980.5513,-42812.37487,-78292.50584,-0.04,0.896,0.344,192,0,0,0,0,0,0,0,0,0,1709548889,0, 2024-03-04 16:11:28.757
67,-99647.89893,-31082.06762,-19227.70819,-31916.63705,-12248.10776,-29967.25201,-42805.02114,-78226.50113,-0.04,0.896,0.344,192,0,0,0,0,0,0,0,0,0,1709548889,0, 2024-03-04 16:11:28.757
68,-99669.3566,-31095.94805,-19222.1426,-31930.07045,-12094.66304,-29962.75931,-42778.98136,-78225.22708,-0.04,0.896,0.344,192,0,0,0,0,0,0,0,0,0,1709548889,0, 2024-03-04 16:11:28.757
69,-99656.05732,-31093.60112,-19214.63242,-31932.17152,-11282.91473,-29966.31324,-42767.2914,-78225.18238,-0.04,0.896,0.344,192,0,0,0,0,0,0,0,0,0,1709548889,0, 2024-03-04 16:11:28.757
70,-99633.86203,-31083.25226,-19212.97839,-31927.34354,-10939.7037,-29978.91962,-42793.68881,-78258.53118,-0.04,0.896,0.344,192,0,0,0,0,0,0,0,0,0,1709548889,0, 2024-03-04 16:11:28.757
71,-99632.27506,-31078.17842,-19212.91133,-31920.54861,-11508.17561,-29978.51729,-42811.12317,-78259.20174,-0.04,0.896,0.344,192,0,0,0,0,0,0,0,0,0,1709548889,0, 2024-03-04 16:11:28.757
72,-99653.44216,-31084.59337,-19216.957,-31920.57096,-12243.4586,-29962.40168,-42809.96088,-78192.99587,-0.04,0.894,0.346,192,254,192,27,240,10,208,0,0,0,1709548889,0, 2024-03-04 16:11:28.757
73,-99680.93481,-31111.19194,-19232.80439,-31946.85661,-12098.86516,-29974.27046,-42788.59261,-78207.34569,-0.04,0.894,0.346,192,0,0,0,0,0,0,0,0,0,1709548889,0, 2024-03-04 16:11:28.757
74,-99659.70065,-31100.12783,-19219.5498,-31944.30851,-11300.52791,-29979.23255,-42770.4877,-78222.72369,-0.04,0.894,0.346,192,0,0,0,0,0,0,0,0,0,1709548889,0, 2024-03-04 16:11:28.757
75,-99629.10111,-31080.30183,-19206.7646,-31930.96452,-10957.36157,-29987.86032,-42793.5547,-78238.30286,-0.04,0.894,0.346,192,0,0,0,0,0,0,0,0,0,1709548889,0, 2024-03-04 16:11:28.757
76,-99629.97283,-31077.84314,-19216.3535,-31930.45043,-11509.40496,-30001.22666,-42810.45262,-78281.66524,-0.04,0.894,0.346,192,0,0,0,0,0,0,0,0,0,1709548889,0, 2024-03-04 16:11:28.757
77,-99649.06122,-31079.36306,-19214.4089,-31929.69047,-12237.04365,-29990.34136,-42798.40503,-78247.2212,-0.04,0.894,0.346,192,0,0,0,0,0,0,0,0,0,1709548889,0, 2024-03-04 16:11:28.757
78,-99660.10298,-31087.14146,-19222.76845,-31939.10056,-12105.7942,-29984.66402,-42771.00179,-78215.23586,-0.04,0.894,0.346,192,0,0,0,0,0,0,0,0,0,1709548889,0, 2024-03-04 16:11:28.757
79,-99642.95919,-31079.43011,-19218.2981,-31939.90522,-11309.55801,-29992.0401,-42774.44396,-78241.52151,-0.04,0.894,0.346,192,0,0,0,0,0,0,0,0,0,1709548889,0, 2024-03-04 16:11:28.757
80,-99616.51708,-31063.76154,-19217.0017,-31930.96452,-10929.82422,-30003.21597,-42787.40797,-78284.90624,-0.04,0.894,0.346,192,0,0,0,0,0,0,0,0,0,1709548889,0, 2024-03-04 16:11:28.757
81,-99610.28094,-31054.21735,-19202.9201,-31917.30761,-11474.35742,-29996.86807,-42807.30102,-78279.43007,-0.04,0.894,0.346,192,0,0,0,0,0,0,0,0,0,1709548889,0, 2024-03-04 16:11:28.757
82,-99634.39848,-31065.25911,-19210.13972,-31917.30761,-12219.34107,-29982.31709,-42813.4254,-78243.48846,-0.034,0.89,0.346,192,254,240,27,208,10,208,0,0,0,1709548889,0, 2024-03-04 16:11:28.757
83,-99660.43826,-31088.2814,-19224.86952,-31939.97227,-12105.95067,-29991.03427,-42793.01826,-78265.50493,-0.034,0.89,0.346,192,0,0,0,0,0,0,0,0,0,1709548889,0, 2024-03-04 16:11:28.757
84,-99639.98641,-31075.67502,-19210.92203,-31930.22691,-11319.52689,-29983.94877,-42783.71993,-78265.61669,-0.034,0.89,0.346,192,0,0,0,0,0,0,0,0,0,1709548889,0, 2024-03-04 16:11:28.757
85,-99611.01855,-31056.09489,-19193.97941,-31910.2221,-10931.3665,-29980.90893,-42787.74325,-78280.65941,-0.034,0.89,0.346,192,0,0,0,0,0,0,0,0,0,1709548889,0, 2024-03-04 16:11:28.757
86,-99605.14004,-31046.99773,-19191.11838,-31895.62641,-11475.72088,-29972.95171,-42795.47695,-78275.18323,-0.034,0.89,0.346,192,0,0,0,0,0,0,0,0,0,1709548889,0, 2024-03-04 16:11:28.757
87,-99632.27506,-31061.41461,-19215.77236,-31904.3883,-12231.3663,-29964.86038,-42804.06002,-78256.18425,-0.034,0.89,0.346,192,0,0,0,0,0,0,0,0,0,1709548889,0, 2024-03-04 16:11:28.757
88,-99652.83867,-31077.9549,-19219.97448,-31922.38145,-12127.76597,-29965.62033,-42787.36327,-78262.91213,-0.034,0.89,0.346,192,0,0,0,0,0,0,0,0,0,1709548889,0, 2024-03-04 16:11:28.757
89,-99633.43735,-31066.89078,-19198.60622,-31916.21237,-11329.27225,-29959.40655,-42767.58197,-78237.72171,-0.034,0.89,0.346,192,0,0,0,0,0,0,0,0,0,1709548889,0, 2024-03-04 16:11:28.757
90,-99604.84947,-31048.89763,-19191.96775,-31905.46118,-10932.21586,-29965.73209,-42777.68496,-78249.03169,-0.034,0.89,0.346,192,0,0,0,0,0,0,0,0,0,1709548889,0, 2024-03-04 16:11:28.757
91,-99603.70953,-31044.96372,-19201.55665,-31903.67304,-11466.42255,-29972.66113,-42815.81704,-78276.94902,-0.034,0.89,0.346,192,0,0,0,0,0,0,0,0,0,1709548889,0, 2024-03-04 16:11:28.757
92,-99635.65017,-31064.18622,-19208.79861,-31920.28039,-12219.58693,-29976.72915,-42802.20482,-78282.55931,-0.034,0.892,0.344,192,254,240,27,224,10,192,0,0,0,1709548889,0, 2024-03-04 16:11:28.757
93,-99665.15448,-31088.16964,-19229.11635,-31942.02863,-12109.77281,-29978.69611,-42778.91431,-78251.49038,-0.034,0.892,0.344,192,0,0,0,0,0,0,0,0,0,1709548889,0, 2024-03-04 16:11:28.757
94,-99653.44216,-31086.40386,-19222.67905,-31941.84982,-11323.93018,-29975.43275,-42768.52074,-78219.72856,-0.034,0.892,0.344,192,0,0,0,0,0,0,0,0,0,1709548889,0, 2024-03-04 16:11:28.757
95,-99629.21287,-31074.87036,-19210.07266,-31934.20552,-10923.96807,-29981.803,-42776.54502,-78239.64396,-0.034,0.892,0.344,192,0,0,0,0,0,0,0,0,0,1709548889,0, 2024-03-04 16:11:28.757
96,-99629.95048,-31071.62935,-19217.33698,-31929.10933,-11423.84248,-29982.47355,-42807.79276,-78233.56429,-0.034,0.892,0.344,192,0,0,0,0,0,0,0,0,0,1709548889,0, 2024-03-04 16:11:28.757
97,-99659.34302,-31087.67791,-19237.78882,-31941.29103,-12164.40048,-29980.99834,-42807.77041,-78225.31649,-0.034,0.892,0.344,192,0,0,0,0,0,0,0,0,0,1709548889,0, 2024-03-04 16:11:28.757
98,-99671.88235,-31096.97623,-19235.62071,-31950.38819,-12085.00708,-29976.48328,-42779.98719,-78217.51573,-0.034,0.892,0.344,192,0,0,0,0,0,0,0,0,0,1709548889,0, 2024-03-04 16:11:28.757
99,-99649.88824,-31086.04623,-19219.75097,-31943.95088,-11331.86505,-29977.64557,-42773.28167,-78213.76064,-0.034,0.892,0.344,192,0,0,0,0,0,0,0,0,0,1709548889,0, 2024-03-04 16:11:28.757
100,-99617.4335,-31064.58855,-19207.23399,-31924.79544,-10943.86112,-29978.91962,-42776.18739,-78214.72176,-0.034,0.892,0.344,192,0,0,0,0,0,0,0,0,0,1709548889,0, 2024-03-04 16:11:28.757
101,-99610.48211,-31056.76544,-19200.75198,-31917.08409,-11449.47993,-29984.82048,-42795.92398,-78238.8393,-0.034,0.892,0.344,192,0,0,0,0,0,0,0,0,0,1709548889,0, 2024-03-04 16:11:28.757
102,-99635.20314,-31065.72849,-19210.29618,-31921.17446,-12189.45678,-29978.91962,-42813.64892,-78240.8286,-0.034,0.89,0.35,192,254,240,27,208,10,240,0,0,0,1709548889,0, 2024-03-04 16:11:28.757
103,-99654.67151,-31080.34653,-19222.32142,-31936.68657,-12114.84666,-29983.27821,-42791.6548,-78271.38344,-0.034,0.89,0.35,192,0,0,0,0,0,0,0,0,0,1709548889,0, 2024-03-04 16:11:28.757
104,-99639.82995,-31071.98698,-19215.32532,-31932.39503,-11333.36262,-29985.17811,-42786.73742,-78287.40964,-0.034,0.89,0.35,192,0,0,0,0,0,0,0,0,0,1709548889,0, 2024-03-04 16:11:28.757
105,-99599.93209,-31040.91806,-19189.66552,-31898.08511,-10923.54338,-29967.45318,-42785.57513,-78239.97924,-0.034,0.89,0.35,192,0,0,0,0,0,0,0,0,0,1709548889,0, 2024-03-04 16:11:28.757
106,-99600.66969,-31035.88891,-19177.72969,-31887.57979,-11440.51688,-29967.7214,-42804.23883,-78251.24452,-0.034,0.89,0.35,192,0,0,0,0,0,0,0,0,0,1709548889,0, 2024-03-04 16:11:28.757
107,-99626.86594,-31046.43894,-19188.39147,-31887.87036,-12176.51512,-29954.04213,-42780.56834,-78219.63915,-0.034,0.89,0.35,192,0,0,0,0,0,0,0,0,0,1709548889,0, 2024-03-04 16:11:28.757
108,-99652.39163,-31066.91314,-19207.39045,-31907.40578,-12100.16156,-29955.45029,-42763.71512,-78221.5614,-0.034,0.89,0.35,192,0,0,0,0,0,0,0,0,0,1709548889,0, 2024-03-04 16:11:28.757
109,-99635.33725,-31058.48653,-19190.35842,-31902.71192,-11335.55309,-29953.0363,-42756.94254,-78236.35825,-0.034,0.89,0.35,192,0,0,0,0,0,0,0,0,0,1709548889,0, 2024-03-04 16:11:28.757
110,-99613.90193,-31046.68481,-19182.98235,-31895.51465,-10913.5298,-29963.2287,-42764.31862,-78268.23184,-0.034,0.89,0.35,192,0,0,0,0,0,0,0,0,0,1709548889,0, 2024-03-04 16:11:28.757
111,-99623.75905,-31054.44086,-19199.70145,-31903.31541,-11415.03589,-29980.12662,-42803.09889,-78301.98298,-0.034,0.89,0.35,192,0,0,0,0,0,0,0,0,0,1709548889,0, 2024-03-04 16:11:28.757
112,-99659.76771,-31080.21242,-19233.87727,-31925.35423,-12176.98451,-29988.79909,-42805.35642,-78286.13559,-0.03,0.892,0.352,192,255,16,27,224,11,0,0,0,0,1709548889,0, 2024-03-04 16:11:28.757
113,-99670.38478,-31086.40386,-19219.03571,-31928.37172,-12120.88163,-29972.54938,-42767.15729,-78224.46713,-0.03,0.892,0.352,192,0,0,0,0,0,0,0,0,0,1709548889,0, 2024-03-04 16:11:28.757
114,-99656.92903,-31082.35819,-19206.40698,-31930.98687,-11325.33834,-29974.1587,-42758.64127,-78231.77615,-0.03,0.892,0.352,192,0,0,0,0,0,0,0,0,0,1709548889,0, 2024-03-04 16:11:28.757
115,-99634.37612,-31069.57299,-19201.95898,-31925.77892,-10893.05561,-29985.06635,-42768.07371,-78260.67695,-0.03,0.892,0.352,192,0,0,0,0,0,0,0,0,0,1709548889,0, 2024-03-04 16:11:28.757
116,-99642.28864,-31072.41167,-19216.93465,-31927.67881,-11390.91836,-29994.16351,-42807.14456,-78245.2766,-0.03,0.892,0.352,192,0,0,0,0,0,0,0,0,0,1709548889,0, 2024-03-04 16:11:28.757
117,-99673.51403,-31085.6886,-19240.51574,-31937.67004,-12161.62886,-29990.94486,-42809.89382,-78239.62161,-0.03,0.892,0.352,192,0,0,0,0,0,0,0,0,0,1709548889,0, 2024-03-04 16:11:28.757
118,-99690.76958,-31093.71288,-19252.60803,-31946.27547,-12131.20814,-29979.43371,-42775.13686,-78235.55359,-0.03,0.892,0.352,192,0,0,0,0,0,0,0,0,0,1709548889,0, 2024-03-04 16:11:28.757
119,-99686.65685,-31097.78089,-19254.86556,-31955.19381,-11351.57929,-29987.25682,-42782.04355,-78240.24746,-0.03,0.892,0.352,192,0,0,0,0,0,0,0,0,0,1709548889,0, 2024-03-04 16:11:28.757
120,-99657.97957,-31079.51952,-19222.0979,-31943.43679,-10925.46563,-29993.3365,-42793.82292,-78269.0365,-0.03,0.892,0.352,192,0,0,0,0,0,0,0,0,0,1709548889,0, 2024-03-04 16:11:28.757
121,-99652.83867,-31071.87522,-19229.38457,-31936.32894,-11407.81628,-29993.56002,-42809.64795,-78282.96164,-0.03,0.892,0.352,192,0,0,0,0,0,0,0,0,0,1709548889,0, 2024-03-04 16:11:28.757
122,-99681.24773,-31088.46022,-19252.92096,-31946.90132,-12187.44513,-29987.43564,-42813.78303,-78228.42338,-0.028,0.888,0.356,192,255,32,27,192,11,32,0,0,0,1709548889,0, 2024-03-04 16:11:28.757
123,-99689.11555,-31091.85768,-19250.3058,-31952.4669,-12163.57346,-29974.82925,-42783.67523,-78178.84722,-0.028,0.888,0.356,192,0,0,0,0,0,0,0,0,0,1709548889,0, 2024-03-04 16:11:28.757
124,-99671.77059,-31085.84506,-19239.64402,-31954.65737,-11399.18851,-29982.94294,-42791.25247,-78212.19602,-0.028,0.888,0.356,192,0,0,0,0,0,0,0,0,0,1709548889,0, 2024-03-04 16:11:28.757
125,-99643.0486,-31072.29991,-19230.4798,-31947.52716,-10967.9116,-29999.93026,-42795.90163,-78263.35916,-0.028,0.888,0.356,192,0,0,0,0,0,0,0,0,0,1709548889,0, 2024-03-04 16:11:28.757
126,-99631.93978,-31062.82277,-19207.90454,-31933.98201,-11407.23513,-29999.70675,-42802.20482,-78253.81497,-0.028,0.888,0.356,192,0,0,0,0,0,0,0,0,0,1709548889,0, 2024-03-04 16:11:28.757
127,-99649.97764,-31069.79651,-19215.39238,-31932.84207,-12171.79891,-29987.97208,-42808.44096,-78225.80823,-0.028,0.888,0.356,192,0,0,0,0,0,0,0,0,0,1709548889,0, 2024-03-04 16:11:28.757
128,-99673.93871,-31088.10259,-19230.79273,-31951.61753,-12175.79987,-29993.69413,-42789.86666,-78246.08126,-0.028,0.888,0.356,192,0,0,0,0,0,0,0,0,0,1709548889,0, 2024-03-04 16:11:28.758
129,-99659.87947,-31083.27461,-19220.04154,-31951.75164,-11408.44213,-29998.58916,-42765.61502,-78275.16088,-0.028,0.888,0.356,192,0,0,0,0,0,0,0,0,0,1709548889,0, 2024-03-04 16:11:28.758
130,-99629.81637,-31060.92287,-19201.17667,-31929.69047,-10943.5482,-29994.11881,-42791.16306,-78272.32221,-0.028,0.888,0.356,192,0,0,0,0,0,0,0,0,0,1709548889,0, 2024-03-04 16:11:28.758
131,-99617.74643,-31041.00746,-19191.47601,-31903.62834,-11385.44218,-29976.19271,-42808.66448,-78258.19591,-0.028,0.888,0.356,192,0,0,0,0,0,0,0,0,0,1709548889,0, 2024-03-04 16:11:28.758
