Sample Index, EXG Channel 0, EXG Channel 1, EXG Channel 2, EXG Channel 3, EXG Channel 4, EXG Channel 5, EXG Channel 6, EXG Channel 7, Accel Channel 0, Accel Channel 1, Accel Channel 2, Other, Other.1, Other.2, Other.3, Other.4, Other.5, Other.6, Analog Channel 0, Analog Channel 1, Analog Channel 2, Timestamp, Other.7, Timestamp (Formatted)
0,-101711.859,-34592.81142,-16908.62529,-30547.77152,-9313.793101,-30311.24536,-37852.52277,-75960.88361,0.012,0.906,0.33,192,0,0,0,0,0,0,0,0,0,1709549183,0, 2024-03-04 16:16:22.509
1,-101677.3926,-34565.18466,-16897.20355,-30524.10102,-10251.87346,-30327.62919,-37920.51678,-75994.21006,0.012,0.906,0.33,192,0,0,0,0,0,0,0,0,0,1709549183,0, 2024-03-04 16:16:22.509
2,-101667.7814,-34555.97574,-16896.51065,-30514.53448,-11593.49222,-30339.69913,-37968.66244,-76028.6541,0.012,0.906,0.33,192,0,0,0,0,0,0,0,0,0,1709549183,0, 2024-03-04 16:16:22.509
3,-101698.4033,-34581.97082,-16911.55337,-30539.59078,-11515.55169,-30339.07328,-37914.16888,-76033.12445,0.012,0.906,0.33,192,0,0,0,0,0,0,0,0,0,1709549183,0, 2024-03-04 16:16:22.509
4,-101723.6384,-34607.74238,-16917.85656,-30565.02707,-10108.26351,-30329.1044,-37844.00676,-76016.4724,0.012,0.906,0.33,192,0,0,0,0,0,0,0,0,0,1709549183,0, 2024-03-04 16:16:22.509
5,-101711.7696,-34601.55095,-16911.41926,-30560.48966,-9315.782406,-30327.71859,-37852.1875,-76004.80479,0.012,0.906,0.33,192,0,0,0,0,0,0,0,0,0,1709549183,0, 2024-03-04 16:16:22.509
6,-101679.1808,-34574.34888,-16902.81384,-30535.14278,-10245.16794,-30336.1005,-37927.69169,-76015.44422,0.012,0.906,0.33,192,0,0,0,0,0,0,0,0,0,1709549183,0, 2024-03-04 16:16:22.509
7,-101674.3975,-34567.621,-16916.67192,-30523.74339,-11595.7721,-30338.87212,-37968.39422,-75984.59881,0.012,0.906,0.33,192,0,0,0,0,0,0,0,0,0,1709549183,0, 2024-03-04 16:16:22.509
8,-101697.0622,-34582.88724,-16901.0257,-30534.18166,-11521.5196,-30318.95671,-37919.73447,-75956.41326,0.012,0.906,0.33,192,0,0,0,0,0,0,0,0,0,1709549183,0, 2024-03-04 16:16:22.509
9,-101716.5529,-34601.32743,-16904.8702,-30554.85702,-10114.29848,-30305.70213,-37844.16322,-75985.96227,0.012,0.906,0.33,192,0,0,0,0,0,0,0,0,0,1709549183,0, 2024-03-04 16:16:22.509
10,-101705.2205,-34594.33134,-16903.84202,-30552.89007,-9322.62204,-30307.78084,-37853.01451,-76003.32958,0.01,0.908,0.33,192,0,80,28,96,10,80,0,0,0,1709549183,0, 2024-03-04 16:16:22.509
11,-101672.8999,-34563.10595,-16893.76138,-30525.35272,-10269.10666,-30315.64865,-37921.92494,-75995.50646,0.01,0.908,0.33,192,0,0,0,0,0,0,0,0,0,1709549183,0, 2024-03-04 16:16:22.509
12,-101666.7979,-34552.31006,-16898.54466,-30511.98638,-11622.23656,-30317.63796,-37959.8335,-75959.02842,0.01,0.908,0.33,192,0,0,0,0,0,0,0,0,0,1709549183,0, 2024-03-04 16:16:22.509
13,-101688.0991,-34567.5763,-16900.55631,-30522.62581,-11526.36993,-30299.73421,-37904.8035,-75945.10328,0.01,0.908,0.33,192,0,0,0,0,0,0,0,0,0,1709549183,0, 2024-03-04 16:16:22.509
14,-101711.3002,-34591.76088,-16909.69818,-30547.05626,-10106.8777,-30287.39605,-37826.10301,-75951.25001,0.01,0.908,0.33,192,0,0,0,0,0,0,0,0,0,1709549183,0, 2024-03-04 16:16:22.509
15,-101702.583,-34586.17295,-16909.56407,-30542.29534,-9325.19249,-30283.6186,-37838.73175,-75934.32974,0.01,0.908,0.33,192,0,0,0,0,0,0,0,0,0,1709549183,0, 2024-03-04 16:16:22.509
16,-101677.3256,-34561.29546,-16898.76817,-30512.56752,-10277.82384,-30287.30664,-37914.75003,-75915.73309,0.01,0.908,0.33,192,0,0,0,0,0,0,0,0,0,1709549183,0, 2024-03-04 16:16:22.509
17,-101678.5326,-34560.20022,-16917.27542,-30509.99707,-11634.64178,-30305.07628,-37954.17851,-75964.19167,0.01,0.908,0.33,192,0,0,0,0,0,0,0,0,0,1709549183,0, 2024-03-04 16:16:22.509
18,-101699.8114,-34576.09231,-16924.67385,-30523.76575,-11532.9637,-30290.70411,-37914.03477,-75951.89821,0.01,0.908,0.33,192,0,0,0,0,0,0,0,0,0,1709549183,0, 2024-03-04 16:16:22.509
19,-101713.1107,-34587.06702,-16913.98971,-30537.44501,-10118.00887,-30270.87811,-37846.91248,-75931.98281,0.01,0.908,0.33,192,0,0,0,0,0,0,0,0,0,1709549183,0, 2024-03-04 16:16:22.509
20,-101695.8105,-34573.05247,-16909.3629,-30529.73366,-9342.112761,-30271.45925,-37860.34588,-75931.82634,0.008,0.91,0.33,192,0,64,28,112,10,80,0,0,0,1709549183,0, 2024-03-04 16:16:22.509
21,-101660.8076,-34541.313,-16896.71181,-30501.88339,-10299.37092,-30283.64095,-37924.56245,-75950.98179,0.008,0.91,0.33,192,0,0,0,0,0,0,0,0,0,1709549183,0, 2024-03-04 16:16:22.509
22,-101651.554,-34527.11964,-16893.60492,-30491.62394,-11646.95759,-30297.85666,-37971.83638,-75974.80875,0.008,0.91,0.33,192,0,0,0,0,0,0,0,0,0,1709549183,0, 2024-03-04 16:16:22.509
23,-101668.6084,-34538.58608,-16896.60006,-30505.79494,-11528.60511,-30290.32413,-37909.65383,-75985.17996,0.008,0.91,0.33,192,0,0,0,0,0,0,0,0,0,1709549183,0, 2024-03-04 16:16:22.509
24,-101688.345,-34558.30032,-16899.57284,-30530.71714,-10092.7961,-30284.49032,-37840.20696,-76008.60459,0.008,0.91,0.33,192,0,0,0,0,0,0,0,0,0,1709549183,0, 2024-03-04 16:16:22.509
25,-101680.3431,-34554.92521,-16897.44942,-30531.45475,-9331.987421,-30290.36883,-37856.1214,-75988.53272,0.008,0.91,0.33,192,0,0,0,0,0,0,0,0,0,1709549183,0, 2024-03-04 16:16:22.509
26,-101651.174,-34530.18183,-16891.3921,-30511.11466,-10300.86849,-30306.08211,-37931.84911,-75997.96516,0.008,0.91,0.33,192,0,0,0,0,0,0,0,0,0,1709549183,0, 2024-03-04 16:16:22.509
27,-101644.4462,-34521.88933,-16892.10735,-30499.17883,-11638.35217,-30309.8819,-37966.76254,-75952.88169,0.008,0.91,0.33,192,0,0,0,0,0,0,0,0,0,1709549183,0, 2024-03-04 16:16:22.509
28,-101662.7299,-34537.11087,-16895.37071,-30512.12049,-11506.38747,-30295.28621,-37891.9289,-75940.2753,0.008,0.91,0.33,192,0,0,0,0,0,0,0,0,0,1709549183,0, 2024-03-04 16:16:22.509
29,-101688.725,-34564.17883,-16903.35028,-30540.66366,-10054.97695,-30291.8664,-37829.23226,-75980.24022,0.008,0.91,0.33,192,0,0,0,0,0,0,0,0,0,1709549183,0, 2024-03-04 16:16:22.509
30,-101681.0807,-34560.26728,-16901.20451,-30537.66853,-9296.112871,-30293.83335,-37860.34588,-76011.59972,0.01,0.908,0.334,192,0,80,28,96,10,112,0,0,0,1709549183,0, 2024-03-04 16:16:22.509
31,-101655.5326,-34535.6133,-16899.63989,-30513.12632,-10287.63625,-30304.31632,-37936.07359,-76016.09242,0.01,0.908,0.334,192,0,0,0,0,0,0,0,0,0,1709549183,0, 2024-03-04 16:16:22.509
32,-101651.0399,-34525.95735,-16904.06554,-30497.86007,-11653.30549,-30303.35519,-37972.64105,-75980.35198,0.01,0.908,0.334,192,0,0,0,0,0,0,0,0,0,1709549183,0, 2024-03-04 16:16:22.509
33,-101668.6754,-34538.18375,-16886.22885,-30504.11856,-11518.97151,-30281.87517,-37900.04258,-75964.83987,0.01,0.908,0.334,192,0,0,0,0,0,0,0,0,0,1709549183,0, 2024-03-04 16:16:22.509
34,-101693.0388,-34562.4801,-16897.24826,-30526.78323,-10052.65237,-30270.36402,-37826.14771,-75954.53572,0.01,0.908,0.334,192,0,0,0,0,0,0,0,0,0,1709549183,0, 2024-03-04 16:16:22.509
35,-101684.4781,-34556.17691,-16894.27547,-30521.8882,-9279.147897,-30270.20756,-37839.75993,-75945.12563,0.01,0.908,0.334,192,0,0,0,0,0,0,0,0,0,1709549183,0, 2024-03-04 16:16:22.509
36,-101660.1594,-34536.30621,-16895.10249,-30505.12439,-10276.19216,-30288.37952,-37904.46823,-75960.01189,0.01,0.908,0.334,192,0,0,0,0,0,0,0,0,0,1709549183,0, 2024-03-04 16:16:22.509
37,-101650.5482,-34525.935,-16895.46012,-30493.79206,-11653.21608,-30292.5146,-37951.65276,-75939.31418,0.01,0.908,0.334,192,0,0,0,0,0,0,0,0,0,1709549183,0, 2024-03-04 16:16:22.509
38,-101673.2128,-34542.27412,-16900.981,-30507.35957,-11516.78103,-30276.37664,-37893.35941,-75918.4153,0.01,0.908,0.334,192,0,0,0,0,0,0,0,0,0,1709549183,0, 2024-03-04 16:16:22.509
39,-101702.4266,-34573.94654,-16914.92849,-30544.19524,-10066.46574,-30281.78576,-37832.76383,-75977.93799,0.01,0.908,0.334,192,0,0,0,0,0,0,0,0,0,1709549183,0, 2024-03-04 16:16:22.509
40,-101689.2838,-34566.88339,-16907.57476,-30539.54608,-9301.589048,-30282.16574,-37837.27888,-75958.35787,0.008,0.904,0.338,192,0,64,28,64,10,144,0,0,0,1709549183,0, 2024-03-04 16:16:22.509
41,-101662.3946,-34544.12932,-16896.89063,-30516.03204,-10308.7363,-30295.82266,-37919.04156,-75950.44535,0.008,0.904,0.338,192,0,0,0,0,0,0,0,0,0,1709549183,0, 2024-03-04 16:16:22.509
42,-101663.0875,-34540.7542,-16909.80994,-30510.3994,-11693.91861,-30310.35129,-37965.82377,-75964.41519,0.008,0.904,0.338,192,0,0,0,0,0,0,0,0,0,1709549183,0, 2024-03-04 16:16:22.509
43,-101683.2711,-34557.09333,-16913.83325,-30524.19043,-11538.39517,-30298.05783,-37898.38855,-75963.72228,0.008,0.904,0.338,192,0,0,0,0,0,0,0,0,0,1709549183,0, 2024-03-04 16:16:22.509
44,-101699.2526,-34571.66667,-16900.69042,-30538.18262,-10049.63488,-30278.38829,-37827.17589,-75909.92164,0.008,0.904,0.338,192,0,0,0,0,0,0,0,0,0,1709549183,0, 2024-03-04 16:16:22.509
45,-101684.3887,-34559.2838,-16900.55631,-30530.94066,-9296.135222,-30277.02484,-37841.27985,-75894.36482,0.008,0.904,0.338,192,0,0,0,0,0,0,0,0,0,1709549183,0, 2024-03-04 16:16:22.509
46,-101656.5608,-34531.70175,-16892.15206,-30511.24877,-10312.31258,-30297.92372,-37918.54983,-75940.36471,0.008,0.904,0.338,192,0,0,0,0,0,0,0,0,0,1709549183,0, 2024-03-04 16:16:22.509
47,-101652.2469,-34524.0798,-16900.53396,-30505.95141,-11688.88947,-30312.45235,-37953.46325,-75966.13627,0.008,0.904,0.338,192,0,0,0,0,0,0,0,0,0,1709549183,0, 2024-03-04 16:16:22.509
48,-101677.0126,-34542.34118,-16910.63695,-30526.87264,-11524.80531,-30312.56411,-37911.73254,-76019.6687,0.008,0.904,0.338,192,0,0,0,0,0,0,0,0,0,1709549183,0, 2024-03-04 16:16:22.509
49,-101686.8027,-34548.62202,-16900.28809,-30535.76863,-10036.89439,-30291.84405,-37828.89698,-76025.23429,0.008,0.904,0.338,192,0,0,0,0,0,0,0,0,0,1709549183,0, 2024-03-04 16:16:22.509
50,-101671.5588,-34535.5239,-16889.69337,-30522.91638,-9285.227571,-30283.39509,-37844.94553,-75977.11098,0.01,0.906,0.34,192,0,80,28,80,10,160,0,0,0,1709549183,0, 2024-03-04 16:16:22.509
51,-101639.4394,-34505.08082,-16876.12586,-30488.65116,-10308.64689,-30283.05981,-37921.94729,-75924.69614,0.01,0.906,0.34,192,0,0,0,0,0,0,0,0,0,1709549183,0, 2024-03-04 16:16:22.509
52,-101633.0915,-34496.96714,-16878.11516,-30477.27412,-11692.19752,-30286.88196,-37963.1192,-75933.68154,0.01,0.906,0.34,192,0,0,0,0,0,0,0,0,0,1709549183,0, 2024-03-04 16:16:22.509
53,-101661.3664,-34520.50352,-16890.07335,-30499.60351,-11530.28149,-30283.12686,-37902.52363,-75980.55315,0.01,0.906,0.34,192,0,0,0,0,0,0,0,0,0,1709549183,0, 2024-03-04 16:16:22.509
54,-101695.8775,-34556.15456,-16902.9256,-30535.56747,-10038.10138,-30285.40674,-37833.79201,-76010.59389,0.01,0.906,0.34,192,0,0,0,0,0,0,0,0,0,1709549183,0, 2024-03-04 16:16:22.509
55,-101688.3226,-34551.97478,-16902.09858,-30528.59372,-9291.553115,-30279.93057,-37835.17782,-75963.76699,0.01,0.906,0.34,192,0,0,0,0,0,0,0,0,0,1709549183,0, 2024-03-04 16:16:22.509
56,-101657.2761,-34520.7941,-16887.32408,-30495.42373,-10330.23868,-30278.65652,-37909.16209,-75944.7233,0.01,0.906,0.34,192,0,0,0,0,0,0,0,0,0,1709549183,0, 2024-03-04 16:16:22.509
57,-101648.1118,-34508.83591,-16874.7177,-30477.83291,-11701.89818,-30275.41551,-37951.16102,-75917.78945,0.01,0.906,0.34,192,0,0,0,0,0,0,0,0,0,1709549183,0, 2024-03-04 16:16:22.509
58,-101680.1195,-34536.32856,-16894.72251,-30499.98349,-11522.23486,-30269.80523,-37881.93767,-75910.79335,0.01,0.906,0.34,192,0,0,0,0,0,0,0,0,0,1709549183,0, 2024-03-04 16:16:22.509
59,-101714.5859,-34571.97959,-16911.59808,-30535.14278,-10033.38516,-30272.50979,-37831.69095,-75969.7349,0.01,0.906,0.34,192,0,0,0,0,0,0,0,0,0,1709549183,0, 2024-03-04 16:16:22.509
60,-101699.4091,-34563.06124,-16899.6846,-30526.29149,-9295.397615,-30269.93934,-37837.16712,-75976.50748,0.016,0.904,0.338,192,0,128,28,64,10,144,0,0,0,1709549183,0, 2024-03-04 16:16:22.509
61,-101669.6366,-34538.60844,-16889.69337,-30501.21284,-10337.25713,-30279.63999,-37907.93275,-75963.81169,0.016,0.904,0.338,192,0,0,0,0,0,0,0,0,0,1709549183,0, 2024-03-04 16:16:22.509
62,-101670.9553,-34538.36257,-16894.90132,-30500.83286,-11709.00604,-30294.59331,-37947.67415,-75966.38214,0.016,0.904,0.338,192,0,0,0,0,0,0,0,0,0,1709549183,0, 2024-03-04 16:16:22.509
63,-101699.9008,-34563.06124,-16908.13356,-30523.7881,-11514.97054,-30286.23376,-37880.10483,-75924.71849,0.016,0.904,0.338,192,0,0,0,0,0,0,0,0,0,1709549183,0, 2024-03-04 16:16:22.509
64,-101723.1019,-34587.96109,-16916.60487,-30553.44886,-10026.52318,-30283.5739,-37811.2391,-75950.57946,0.016,0.904,0.338,192,0,0,0,0,0,0,0,0,0,1709549183,0, 2024-03-04 16:16:22.509
65,-101714.5189,-34582.999,-16918.79534,-30554.09706,-9301.477289,-30292.02286,-37836.72009,-75953.21696,0.016,0.904,0.338,192,0,0,0,0,0,0,0,0,0,1709549183,0, 2024-03-04 16:16:22.509
66,-101679.5831,-34549.35963,-16910.92752,-30517.50726,-10345.9296,-30287.15018,-37908.78211,-75870.51551,0.016,0.904,0.338,192,0,0,0,0,0,0,0,0,0,1709549183,0, 2024-03-04 16:16:22.509
67,-101669.4578,-34537.62496,-16912.87213,-30506.42079,-11722.5959,-30293.94511,-37935.29128,-75908.44642,0.016,0.904,0.338,192,0,0,0,0,0,0,0,0,0,1709549183,0, 2024-03-04 16:16:22.509
68,-101691.8542,-34558.30032,-16911.3075,-30529.26427,-11515.70815,-30294.10157,-37883.12231,-75957.84378,0.016,0.904,0.338,192,0,0,0,0,0,0,0,0,0,1709549183,0, 2024-03-04 16:16:22.509
69,-101715.1447,-34584.83184,-16923.19863,-30559.05915,-10033.11694,-30295.04034,-37838.7541,-75970.24899,0.016,0.904,0.338,192,0,0,0,0,0,0,0,0,0,1709549183,0, 2024-03-04 16:16:22.509
70,-101699.2303,-34574.03595,-16912.44744,-30552.95712,-9328.589955,-30299.84597,-37854.22151,-75989.98558,0.02,0.91,0.338,192,0,160,28,112,10,144,0,0,0,1709549183,0, 2024-03-04 16:16:22.509
71,-101659.8018,-34534.58512,-16889.55926,-30512.81339,-10385.17927,-30297.38728,-37908.91622,-75973.28883,0.02,0.91,0.338,192,0,0,0,0,0,0,0,0,0,1709549183,0, 2024-03-04 16:16:22.509
72,-101646.4802,-34520.7941,-16886.27355,-30495.35668,-11731.17897,-30297.87902,-37943.18145,-75948.97013,0.02,0.91,0.338,192,0,0,0,0,0,0,0,0,0,1709549183,0, 2024-03-04 16:16:22.509
73,-101665.7697,-34534.98745,-16885.08891,-30503.11273,-11491.45651,-30280.51171,-37871.81233,-75912.76031,0.02,0.91,0.338,192,0,0,0,0,0,0,0,0,0,1709549183,0, 2024-03-04 16:16:22.509
74,-101688.0321,-34556.24396,-16890.96742,-30524.74922,-9981.417356,-30272.17451,-37807.66282,-75932.51925,0.02,0.91,0.338,192,0,0,0,0,0,0,0,0,0,1709549183,0, 2024-03-04 16:16:22.509
75,-101666.0379,-34541.69298,-16878.33868,-30515.40619,-9286.300455,-30274.0297,-37833.81436,-75956.59208,0.02,0.91,0.338,192,0,0,0,0,0,0,0,0,0,1709549183,0, 2024-03-04 16:16:22.509
76,-101626.073,-34503.06916,-16859.27264,-30479.93397,-10347.15895,-30274.56615,-37904.57999,-75948.74662,0.02,0.91,0.338,192,0,0,0,0,0,0,0,0,0,1709549183,0, 2024-03-04 16:16:22.509
77,-101617.6017,-34489.3899,-16858.22211,-30466.14295,-11710.52596,-30277.76245,-37946.08718,-75973.62411,0.02,0.91,0.338,192,0,0,0,0,0,0,0,0,0,1709549183,0, 2024-03-04 16:16:22.509
78,-101649.967,-34514.08857,-16873.13072,-30490.05931,-11483.20871,-30274.07441,-37882.87644,-75996.35583,0.02,0.91,0.338,192,0,0,0,0,0,0,0,0,0,1709549183,0, 2024-03-04 16:16:22.509
79,-101676.9903,-34537.40144,-16885.55829,-30516.27791,-9980.031548,-30266.76539,-37816.44706,-75991.03612,0.02,0.91,0.338,192,0,0,0,0,0,0,0,0,0,1709549183,0, 2024-03-04 16:16:22.510
80,-101662.4393,-34525.44326,-16880.61856,-30505.48202,-9278.052661,-30262.92089,-37843.49267,-75978.76501,0.014,0.908,0.33,192,0,112,28,96,10,80,0,0,0,1709549183,0, 2024-03-04 16:16:22.510
81,-101627.2577,-34489.94869,-16847.67209,-30466.14295,-10349.19296,-30254.56134,-37914.07948,-75923.53385,0.014,0.908,0.33,192,0,0,0,0,0,0,0,0,0,1709549183,0, 2024-03-04 16:16:22.510
82,-101623.6367,-34482.72908,-16854.57878,-30452.62014,-11708.87193,-30253.13082,-37946.80243,-75894.32012,0.014,0.908,0.33,192,0,0,0,0,0,0,0,0,0,1709549183,0, 2024-03-04 16:16:22.510
83,-101657.9466,-34511.96516,-16870.38146,-30481.16332,-11465.86376,-30253.15318,-37888.55378,-75910.61454,0.014,0.908,0.33,192,0,0,0,0,0,0,0,0,0,1709549183,0, 2024-03-04 16:16:22.510
84,-101693.1953,-34548.33145,-16892.55439,-30524.36924,-9966.73226,-30264.9549,-37825.52187,-75971.97008,0.014,0.908,0.33,192,0,0,0,0,0,0,0,0,0,1709549183,0, 2024-03-04 16:16:22.510
85,-101671.8494,-34531.70175,-16880.4621,-30513.57335,-9272.509429,-30261.40097,-37831.31097,-75971.76891,0.014,0.908,0.33,192,0,0,0,0,0,0,0,0,0,1709549183,0, 2024-03-04 16:16:22.510
86,-101645.6084,-34509.68528,-16875.16473,-30491.37807,-10355.65261,-30275.05789,-37917.36518,-75966.29273,0.014,0.908,0.33,192,0,0,0,0,0,0,0,0,0,1709549183,0, 2024-03-04 16:16:22.510
87,-101646.0108,-34507.3607,-16883.7031,-30489.74639,-11733.5259,-30289.07243,-37952.05509,-76007.91168,0.014,0.908,0.33,192,0,0,0,0,0,0,0,0,0,1709549183,0, 2024-03-04 16:16:22.510
88,-101670.5753,-34526.00205,-16891.14623,-30506.19727,-11474.40213,-30274.70026,-37889.09023,-75966.4492,0.014,0.908,0.33,192,0,0,0,0,0,0,0,0,0,1709549183,0, 2024-03-04 16:16:22.510
89,-101693.5529,-34546.92329,-16892.06265,-30524.4363,-9956.74103,-30257.69058,-37804.06419,-75915.62133,0.014,0.908,0.33,192,0,0,0,0,0,0,0,0,0,1709549183,0, 2024-03-04 16:16:22.510
90,-101694.4917,-34552.77944,-16900.51161,-30536.88622,-9278.477344,-30279.93057,-37830.34984,-75981.15664,0.008,0.912,0.334,192,0,64,28,128,10,112,0,0,0,1709549183,0, 2024-03-04 16:16:22.990
91,-101670.3071,-34528.88543,-16899.66224,-30516.8367,-10380.5301,-30295.59914,-37924.56245,-75970.45016,0.008,0.912,0.334,192,0,0,0,0,0,0,0,0,0,1709549183,0, 2024-03-04 16:16:22.990
92,-101659.5112,-34515.1391,-16903.37263,-30502.77746,-11730.9331,-30296.42615,-37938.24171,-75922.37156,0.008,0.912,0.334,192,0,0,0,0,0,0,0,0,0,1709549183,0, 2024-03-04 16:16:22.990
93,-101682.7794,-34535.09921,-16903.66321,-30522.31288,-11466.84724,-30289.65357,-37875.38861,-75914.32493,0.008,0.912,0.334,192,0,0,0,0,0,0,0,0,0,1709549183,0, 2024-03-04 16:16:22.990
94,-101706.5169,-34558.16621,-16905.27253,-30549.17968,-9956.405754,-30287.21723,-37824.53839,-75927.73598,0.008,0.912,0.334,192,0,0,0,0,0,0,0,0,0,1709549183,0, 2024-03-04 16:16:22.990
95,-101688.725,-34546.09627,-16902.76914,-30544.64227,-9292.760109,-30293.29691,-37850.75699,-75937.23547,0.008,0.912,0.334,192,0,0,0,0,0,0,0,0,0,1709549183,0, 2024-03-04 16:16:22.990
96,-101650.6823,-34509.77469,-16892.6438,-30517.30609,-10389.44845,-30305.74683,-37927.64699,-75971.21012,0.008,0.912,0.334,192,0,0,0,0,0,0,0,0,0,1709549183,0, 2024-03-04 16:16:22.990
97,-101643.4627,-34497.14595,-16891.54856,-30503.24684,-11749.95443,-30306.86442,-37959.65468,-75937.72721,0.008,0.912,0.334,192,0,0,0,0,0,0,0,0,0,1709549183,0, 2024-03-04 16:16:22.990
98,-101668.2955,-34515.38497,-16899.70695,-30519.9436,-11480.16888,-30296.98495,-37898.52266,-75931.82634,0.008,0.912,0.334,192,0,0,0,0,0,0,0,0,0,1709549183,0, 2024-03-04 16:16:22.990
99,-101690.8484,-34537.44615,-16909.85464,-30547.05626,-9971.470829,-30295.62149,-37836.56363,-75972.8865,0.008,0.912,0.334,192,0,0,0,0,0,0,0,0,0,1709549183,0, 2024-03-04 16:16:22.990
100,-101674.5092,-34525.10798,-16901.6292,-30542.47416,-9307.735778,-30302.63994,-37853.99799,-76029.43641,0.004,0.908,0.326,192,0,32,28,96,10,48,0,0,0,1709549183,0, 2024-03-04 16:16:22.990
101,-101647.1507,-34498.10708,-16894.81192,-30519.45186,-10402.79244,-30316.00628,-37938.88991,-76078.16322,0.004,0.908,0.326,192,0,0,0,0,0,0,0,0,0,1709549183,0, 2024-03-04 16:16:22.990
102,-101642.3898,-34487.46765,-16896.62241,-30503.13509,-11755.9894,-30311.84886,-37977.49138,-76017.99232,0.004,0.908,0.326,192,0,0,0,0,0,0,0,0,0,1709549183,0, 2024-03-04 16:16:22.990
103,-101671.2906,-34509.43941,-16906.54658,-30516.03204,-11479.85595,-30292.08991,-37914.97355,-75943.02457,0.004,0.908,0.326,192,0,0,0,0,0,0,0,0,0,1709549183,0, 2024-03-04 16:16:22.990
104,-101694.4917,-34530.5171,-16914.74967,-30537.10974,-9964.340623,-30281.42813,-37845.05729,-75944.34332,0.004,0.908,0.326,192,0,0,0,0,0,0,0,0,0,1709549183,0, 2024-03-04 16:16:22.990
105,-101679.9407,-34520.95056,-16910.45814,-30532.88526,-9323.225537,-30285.76437,-37863.8104,-75987.30337,0.004,0.908,0.326,192,0,0,0,0,0,0,0,0,0,1709549183,0, 2024-03-04 16:16:22.990
106,-101643.3062,-34487.37824,-16885.78181,-30499.31294,-10410.48144,-30286.97136,-37935.24658,-75983.1236,0.004,0.908,0.326,192,0,0,0,0,0,0,0,0,0,1709549183,0, 2024-03-04 16:16:22.990
107,-101643.4627,-34483.24317,-16897.76235,-30493.6803,-11775.39072,-30296.51556,-37982.81109,-76012.20322,0.004,0.908,0.326,192,0,0,0,0,0,0,0,0,0,1709549183,0, 2024-03-04 16:16:22.990
108,-101667.0438,-34499.93992,-16900.24339,-30502.21866,-11475.60912,-30270.11815,-37906.56929,-75945.975,0.004,0.908,0.326,192,0,0,0,0,0,0,0,0,0,1709549183,0, 2024-03-04 16:16:22.990
109,-101683.4946,-34517.50839,-16893.64963,-30512.72398,-9938.949041,-30243.56428,-37823.59962,-75868.28034,0.004,0.908,0.326,192,0,0,0,0,0,0,0,0,0,1709549183,0, 2024-03-04 16:16:22.990
110,-101668.3178,-34510.57935,-16891.07917,-30511.18171,-9292.335426,-30250.38156,-37846.46545,-75913.98965,0.004,0.908,0.34,192,0,32,28,96,10,160,0,0,0,1709549183,0, 2024-03-04 16:16:22.990
111,-101648.4024,-34495.64838,-16901.47274,-30500.54228,-10403.64181,-30273.51561,-37935.69361,-75966.91858,0.004,0.908,0.34,192,0,0,0,0,0,0,0,0,0,1709549183,0, 2024-03-04 16:16:22.990
112,-101655.5326,-34498.66587,-16901.33863,-30502.10691,-11761.33147,-30286.14435,-37967.50015,-75992.82426,0.004,0.908,0.34,192,0,0,0,0,0,0,0,0,0,1709549183,0, 2024-03-04 16:16:22.990
113,-101686.0427,-34526.04676,-16924.98677,-30529.26427,-11479.63243,-30280.17643,-37914.61592,-75995.21589,0.004,0.908,0.34,192,0,0,0,0,0,0,0,0,0,1709549183,0, 2024-03-04 16:16:22.990
114,-101707.0087,-34547.88441,-16934.03923,-30551.19134,-9961.211379,-30265.87132,-37844.00676,-75932.51925,0.004,0.908,0.34,192,0,0,0,0,0,0,0,0,0,1709549183,0, 2024-03-04 16:16:22.990
115,-101688.412,-34536.23915,-16922.99747,-30542.09418,-9332.032124,-30266.18424,-37859.94355,-75913.52027,0.004,0.908,0.34,192,0,0,0,0,0,0,0,0,0,1709549183,0, 2024-03-04 16:16:22.990
116,-101661.4782,-34512.34514,-16916.78368,-30522.35759,-10456.88366,-30284.28916,-37950.73634,-75947.53962,0.004,0.908,0.34,192,0,0,0,0,0,0,0,0,0,1709549183,0, 2024-03-04 16:16:22.990
117,-101655.1973,-34502.64448,-16915.12965,-30516.59084,-11798.52477,-30297.09671,-37971.05407,-75979.30145,0.004,0.908,0.34,192,0,0,0,0,0,0,0,0,0,1709549183,0, 2024-03-04 16:16:22.990
118,-101678.0632,-34522.22461,-16915.88961,-30533.75698,-11480.86178,-30289.76533,-37898.3215,-75959.20723,0.004,0.908,0.34,192,0,0,0,0,0,0,0,0,0,1709549183,0, 2024-03-04 16:16:22.990
119,-101709.8027,-34552.33241,-16928.85362,-30565.02707,-9945.453399,-30288.17836,-37838.64234,-75963.92345,0.004,0.908,0.34,192,0,0,0,0,0,0,0,0,0,1709549183,0, 2024-03-04 16:16:22.990
120,-101701.1078,-34547.45973,-16936.29675,-30565.94349,-9323.873737,-30288.53599,-37852.54512,-76003.77661,0.008,0.906,0.336,192,0,64,28,80,10,128,0,0,0,1709549183,0, 2024-03-04 16:16:22.990
121,-101665.9709,-34512.47925,-16908.1112,-30532.05824,-10452.16745,-30282.50102,-37941.77329,-75980.37433,0.008,0.906,0.336,192,0,0,0,0,0,0,0,0,0,1709549183,0, 2024-03-04 16:16:22.990
122,-101661.277,-34504.25381,-16908.73705,-30516.792,-11798.63653,-30277.09189,-37990.96948,-75942.42107,0.008,0.906,0.336,192,0,0,0,0,0,0,0,0,0,1709549183,0, 2024-03-04 16:16:22.990
123,-101688.3897,-34527.09729,-16925.23264,-30540.5072,-11477.26315,-30272.48743,-37909.34091,-75984.44235,0.008,0.906,0.336,192,0,0,0,0,0,0,0,0,0,1709549183,0, 2024-03-04 16:16:22.990
124,-101704.0583,-34543.23525,-16922.32691,-30561.18257,-9954.774076,-30261.55743,-37834.77549,-76033.07975,0.008,0.906,0.336,192,0,0,0,0,0,0,0,0,0,1709549183,0, 2024-03-04 16:16:22.990
125,-101681.4159,-34523.96804,-16907.44065,-30545.98338,-9332.948546,-30255.14248,-37865.91147,-76020.89805,0.008,0.906,0.336,192,0,0,0,0,0,0,0,0,0,1709549183,0, 2024-03-04 16:16:22.990
126,-101649.2741,-34491.02157,-16898.41055,-30511.02525,-10441.68448,-30252.59438,-37949.5964,-75965.75629,0.008,0.906,0.336,192,0,0,0,0,0,0,0,0,0,1709549183,0, 2024-03-04 16:16:22.990
127,-101648.4471,-34483.84666,-16900.39985,-30496.98836,-11776.88828,-30251.32033,-37976.5079,-75961.3083,0.008,0.906,0.336,192,0,0,0,0,0,0,0,0,0,1709549183,0, 2024-03-04 16:16:22.990
128,-101676.0068,-34505.10317,-16905.98779,-30511.56169,-11475.07268,-30235.62941,-37902.59068,-75974.40642,0.008,0.906,0.336,192,0,0,0,0,0,0,0,0,0,1709549183,0, 2024-03-04 16:16:22.990
129,-101696.9057,-34526.04676,-16905.42899,-30533.48875,-9935.484521,-30227.33691,-37842.55389,-76015.64539,0.008,0.906,0.336,192,0,0,0,0,0,0,0,0,0,1709549183,0, 2024-03-04 16:16:22.990
130,-101678.8455,-34512.79217,-16889.29103,-30516.8367,-9300.762034,-30217.47979,-37851.65105,-75977.53566,0.01,0.906,0.336,192,0,80,28,80,10,128,0,0,0,1709549183,0, 2024-03-04 16:16:22.990
131,-101650.5929,-34483.89137,-16884.64187,-30487.08653,-10433.6155,-30222.1066,-37932.922,-75964.83987,0.01,0.906,0.336,192,0,0,0,0,0,0,0,0,0,1709549183,0, 2024-03-04 16:16:22.990
132,-101652.5822,-34481.72325,-16895.95185,-30482.45972,-11767.65701,-30230.04147,-37971.07643,-75952.88169,0.01,0.906,0.336,192,0,0,0,0,0,0,0,0,0,1709549183,0, 2024-03-04 16:16:22.990
133,-101684.1652,-34510.78051,-16915.55433,-30510.48881,-11444.92018,-30227.13574,-37907.93275,-75970.04783,0.01,0.906,0.336,192,0,0,0,0,0,0,0,0,0,1709549183,0, 2024-03-04 16:16:22.990
134,-101706.2264,-34534.58512,-16903.59615,-30532.90761,-9934.165768,-30218.48562,-37844.5432,-75957.28498,0.01,0.906,0.336,192,0,0,0,0,0,0,0,0,0,1709549183,0, 2024-03-04 16:16:22.990
135,-101691.6083,-34524.88447,-16899.66224,-30522.26818,-9299.800909,-30215.51284,-37863.60924,-75903.10435,0.01,0.906,0.336,192,0,0,0,0,0,0,0,0,0,1709549183,0, 2024-03-04 16:16:22.990
136,-101660.1594,-34495.24605,-16893.87314,-30499.00001,-10429.23456,-30230.04147,-37943.33791,-75926.21606,0.01,0.906,0.336,192,0,0,0,0,0,0,0,0,0,1709549183,0, 2024-03-04 16:16:22.990
137,-101654.9068,-34486.30535,-16891.81678,-30492.33919,-11764.25955,-30239.36215,-37967.61191,-75959.92249,0.01,0.906,0.336,192,0,0,0,0,0,0,0,0,0,1709549183,0, 2024-03-04 16:16:22.990
138,-101695.207,-34520.99526,-16916.38135,-30528.14669,-11448.92114,-30245.44182,-37914.3477,-75993.83008,0.01,0.906,0.336,192,0,0,0,0,0,0,0,0,0,1709549183,0, 2024-03-04 16:16:22.990
139,-101717.9387,-34546.4539,-16927.66898,-30556.42164,-9930.500082,-30245.1289,-37842.30803,-76012.71731,0.01,0.906,0.336,192,0,0,0,0,0,0,0,0,0,1709549183,0, 2024-03-04 16:16:22.990
140,-101702.963,-34538.25081,-16924.49503,-30550.18551,-9334.244947,-30248.70518,-37878.47315,-75982.96714,0.01,0.906,0.336,192,0,0,0,0,0,0,0,0,0,1709549183,0, 2024-03-04 16:16:22.990
141,-101669.6366,-34505.81843,-16911.48632,-30515.47325,-10485.44919,-30247.94522,-37943.02499,-75922.05863,0.014,0.908,0.334,192,0,112,28,96,10,112,0,0,0,1709549183,0, 2024-03-04 16:16:22.990
142,-101664.5627,-34498.04002,-16912.24628,-30509.46063,-11804.44799,-30257.2659,-37974.45154,-75948.70191,0.014,0.908,0.334,192,0,0,0,0,0,0,0,0,0,1709549183,0, 2024-03-04 16:16:22.990
143,-101691.653,-34521.39759,-16924.22681,-30536.59565,-11453.48089,-30256.48359,-37916.9405,-75979.14499,0.014,0.908,0.334,192,0,0,0,0,0,0,0,0,0,1709549183,0, 2024-03-04 16:16:22.990
144,-101703.0971,-34534.42866,-16921.83517,-30552.28657,-9923.258117,-30241.75379,-37847.136,-75954.24514,0.014,0.908,0.334,192,0,0,0,0,0,0,0,0,0,1709549183,0, 2024-03-04 16:16:22.990
145,-101686.0875,-34524.77271,-16911.79924,-30545.02225,-9327.002982,-30246.93939,-37880.50716,-75965.44337,0.014,0.908,0.334,192,0,0,0,0,0,0,0,0,0,1709549183,0, 2024-03-04 16:16:22.990
146,-101650.9058,-34493.77084,-16901.22687,-30515.76382,-10473.28984,-30256.93062,-37950.2893,-75979.77084,0.014,0.908,0.334,192,0,0,0,0,0,0,0,0,0,1709549183,0, 2024-03-04 16:16:22.990
147,-101649.7435,-34487.46765,-16901.33863,-30512.41106,-11801.4752,-30270.83341,-37984.93451,-76029.50347,0.014,0.908,0.334,192,0,0,0,0,0,0,0,0,0,1709549183,0, 2024-03-04 16:16:22.990
148,-101681.9747,-34512.97099,-16902.09858,-30535.03102,-11463.7627,-30266.20659,-37914.52651,-76046.15552,0.014,0.908,0.334,192,0,0,0,0,0,0,0,0,0,1709549183,0, 2024-03-04 16:16:22.990
149,-101707.4334,-34536.77559,-16910.92752,-30553.13594,-9914.272715,-30250.53802,-37835.80367,-76008.98457,0.014,0.908,0.334,192,0,0,0,0,0,0,0,0,0,1709549183,0, 2024-03-04 16:16:22.990
150,-101680.8795,-34512.76982,-16888.06169,-30527.83376,-9336.569528,-30235.67411,-37872.99697,-75983.57063,0.014,0.908,0.334,192,0,0,0,0,0,0,0,0,0,1709549183,0, 2024-03-04 16:16:22.990
151,-101650.0117,-34483.86901,-16874.96357,-30497.43539,-10481.53764,-30240.77031,-37956.77131,-75967.34327,0.014,0.906,0.336,192,0,112,28,80,10,128,0,0,0,1709549183,0, 2024-03-04 16:16:22.990
152,-101648.9389,-34481.56678,-16882.02672,-30492.13803,-11806.83962,-30248.21344,-37989.3825,-76002.88254,0.014,0.906,0.336,192,0,0,0,0,0,0,0,0,0,1709549183,0, 2024-03-04 16:16:22.990
153,-101679.1584,-34505.81843,-16889.60396,-30511.82991,-11459.67233,-30232.32135,-37913.23011,-75993.24894,0.014,0.906,0.336,192,0,0,0,0,0,0,0,0,0,1709549183,0, 2024-03-04 16:16:22.990
154,-101702.3595,-34528.61721,-16895.41541,-30534.20401,-9933.025829,-30219.08912,-37847.47128,-75958.29081,0.014,0.906,0.336,192,0,0,0,0,0,0,0,0,0,1709549183,0, 2024-03-04 16:16:22.990
155,-101689.5967,-34519.81062,-16891.68267,-30526.26914,-9355.233235,-30217.18922,-37872.37112,-75948.23253,0.014,0.906,0.336,192,0,0,0,0,0,0,0,0,0,1709549183,0, 2024-03-04 16:16:22.990
156,-101660.6735,-34491.71448,-16886.65353,-30498.95531,-10515.51229,-30223.85004,-37946.13188,-75966.40449,0.014,0.906,0.336,192,0,0,0,0,0,0,0,0,0,1709549183,0, 2024-03-04 16:16:22.990
157,-101663.9145,-34489.92634,-16898.45525,-30494.79788,-11835.62867,-30232.65663,-37970.74115,-75985.58229,0.014,0.906,0.336,192,0,0,0,0,0,0,0,0,0,1709549183,0, 2024-03-04 16:16:22.990
158,-101695.5199,-34513.03804,-16897.71764,-30513.90863,-11479.45362,-30221.50311,-37906.14461,-75956.41326,0.014,0.906,0.336,192,0,0,0,0,0,0,0,0,0,1709549183,0, 2024-03-04 16:16:22.990
159,-101719.3692,-34535.09921,-16907.70887,-30534.36047,-9929.918936,-30209.43316,-37834.39551,-75920.00227,0.014,0.906,0.336,192,0,0,0,0,0,0,0,0,0,1709549183,0, 2024-03-04 16:16:22.990
160,-101703.5442,-34526.35968,-16903.41734,-30530.49362,-9340.682249,-30214.35055,-37844.65496,-75946.39968,0.014,0.906,0.336,192,0,0,0,0,0,0,0,0,0,1709549183,0, 2024-03-04 16:16:22.990
161,-101677.7055,-34504.61143,-16896.44359,-30510.9582,-10486.52208,-30230.33204,-37922.75195,-75960.07895,0.014,0.908,0.334,192,0,112,28,96,10,112,0,0,0,1709549183,0, 2024-03-04 16:16:22.990
162,-101684.0534,-34506.7125,-16909.56407,-30512.07578,-11812.58402,-30244.86068,-37974.11626,-75975.68047,0.014,0.908,0.334,192,0,0,0,0,0,0,0,0,0,1709549183,0, 2024-03-04 16:16:22.990
163,-101709.6015,-34529.06424,-16915.08495,-30532.68409,-11441.70152,-30237.17168,-37908.648,-75940.72234,0.014,0.908,0.334,192,0,0,0,0,0,0,0,0,0,1709549183,0, 2024-03-04 16:16:22.990
164,-101725.3148,-34546.43155,-16915.33082,-30555.99696,-9910.092939,-30232.36605,-37840.29637,-75952.21114,0.014,0.908,0.334,192,0,0,0,0,0,0,0,0,0,1709549183,0, 2024-03-04 16:16:22.990
165,-101707.6122,-34535.54625,-16911.59808,-30552.80066,-9362.139924,-30243.85485,-37875.79094,-75995.9088,0.014,0.908,0.334,192,0,0,0,0,0,0,0,0,0,1709549183,0, 2024-03-04 16:16:22.990
166,-101677.0797,-34507.07012,-16906.74775,-30529.5325,-10538.08755,-30260.19397,-37971.59052,-76027.42476,0.014,0.908,0.334,192,0,0,0,0,0,0,0,0,0,1709549183,0, 2024-03-04 16:16:22.990
167,-101665.6803,-34494.28493,-16906.27836,-30516.21086,-11817.14378,-30262.09387,-37982.14054,-76020.02633,0.014,0.908,0.334,192,0,0,0,0,0,0,0,0,0,1709549183,0, 2024-03-04 16:16:22.990
168,-101691.2507,-34513.41802,-16903.43969,-30529.33133,-11422.00964,-30245.7771,-37911.95606,-75972.48417,0.014,0.908,0.334,192,0,0,0,0,0,0,0,0,0,1709549183,0, 2024-03-04 16:16:22.990
169,-101711.6131,-34531.41117,-16897.29296,-30547.52565,-9902.605105,-30235.71881,-37849.59469,-75946.75731,0.014,0.908,0.334,192,0,0,0,0,0,0,0,0,0,1709549183,0, 2024-03-04 16:16:22.990
170,-101693.7988,-34517.70956,-16895.39306,-30537.55677,-9355.926139,-30235.83057,-37868.97366,-75927.4007,0.014,0.908,0.334,192,0,0,0,0,0,0,0,0,0,1709549183,0, 2024-03-04 16:16:22.990
171,-101664.4286,-34491.89329,-16891.72737,-30513.84157,-10525.19059,-30249.93452,-37958.11241,-75951.65234,0.016,0.906,0.33,192,0,128,28,80,10,80,0,0,0,1709549183,0, 2024-03-04 16:16:22.990
172,-101662.4393,-34485.74656,-16889.38044,-30504.0068,-11816.04854,-30255.29894,-38007.37566,-75973.93703,0.016,0.906,0.33,192,0,0,0,0,0,0,0,0,0,1709549183,0, 2024-03-04 16:16:22.990
173,-101689.7978,-34509.21589,-16897.85175,-30526.17973,-11422.41197,-30248.72753,-37928.71987,-76001.98847,0.016,0.906,0.33,192,0,0,0,0,0,0,0,0,0,1709549183,0, 2024-03-04 16:16:22.990
174,-101707.7463,-34530.13713,-16898.85758,-30545.87162,-9877.392337,-30237.35049,-37860.92703,-75995.68528,0.016,0.906,0.33,192,0,0,0,0,0,0,0,0,0,1709549183,0, 2024-03-04 16:16:22.990
175,-101693.3294,-34520.74939,-16897.31531,-30544.15054,-9340.503435,-30248.50401,-37888.93376,-76045.03793,0.016,0.906,0.33,192,0,0,0,0,0,0,0,0,0,1709549183,0, 2024-03-04 16:16:22.990
176,-101667.9602,-34496.87773,-16895.72834,-30520.99413,-10514.61822,-30257.93645,-37974.0045,-76015.57833,0.016,0.906,0.33,192,0,0,0,0,0,0,0,0,0,1709549183,0, 2024-03-04 16:16:22.990
177,-101667.8261,-34491.80388,-16898.25408,-30504.76676,-11809.1195,-30248.48166,-37988.15316,-75934.82148,0.016,0.906,0.33,192,0,0,0,0,0,0,0,0,0,1709549183,0, 2024-03-04 16:16:22.990
178,-101695.3411,-34511.36166,-16893.47081,-30515.96499,-11406.11755,-30228.32039,-37902.54598,-75915.50957,0.016,0.906,0.33,192,0,0,0,0,0,0,0,0,0,1709549183,0, 2024-03-04 16:16:22.990
179,-101720.5762,-34533.78046,-16903.97613,-30540.77542,-9870.016261,-30224.40883,-37843.04563,-75963.23055,0.016,0.906,0.33,192,0,0,0,0,0,0,0,0,0,1709549183,0, 2024-03-04 16:16:22.990
180,-101707.5451,-34526.15851,-16898.38819,-30537.84734,-9351.679307,-30233.61775,-37872.19231,-76007.46465,0.016,0.906,0.33,192,0,0,0,0,0,0,0,0,0,1709549183,0, 2024-03-04 16:16:22.990
181,-101678.8008,-34497.92826,-16883.43488,-30506.5102,-10547.38588,-30233.17072,-37956.36898,-75980.21787,0.008,0.912,0.338,192,0,64,28,128,10,144,0,0,0,1709549183,0, 2024-03-04 16:16:22.990
182,-101678.9349,-34493.18969,-16892.30852,-30498.53063,-11847.67626,-30232.9025,-37978.4525,-75969.6455,0.008,0.912,0.338,192,0,0,0,0,0,0,0,0,0,1709549183,0, 2024-03-04 16:16:22.990
183,-101711.1438,-34520.7941,-16910.41343,-30523.96691,-11449.01054,-30225.68288,-37922.28257,-75991.86313,0.008,0.912,0.338,192,0,0,0,0,0,0,0,0,0,1709549183,0, 2024-03-04 16:16:22.990
184,-101726.3206,-34537.62496,-16913.29681,-30544.307,-9910.651733,-30218.1727,-37855.00382,-76013.16434,0.008,0.912,0.338,192,0,0,0,0,0,0,0,0,0,1709549183,0, 2024-03-04 16:16:22.990
185,-101704.617,-34518.26835,-16901.24922,-30528.95135,-9371.102973,-30214.57406,-37871.76762,-75987.70571,0.008,0.912,0.338,192,0,0,0,0,0,0,0,0,0,1709549183,0, 2024-03-04 16:16:22.990
186,-101683.137,-34497.03419,-16901.40568,-30507.91836,-10564.12733,-30228.43215,-37951.38454,-75966.47155,0.008,0.912,0.338,192,0,0,0,0,0,0,0,0,0,1709549183,0, 2024-03-04 16:16:22.990
187,-101692.6365,-34500.18579,-16918.57182,-30505.23615,-11854.40413,-30234.8471,-37977.33491,-75947.42786,0.008,0.912,0.338,192,0,0,0,0,0,0,0,0,0,1709549183,0, 2024-03-04 16:16:22.990
188,-101726.2982,-34526.04676,-16927.40076,-30530.35951,-11454.2185,-30230.73438,-37929.09985,-75954.66983,0.008,0.912,0.338,192,0,0,0,0,0,0,0,0,0,1709549183,0, 2024-03-04 16:16:22.990
189,-101737.9659,-34538.09435,-16917.20836,-30544.12818,-9910.629381,-30215.0211,-37855.33909,-75933.838,0.008,0.912,0.338,192,0,0,0,0,0,0,0,0,0,1709549183,0, 2024-03-04 16:16:22.990
190,-101718.2963,-34523.81158,-16909.78758,-30535.74628,-9383.932875,-30220.36317,-37867.69961,-75954.2675,0.008,0.912,0.338,192,0,0,0,0,0,0,0,0,0,1709549183,0, 2024-03-04 16:16:22.990
191,-101689.7978,-34496.65421,-16908.46883,-30510.26529,-10573.11273,-30232.43311,-37958.89472,-75951.54058,0.006,0.914,0.34,192,0,48,28,144,10,160,0,0,0,1709549183,0, 2024-03-04 16:16:22.990
192,-101685.3722,-34490.48513,-16891.01212,-30500.09525,-11842.20008,-30236.38937,-37985.22508,-75938.42011,0.006,0.914,0.34,192,0,0,0,0,0,0,0,0,0,1709549183,0, 2024-03-04 16:16:22.990
193,-101712.1049,-34515.47438,-16902.21034,-30525.41977,-11425.56356,-30236.747,-37911.26316,-75953.14991,0.006,0.914,0.34,192,0,0,0,0,0,0,0,0,0,1709549183,0, 2024-03-04 16:16:22.990
194,-101727.7288,-34535.03216,-16907.463,-30548.95616,-9884.85782,-30234.22125,-37839.46935,-75966.85153,0.006,0.914,0.34,192,0,0,0,0,0,0,0,0,0,1709549183,0, 2024-03-04 16:16:22.990
195,-101720.308,-34532.68522,-16910.68165,-30552.15246,-9382.636473,-30254.0696,-37880.77538,-75999.21685,0.006,0.914,0.34,192,0,0,0,0,0,0,0,0,0,1709549183,0, 2024-03-04 16:16:22.990
196,-101688.4344,-34500.58812,-16899.75165,-30524.19043,-10578.25364,-30264.93254,-37958.73826,-76002.79313,0.006,0.914,0.34,192,0,0,0,0,0,0,0,0,0,1709549183,0, 2024-03-04 16:16:22.990
197,-101687.3391,-34493.65908,-16903.70791,-30516.43437,-11842.15538,-30267.14537,-37978.89954,-76008.53753,0.006,0.914,0.34,192,0,0,0,0,0,0,0,0,0,1709549183,0, 2024-03-04 16:16:22.990
198,-101711.412,-34512.83688,-16914.86143,-30536.5733,-11423.44015,-30256.90827,-37915.84526,-76041.75222,0.006,0.914,0.34,192,0,0,0,0,0,0,0,0,0,1709549183,0, 2024-03-04 16:16:22.990
199,-101718.1399,-34519.81062,-16904.31141,-30545.35753,-9887.495326,-30235.33884,-37859.25065,-76027.26829,0.006,0.914,0.34,192,0,0,0,0,0,0,0,0,0,1709549183,0, 2024-03-04 16:16:22.990
200,-101697.2633,-34500.94575,-16892.33087,-30525.7774,-9385.899828,-30225.12409,-37888.46438,-75949.19365,0.006,0.914,0.34,192,0,0,0,0,0,0,0,0,0,1709549183,0, 2024-03-04 16:16:22.990
201,-101669.3236,-34474.21306,-16889.13457,-30501.43635,-10589.31775,-30236.1882,-37971.83638,-75954.06633,0.012,0.91,0.338,192,0,96,28,112,10,144,0,0,0,1709549183,0, 2024-03-04 16:16:22.990
202,-101670.6871,-34472.06729,-16896.26478,-30497.65891,-11840.74722,-30243.38546,-37989.09193,-75978.13916,0.012,0.91,0.338,192,0,0,0,0,0,0,0,0,0,1709549183,0, 2024-03-04 16:16:22.990
203,-101697.7774,-34491.3345,-16898.63406,-30510.93584,-11392.59474,-30223.62652,-37913.58774,-75950.66887,0.012,0.91,0.338,192,0,0,0,0,0,0,0,0,0,1709549183,0, 2024-03-04 16:16:22.990
204,-101715.9941,-34506.95837,-16898.72347,-30525.37507,-9868.026956,-30207.15329,-37854.7356,-75949.79715,0.012,0.91,0.338,192,0,0,0,0,0,0,0,0,0,1709549183,0, 2024-03-04 16:16:22.990
205,-101699.9008,-34496.00601,-16891.01212,-30521.26235,-9386.525677,-30217.36803,-37878.5402,-76010.59389,0.012,0.91,0.338,192,0,0,0,0,0,0,0,0,0,1709549183,0, 2024-03-04 16:16:22.990
206,-101673.5034,-34472.06729,-16885.13361,-30497.43539,-10570.78815,-30227.44867,-37954.58084,-76009.49866,0.012,0.91,0.338,192,0,0,0,0,0,0,0,0,0,1709549183,0, 2024-03-04 16:16:22.990
207,-101680.8571,-34475.24124,-16904.98196,-30498.03889,-11824.5422,-30237.05992,-37981.78291,-76019.91457,0.012,0.91,0.338,192,0,0,0,0,0,0,0,0,0,1709549183,0, 2024-03-04 16:16:22.990
208,-101713.9154,-34500.9234,-16902.65738,-30520.94943,-11381.55298,-30226.97928,-37913.92301,-75981.60368,0.012,0.91,0.338,192,0,0,0,0,0,0,0,0,0,1709549183,0, 2024-03-04 16:16:22.990
209,-101728.3993,-34514.02152,-16903.59615,-30534.65105,-9858.59452,-30208.13676,-37847.11365,-75943.4716,0.012,0.91,0.338,192,0,0,0,0,0,0,0,0,0,1709549183,0, 2024-03-04 16:16:22.990
210,-101715.1447,-34506.82426,-16902.9703,-30532.59468,-9384.983407,-30218.41856,-37876.26033,-75964.61635,0.012,0.91,0.338,192,0,0,0,0,0,0,0,0,0,1709549183,0, 2024-03-04 16:16:23.470
211,-101690.8037,-34485.41128,-16895.2813,-30510.17588,-10600.96301,-30231.67315,-37971.34465,-75942.44342,0.01,0.906,0.336,192,0,80,28,80,10,128,0,0,0,1709549183,0, 2024-03-04 16:16:23.470
212,-101697.0175,-34489.27814,-16906.1219,-30510.75703,-11850.1573,-30242.5361,-37980.50886,-75948.97013,0.01,0.906,0.336,192,0,0,0,0,0,0,0,0,0,1709549183,0, 2024-03-04 16:16:23.470
213,-101730.1427,-34520.70469,-16919.80117,-30540.97659,-11392.90767,-30241.44086,-37902.43422,-75970.3831,0.01,0.906,0.336,192,0,0,0,0,0,0,0,0,0,1709549183,0, 2024-03-04 16:16:23.470
214,-101749.4323,-34542.74351,-16926.99843,-30565.38469,-9872.296139,-30237.55166,-37847.62774,-75977.02157,0.01,0.906,0.336,192,0,0,0,0,0,0,0,0,0,1709549183,0, 2024-03-04 16:16:23.470
215,-101730.7686,-34529.91361,-16920.2035,-30555.28171,-9405.815232,-30241.39616,-37885.96098,-75995.81939,0.01,0.906,0.336,192,0,0,0,0,0,0,0,0,0,1709549183,0, 2024-03-04 16:16:23.470
216,-101701.689,-34503.35974,-16908.40178,-30527.83376,-10611.066,-30250.20275,-37968.08129,-75984.28589,0.01,0.906,0.336,192,0,0,0,0,0,0,0,0,0,1709549183,0, 2024-03-04 16:16:23.470
217,-101699.1856,-34497.36947,-16909.49701,-30519.00482,-11856.30403,-30254.0696,-37988.10845,-75962.13531,0.01,0.906,0.336,192,0,0,0,0,0,0,0,0,0,1709549183,0, 2024-03-04 16:16:23.470
218,-101723.0572,-34518.49187,-16915.88961,-30540.44015,-11392.68415,-30249.88982,-37921.96964,-75988.59978,0.01,0.906,0.336,192,0,0,0,0,0,0,0,0,0,1709549183,0, 2024-03-04 16:16:23.470
219,-101739.9775,-34533.33342,-16918.75063,-30558.16508,-9865.277692,-30241.03853,-37870.53828,-75980.55315,0.01,0.906,0.336,192,0,0,0,0,0,0,0,0,0,1709549183,0, 2024-03-04 16:16:23.470
220,-101714.4295,-34512.23338,-16910.6593,-30543.90467,-9402.395416,-30241.61968,-37892.21947,-75989.96323,0.01,0.906,0.336,192,0,0,0,0,0,0,0,0,0,1709549183,0, 2024-03-04 16:16:23.470
221,-101677.9291,-34475.04008,-16881.7585,-30507.04664,-10604.6734,-30241.64203,-37959.76644,-75977.58037,0.014,0.906,0.338,192,0,112,28,80,10,144,0,0,0,1709549183,0, 2024-03-04 16:16:23.470
222,-101674.7551,-34466.05467,-16879.29981,-30494.03793,-11838.84732,-30240.61385,-37975.54677,-75992.95837,0.014,0.906,0.338,192,0,0,0,0,0,0,0,0,0,1709549183,0, 2024-03-04 16:16:23.470
223,-101708.9533,-34493.52497,-16895.05778,-30517.77548,-11372.96991,-30232.61192,-37914.41475,-75980.15082,0.014,0.906,0.338,192,0,0,0,0,0,0,0,0,0,1709549183,0, 2024-03-04 16:16:23.470
224,-101726.0747,-34508.34417,-16897.38237,-30531.5218,-9854.973537,-30216.67513,-37847.51598,-75954.66983,0.014,0.906,0.338,192,0,0,0,0,0,0,0,0,0,1709549183,0, 2024-03-04 16:16:23.470
225,-101712.2166,-34498.10708,-16894.36488,-30523.7881,-9401.054311,-30222.44188,-37881.49063,-75970.3831,0.014,0.906,0.338,192,0,0,0,0,0,0,0,0,0,1709549183,0, 2024-03-04 16:16:23.470
226,-101683.4499,-34471.37439,-16880.19387,-30496.9213,-10622.39833,-30230.82378,-37980.10653,-75996.42289,0.014,0.906,0.338,192,0,0,0,0,0,0,0,0,0,1709549183,0, 2024-03-04 16:16:23.470
227,-101686.2886,-34468.06633,-16883.23371,-30489.9252,-11868.39633,-30231.91902,-37983.45929,-75988.9127,0.014,0.906,0.338,192,0,0,0,0,0,0,0,0,0,1709549183,0, 2024-03-04 16:16:23.470
228,-101723.996,-34495.49192,-16900.17633,-30512.63458,-11388.2138,-30220.8102,-37916.71698,-75965.44337,0.014,0.906,0.338,192,0,0,0,0,0,0,0,0,0,1709549183,0, 2024-03-04 16:16:23.470
229,-101744.269,-34513.1498,-16909.25114,-30536.08156,-9855.7782,-30214.3282,-37855.16028,-76021.09921,0.014,0.906,0.338,192,0,0,0,0,0,0,0,0,0,1709549183,0, 2024-03-04 16:16:23.470
230,-101730.3663,-34501.12456,-16904.53492,-30529.44309,-9396.628666,-30218.8209,-37890.61015,-76021.27803,0.014,0.906,0.338,192,0,0,0,0,0,0,0,0,0,1709549183,0, 2024-03-04 16:16:23.470
231,-101704.9076,-34476.0012,-16892.80026,-30499.87173,-10629.52854,-30222.50893,-37968.03659,-75961.93414,0.018,0.904,0.334,192,0,144,28,64,10,112,0,0,0,1709549183,0, 2024-03-04 16:16:23.470
232,-101710.7638,-34479.1975,-16899.7293,-30497.10011,-11869.9386,-30228.5439,-37988.6896,-75957.86613,0.018,0.904,0.334,192,0,0,0,0,0,0,0,0,0,1709549183,0, 2024-03-04 16:16:23.470
233,-101735.4401,-34498.62117,-16912.26863,-30515.62971,-11387.85617,-30211.8695,-37913.52068,-75944.92447,0.018,0.904,0.334,192,0,0,0,0,0,0,0,0,0,1709549183,0, 2024-03-04 16:16:23.470
234,-101754.8414,-34519.60945,-16927.60192,-30543.41293,-9854.928834,-30211.10954,-37853.88623,-75988.71153,0.018,0.904,0.334,192,0,0,0,0,0,0,0,0,0,1709549183,0, 2024-03-04 16:16:23.470
235,-101734.2778,-34503.80677,-16899.39402,-30529.46544,-9401.724863,-30208.31558,-37879.47898,-75965.13044,0.018,0.904,0.334,192,0,0,0,0,0,0,0,0,0,1709549183,0, 2024-03-04 16:16:23.470
236,-101703.8124,-34475.08478,-16894.78956,-30500.36347,-10633.77537,-30211.93656,-37968.34951,-75952.92639,0.018,0.904,0.334,192,0,0,0,0,0,0,0,0,0,1709549183,0, 2024-03-04 16:16:23.470
237,-101712.1049,-34477.3423,-16913.83325,-30501.77163,-11863.88127,-30221.72662,-38000.44662,-75994.83591,0.018,0.904,0.334,192,0,0,0,0,0,0,0,0,0,1709549183,0, 2024-03-04 16:16:23.470
238,-101747.9794,-34508.59004,-16924.20446,-30526.04562,-11375.40625,-30213.7247,-37918.25925,-75959.31899,0.018,0.904,0.334,192,0,0,0,0,0,0,0,0,0,1709549183,0, 2024-03-04 16:16:23.470
239,-101759.8706,-34519.00596,-16920.96346,-30539.03199,-9835.639278,-30198.83844,-37843.98441,-75938.17424,0.018,0.904,0.334,192,0,0,0,0,0,0,0,0,0,1709549183,0, 2024-03-04 16:16:23.470
240,-101735.0825,-34496.27423,-16905.85368,-30521.68703,-9389.610218,-30196.06682,-37883.90462,-75910.18986,0.018,0.904,0.334,192,0,0,0,0,0,0,0,0,0,1709549183,0, 2024-03-04 16:16:23.470
241,-101709.0427,-34471.57555,-16901.40568,-30501.27989,-10625.48287,-30216.00458,-37964.52736,-75920.78458,0.016,0.908,0.338,192,0,128,28,96,10,144,0,0,0,1709549183,0, 2024-03-04 16:16:23.470
242,-101711.5237,-34469.34038,-16906.27836,-30501.4587,-11851.76663,-30232.83544,-37981.84997,-75961.91179,0.016,0.908,0.338,192,0,0,0,0,0,0,0,0,0,1709549183,0, 2024-03-04 16:16:23.470
243,-101735.4625,-34489.09932,-16909.00527,-30523.2293,-11364.72212,-30230.46615,-37918.37101,-75984.33059,0.016,0.908,0.338,192,0,0,0,0,0,0,0,0,0,1709549183,0, 2024-03-04 16:16:23.470
244,-101737.8094,-34493.34615,-16894.83427,-30530.11364,-9819.657781,-30213.38942,-37851.02521,-75985.89521,0.016,0.908,0.338,192,0,0,0,0,0,0,0,0,0,1709549183,0, 2024-03-04 16:16:23.470
245,-101724.7336,-34484.45016,-16894.20842,-30525.71035,-9390.101956,-30227.47102,-37887.97264,-76033.41502,0.016,0.908,0.338,192,0,0,0,0,0,0,0,0,0,1709549183,0, 2024-03-04 16:16:23.470
246,-101690.6919,-34450.69903,-16884.55247,-30492.87563,-10634.42357,-30233.50599,-37963.00745,-76025.59191,0.016,0.908,0.338,192,0,0,0,0,0,0,0,0,0,1709549183,0, 2024-03-04 16:16:23.471
247,-101687.9873,-34441.60187,-16889.26868,-30475.37422,-11851.34195,-30219.98319,-37977.67019,-75961.77768,0.016,0.908,0.338,192,0,0,0,0,0,0,0,0,0,1709549183,0, 2024-03-04 16:16:23.471
248,-101715.7706,-34461.33846,-16880.79737,-30489.09819,-11348.00301,-30199.44193,-37922.48373,-75948.36664,0.016,0.908,0.338,192,0,0,0,0,0,0,0,0,0,1709549183,0, 2024-03-04 16:16:23.471
249,-101736.4236,-34484.02548,-16888.91106,-30518.49073,-9815.746226,-30203.37584,-37859.58592,-76014.5278,0.016,0.908,0.338,192,0,0,0,0,0,0,0,0,0,1709549183,0, 2024-03-04 16:16:23.471
250,-101718.7434,-34470.88265,-16883.77015,-30509.23711,-9392.001854,-30206.37097,-37886.67624,-75996.08761,0.016,0.908,0.338,192,0,0,0,0,0,0,0,0,0,1709549183,0, 2024-03-04 16:16:23.471
251,-101686.4451,-34441.17718,-16872.90721,-30479.10696,-10628.47801,-30208.91907,-37963.54389,-75962.55999,0.006,0.906,0.336,192,0,48,28,80,10,128,0,0,0,1709549183,0, 2024-03-04 16:16:23.471
252,-101689.2838,-34437.39974,-16880.4621,-30474.41309,-11843.34002,-30211.08719,-37984.26395,-75939.18007,0.006,0.906,0.336,192,0,0,0,0,0,0,0,0,0,1709549183,0, 2024-03-04 16:16:23.471
253,-101723.3925,-34464.5124,-16892.62144,-30499.02236,-11319.52689,-30202.30296,-37907.9998,-75926.43957,0.006,0.906,0.336,192,0,0,0,0,0,0,0,0,0,1709549183,0, 2024-03-04 16:16:23.471
254,-101749.2088,-34490.50748,-16903.43969,-30529.59955,-9794.690883,-30207.26504,-37854.28856,-75983.79415,0.006,0.906,0.336,192,0,0,0,0,0,0,0,0,0,1709549183,0, 2024-03-04 16:16:23.471
255,-101727.0135,-34472.24611,-16893.47081,-30517.21668,-9387.419747,-30208.49439,-37887.92794,-76001.6979,0.006,0.906,0.336,192,0,0,0,0,0,0,0,0,0,1709549183,0, 2024-03-04 16:16:23.471
0,-101694.9387,-34440.39487,-16883.0996,-30486.46068,-10632.47897,-30210.28253,-37983.23577,-75959.34134,0.006,0.906,0.336,192,0,0,0,0,0,0,0,0,0,1709549183,0, 2024-03-04 16:16:23.471
1,-101701.2866,-34442.38418,-16896.86828,-30487.17594,-11850.09025,-30217.34568,-38004.98402,-75947.11494,0.006,0.906,0.336,192,0,0,0,0,0,0,0,0,0,1709549183,0, 2024-03-04 16:16:23.471
2,-101730.7015,-34466.81463,-16906.92656,-30509.93002,-11330.00986,-30207.19799,-37934.35251,-75936.85549,0.006,0.906,0.336,192,0,0,0,0,0,0,0,0,0,1709549183,0, 2024-03-04 16:16:23.471
3,-101746.3031,-34484.80779,-16910.70401,-30530.9183,-9792.187487,-30198.74903,-37866.06793,-75929.3453,0.006,0.906,0.336,192,0,0,0,0,0,0,0,0,0,1709549183,0, 2024-03-04 16:16:23.471
4,-101732.5344,-34479.08574,-16909.56407,-30530.2701,-9379.909561,-30210.37194,-37905.96579,-75951.83116,0.006,0.906,0.336,192,0,0,0,0,0,0,0,0,0,1709549183,0, 2024-03-04 16:16:23.471
5,-101708.7298,-34459.77383,-16913.14035,-30510.91349,-10616.45277,-30224.23002,-37985.09097,-75942.26461,0.01,0.908,0.34,192,0,80,28,96,10,160,0,0,0,1709549183,0, 2024-03-04 16:16:23.471
6,-101707.8804,-34451.97307,-16897.62824,-30498.64238,-11837.3274,-30219.91613,-38000.89365,-75916.09072,0.01,0.908,0.34,192,0,0,0,0,0,0,0,0,0,1709549183,0, 2024-03-04 16:16:23.471
7,-101741.9221,-34480.35979,-16915.44258,-30526.60442,-11323.37139,-30220.54198,-37932.72083,-75956.94971,0.01,0.908,0.34,192,0,0,0,0,0,0,0,0,0,1709549183,0, 2024-03-04 16:16:23.471
8,-101766.2185,-34506.93601,-16930.99939,-30557.98627,-9804.548002,-30231.0473,-37879.54603,-76004.96125,0.01,0.908,0.34,192,0,0,0,0,0,0,0,0,0,1709549183,0, 2024-03-04 16:16:23.471
9,-101743.2185,-34490.06045,-16919.57765,-30544.37405,-9415.873517,-30237.08227,-37904.62469,-76009.40925,0.01,0.908,0.34,192,0,0,0,0,0,0,0,0,0,1709549183,0, 2024-03-04 16:16:23.471
10,-101706.3381,-34455.66111,-16906.68069,-30510.62292,-10658.40699,-30241.64203,-37981.93937,-76007.15172,0.01,0.908,0.34,192,0,0,0,0,0,0,0,0,0,1709549183,0, 2024-03-04 16:16:23.471
11,-101703.9912,-34449.7826,-16907.61947,-30498.37416,-11851.4537,-30238.6916,-38012.65067,-75974.49583,0.01,0.908,0.34,192,0,0,0,0,0,0,0,0,0,1709549183,0, 2024-03-04 16:16:23.471
12,-101725.8289,-34467.50754,-16905.04901,-30510.93584,-11307.70282,-30217.52449,-37924.56245,-75950.93709,0.01,0.908,0.34,192,0,0,0,0,0,0,0,0,0,1709549183,0, 2024-03-04 16:16:23.471
13,-101743.3303,-34486.97591,-16907.19478,-30531.63356,-9790.04172,-30212.45065,-37868.68308,-75971.12071,0.01,0.908,0.34,192,0,0,0,0,0,0,0,0,0,1709549183,0, 2024-03-04 16:16:23.471
14,-101717.8046,-34467.84281,-16888.95576,-30511.06995,-9398.327398,-30206.57214,-37909.96676,-75937.83896,0.01,0.908,0.34,192,0,0,0,0,0,0,0,0,0,1709549183,0, 2024-03-04 16:16:23.471
15,-101692.7706,-34444.08291,-16885.22302,-30487.80179,-10657.8482,-30220.05024,-37991.37181,-75975.41225,0.01,0.908,0.34,192,0,0,0,0,0,0,0,0,0,1709549183,0, 2024-03-04 16:16:23.471
16,-101700.929,-34445.66988,-16899.41638,-30488.65116,-11856.30403,-30228.38744,-38015.10936,-76003.37428,0.012,0.902,0.336,192,0,96,28,48,10,128,0,0,0,1709549183,0, 2024-03-04 16:16:23.471
17,-101731.0815,-34468.78159,-16915.86726,-30505.63848,-11297.71159,-30210.32723,-37937.57116,-75949.1713,0.012,0.902,0.336,192,0,0,0,0,0,0,0,0,0,1709549183,0, 2024-03-04 16:16:23.471
18,-101741.8774,-34477.36466,-16886.16179,-30509.23711,-9743.997126,-30184.33215,-37856.34492,-75919.08585,0.012,0.902,0.336,192,0,0,0,0,0,0,0,0,0,1709549183,0, 2024-03-04 16:16:23.471
19,-101727.8629,-34466.03232,-16881.1997,-30499.11177,-9373.829886,-30186.61203,-37896.75688,-75921.6563,0.012,0.902,0.336,192,0,0,0,0,0,0,0,0,0,1709549183,0, 2024-03-04 16:16:23.471
20,-101705.6676,-34441.98185,-16883.03255,-30478.21289,-10648.05813,-30199.19606,-37976.64201,-75932.02751,0.012,0.902,0.336,192,0,0,0,0,0,0,0,0,0,1709549183,0, 2024-03-04 16:16:23.471
21,-101721.7608,-34451.14606,-16899.0811,-30486.55009,-11834.86871,-30214.10468,-37993.96461,-75946.24322,0.012,0.902,0.336,192,0,0,0,0,0,0,0,0,0,1709549183,0, 2024-03-04 16:16:23.471
22,-101752.6957,-34478.66106,-16914.28029,-30515.76382,-11281.46187,-30209.85785,-37924.04836,-75986.05168,0.012,0.902,0.336,192,0,0,0,0,0,0,0,0,0,1709549183,0, 2024-03-04 16:16:23.471
23,-101770.8676,-34500.9234,-16923.13158,-30543.50234,-9764.381917,-30211.19895,-37875.41096,-76023.66966,0.012,0.902,0.336,192,0,0,0,0,0,0,0,0,0,1709549183,0, 2024-03-04 16:16:23.471
24,-101755.0202,-34489.59106,-16918.61652,-30531.43239,-9396.136927,-30210.26018,-37897.62859,-75949.46187,0.012,0.902,0.336,192,0,0,0,0,0,0,0,0,0,1709549183,0, 2024-03-04 16:16:23.471
25,-101720.8668,-34457.60571,-16905.13842,-30497.72596,-10668.64409,-30209.09789,-37986.32032,-75892.95666,0.012,0.902,0.336,192,0,0,0,0,0,0,0,0,0,1709549183,0, 2024-03-04 16:16:23.471
26,-101719.1904,-34450.76608,-16906.88186,-30491.37807,-11852.99597,-30211.04249,-37994.21048,-75923.91383,0.012,0.904,0.336,192,0,96,28,64,10,128,0,0,0,1709549183,0, 2024-03-04 16:16:23.471
27,-101753.2097,-34477.83404,-16916.06842,-30516.56848,-11280.38898,-30205.07457,-37923.80249,-75948.94778,0.012,0.904,0.336,192,0,0,0,0,0,0,0,0,0,1709549183,0, 2024-03-04 16:16:23.471
28,-101770.3088,-34494.01671,-16919.68941,-30535.67923,-9751.663774,-30198.41375,-37867.74431,-75951.83116,0.012,0.904,0.336,192,0,0,0,0,0,0,0,0,0,1709549183,0, 2024-03-04 16:16:23.471
29,-101760.2058,-34485.85832,-16918.68358,-30528.50432,-9402.127195,-30204.7393,-37911.62079,-75912.96147,0.012,0.904,0.336,192,0,0,0,0,0,0,0,0,0,1709549183,0, 2024-03-04 16:16:23.471
30,-101732.6461,-34456.21991,-16913.87795,-30497.65891,-10682.8598,-30210.26018,-37987.72848,-75894.92361,0.012,0.904,0.336,192,0,0,0,0,0,0,0,0,0,1709549183,0, 2024-03-04 16:16:23.471
31,-101730.3216,-34449.7826,-16919.97998,-30490.39459,-11859.03095,-30214.01527,-38004.89461,-75919.24231,0.012,0.904,0.336,192,0,0,0,0,0,0,0,0,0,1709549183,0, 2024-03-04 16:16:23.471
32,-101757.5683,-34470.88265,-16908.13356,-30509.7065,-11276.05275,-30205.29809,-37936.52063,-75953.39578,0.012,0.904,0.336,192,0,0,0,0,0,0,0,0,0,1709549183,0, 2024-03-04 16:16:23.471
33,-101763.9833,-34474.97302,-16906.1219,-30518.40133,-9750.814408,-30189.76363,-37888.7326,-75975.41225,0.012,0.904,0.336,192,0,0,0,0,0,0,0,0,0,1709549183,0, 2024-03-04 16:16:23.471
34,-101738.6811,-34455.19173,-16897.71764,-30502.21866,-9401.367235,-30189.96479,-37912.20193,-75971.56775,0.012,0.904,0.336,192,0,0,0,0,0,0,0,0,0,1709549183,0, 2024-03-04 16:16:23.471
35,-101706.1146,-34421.17237,-16888.62048,-30469.89804,-10676.66837,-30193.98811,-37985.538,-75965.44337,0.012,0.904,0.336,192,0,0,0,0,0,0,0,0,0,1709549183,0, 2024-03-04 16:16:23.471
36,-101704.0359,-34412.07521,-16884.26189,-30457.09049,-11834.53343,-30189.04837,-38003.4641,-75945.50561,0.01,0.91,0.334,192,0,80,28,112,10,112,0,0,0,1709549183,0, 2024-03-04 16:16:23.471
37,-101745.029,-34448.59796,-16899.41638,-30492.89799,-11259.06542,-30195.55273,-37938.97932,-75968.93024,0.01,0.91,0.334,192,0,0,0,0,0,0,0,0,0,1709549183,0, 2024-03-04 16:16:23.471
38,-101756.3613,-34461.2267,-16894.43194,-30508.16423,-9738.230376,-30187.26023,-37881.15536,-75984.15178,0.01,0.91,0.334,192,0,0,0,0,0,0,0,0,0,1709549183,0, 2024-03-04 16:16:23.471
39,-101730.9921,-34437.98088,-16880.95383,-30488.24882,-9401.367235,-30182.67813,-37917.67811,-75982.72127,0.01,0.91,0.334,192,0,0,0,0,0,0,0,0,0,1709549183,0, 2024-03-04 16:16:23.471
40,-101699.2973,-34408.36482,-16868.23569,-30455.90585,-10672.26507,-30184.04158,-37986.02974,-75924.69614,0.01,0.91,0.334,192,0,0,0,0,0,0,0,0,0,1709549183,0, 2024-03-04 16:16:23.471
41,-101701.8007,-34407.4931,-16871.23083,-30450.85436,-11820.51889,-30184.80154,-37991.9306,-75889.46979,0.01,0.91,0.334,192,0,0,0,0,0,0,0,0,0,1709549183,0, 2024-03-04 16:16:23.471
42,-101740.2457,-34441.356,-16890.47568,-30484.1361,-11220.17339,-30185.06976,-37926.93173,-75932.31808,0.01,0.91,0.334,192,0,0,0,0,0,0,0,0,0,1709549183,0, 2024-03-04 16:16:23.471
43,-101754.0144,-34453.64946,-16885.49124,-30495.40138,-9690.084718,-30169.95998,-37853.93093,-75949.93126,0.01,0.91,0.334,192,0,0,0,0,0,0,0,0,0,1709549183,0, 2024-03-04 16:16:23.471
44,-101741.6986,-34440.99837,-16887.5476,-30487.243,-9376.31093,-30178.54305,-37890.74426,-75963.65523,0.01,0.91,0.334,192,0,0,0,0,0,0,0,0,0,1709549183,0, 2024-03-04 16:16:23.471
45,-101710.4285,-34408.43188,-16872.57193,-30455.45881,-10668.97937,-30180.75588,-37965.93552,-75944.41038,0.01,0.91,0.334,192,0,0,0,0,0,0,0,0,0,1709549183,0, 2024-03-04 16:16:23.471
46,-101713.1107,-34403.49214,-16871.29788,-30447.14397,-11810.01357,-30176.06201,-37987.61672,-75913.81084,0.008,0.912,0.33,192,0,64,28,128,10,80,0,0,0,1709549183,0, 2024-03-04 16:16:23.471
47,-101744.4255,-34426.82736,-16881.66909,-30468.82516,-11205.26477,-30160.12522,-37920.04739,-75904.31135,0.008,0.912,0.33,192,0,0,0,0,0,0,0,0,0,1709549183,0, 2024-03-04 16:16:23.471
48,-101769.7277,-34454.47647,-16902.54562,-30500.00584,-9685.815535,-30162.60626,-37869.15247,-75924.45027,0.008,0.912,0.33,192,0,0,0,0,0,0,0,0,0,1709549183,0, 2024-03-04 16:16:23.471
49,-101755.2214,-34446.4969,-16885.91592,-30496.09429,-9371.57236,-30173.91624,-37908.67035,-75929.07708,0.008,0.912,0.33,192,0,0,0,0,0,0,0,0,0,1709549183,0, 2024-03-04 16:16:23.471
50,-101729.7404,-34422.73699,-16881.1103,-30475.57538,-10671.75098,-30190.52359,-37986.52148,-75956.56973,0.008,0.912,0.33,192,0,0,0,0,0,0,0,0,0,1709549183,0, 2024-03-04 16:16:23.471
51,-101733.9872,-34425.21804,-16893.60492,-30477.87761,-11832.43237,-30199.75486,-38008.89558,-75984.86703,0.008,0.912,0.33,192,0,0,0,0,0,0,0,0,0,1709549183,0, 2024-03-04 16:16:23.471
52,-101757.0319,-34445.96046,-16901.51744,-30499.89408,-11219.7487,-30188.40017,-37932.00558,-75994.0536,0.008,0.912,0.33,192,0,0,0,0,0,0,0,0,0,1709549183,0, 2024-03-04 16:16:23.471
53,-101773.818,-34464.62416,-16905.31724,-30519.76478,-9687.983654,-30180.08532,-37870.09124,-75981.31311,0.008,0.912,0.33,192,0,0,0,0,0,0,0,0,0,1709549183,0, 2024-03-04 16:16:23.471
54,-101753.8803,-34448.10622,-16895.8401,-30501.77163,-9364.576264,-30173.4245,-37911.62079,-75907.10532,0.008,0.912,0.33,192,0,0,0,0,0,0,0,0,0,1709549183,0, 2024-03-04 16:16:23.471
55,-101730.5451,-34422.49112,-16892.88967,-30479.68811,-10658.74227,-30188.69074,-37989.22604,-75918.05767,0.008,0.912,0.33,192,0,0,0,0,0,0,0,0,0,1709549183,0, 2024-03-04 16:16:23.471
56,-101736.9153,-34422.80405,-16904.64668,-30481.83387,-11821.36826,-30199.48664,-38006.25807,-75917.70004,0.01,0.908,0.334,192,0,80,28,96,10,112,0,0,0,1709549183,0, 2024-03-04 16:16:23.471
57,-101773.1698,-34455.527,-16918.19184,-30514.08744,-11213.37845,-30204.29226,-37933.0114,-75952.54641,0.01,0.908,0.334,192,0,0,0,0,0,0,0,0,0,1709549183,0, 2024-03-04 16:16:23.471
58,-101794.9628,-34478.594,-16921.5446,-30540.19428,-9679.758213,-30209.58963,-37874.74041,-75949.03719,0.01,0.908,0.334,192,0,0,0,0,0,0,0,0,0,1709549183,0, 2024-03-04 16:16:23.471
59,-101767.1349,-34454.20825,-16903.86437,-30516.30026,-9361.491723,-30201.76651,-37912.76072,-75907.21707,0.01,0.908,0.334,192,0,0,0,0,0,0,0,0,0,1709549183,0, 2024-03-04 16:16:23.471
60,-101734.4566,-34424.39102,-16895.70599,-30492.62977,-10670.05225,-30219.42439,-37994.72457,-75984.88939,0.01,0.908,0.334,192,0,0,0,0,0,0,0,0,0,1709549183,0, 2024-03-04 16:16:23.471
61,-101742.1009,-34427.76614,-16909.22879,-30497.54715,-11812.49461,-30234.55652,-38018.88681,-76018.88639,0.01,0.908,0.334,192,0,0,0,0,0,0,0,0,0,1709549183,0, 2024-03-04 16:16:23.471
62,-101770.6217,-34447.86035,-16911.70983,-30513.12632,-11188.54567,-30214.79758,-37938.97932,-75957.19557,0.01,0.908,0.334,192,0,0,0,0,0,0,0,0,0,1709549183,0, 2024-03-04 16:16:23.471
63,-101786.2009,-34464.5124,-16909.80994,-30529.21957,-9654.523093,-30205.96864,-37879.1437,-75945.17034,0.01,0.908,0.334,192,0,0,0,0,0,0,0,0,0,1709549183,0, 2024-03-04 16:16:23.471
64,-101760.4294,-34441.69127,-16891.4368,-30508.4548,-9334.557871,-30203.28643,-37903.21653,-75963.02938,0.01,0.908,0.334,192,0,0,0,0,0,0,0,0,0,1709549183,0, 2024-03-04 16:16:23.471
65,-101731.5956,-34411.56112,-16880.14917,-30477.02825,-10641.73259,-30208.31558,-37981.55939,-75969.37728,0.01,0.908,0.334,192,0,0,0,0,0,0,0,0,0,1709549183,0, 2024-03-04 16:16:23.471
66,-101739.4187,-34415.89736,-16893.11318,-30478.86109,-11782.69974,-30218.61973,-38004.53699,-76008.15755,0.01,0.906,0.338,192,0,80,28,80,10,144,0,0,0,1709549183,0, 2024-03-04 16:16:23.471
67,-101759.9823,-34431.00714,-16891.63797,-30492.29449,-11150.23478,-30200.26895,-37927.71404,-76038.8912,0.01,0.906,0.338,192,0,0,0,0,0,0,0,0,0,1709549183,0, 2024-03-04 16:16:23.471
68,-101767.9395,-34440.77485,-16878.18222,-30503.00098,-9608.970238,-30185.94148,-37859.56357,-76031.60453,0.01,0.906,0.338,192,0,0,0,0,0,0,0,0,0,1709549183,0, 2024-03-04 16:16:23.471
69,-101750.9969,-34431.00714,-16878.96453,-30492.3839,-9323.493758,-30190.0989,-37903.68592,-76006.68234,0.01,0.906,0.338,192,0,0,0,0,0,0,0,0,0,1709549183,0, 2024-03-04 16:16:23.471
70,-101736.1107,-34417.79726,-16883.7478,-30473.63078,-10639.74329,-30203.5323,-37999.97723,-76007.88933,0.01,0.906,0.338,192,0,0,0,0,0,0,0,0,0,1709549183,0, 2024-03-04 16:16:23.471
71,-101738.8152,-34416.72437,-16881.31146,-30459.32567,-11753.64247,-30188.55663,-37996.3339,-75925.65726,0.01,0.906,0.338,192,0,0,0,0,0,0,0,0,0,1709549183,0, 2024-03-04 16:16:23.471
72,-101758.8647,-34429.95661,-16877.2658,-30468.04285,-11109.75577,-30161.62278,-37912.93954,-75892.71079,0.01,0.906,0.338,192,0,0,0,0,0,0,0,0,0,1709549183,0, 2024-03-04 16:16:23.471
73,-101777.9531,-34450.4308,-16878.27162,-30489.67934,-9583.355139,-30155.11842,-37857.61897,-75885.31236,0.01,0.906,0.338,192,0,0,0,0,0,0,0,0,0,1709549183,0, 2024-03-04 16:16:23.471
74,-101767.0678,-34444.06056,-16883.7478,-30487.69003,-9315.648295,-30166.60722,-37892.51004,-75892.8449,0.01,0.906,0.338,192,0,0,0,0,0,0,0,0,0,1709549184,0, 2024-03-04 16:16:23.951
75,-101748.65,-34425.39685,-16885.78181,-30472.31203,-10627.36042,-30186.61203,-37981.17941,-75950.62416,0.01,0.906,0.338,192,0,0,0,0,0,0,0,0,0,1709549184,0, 2024-03-04 16:16:23.951
76,-101750.8405,-34419.71951,-16886.76529,-30465.78532,-11749.97678,-30184.82389,-37987.4379,-75973.17707,0.012,0.9,0.346,192,0,96,28,32,10,208,0,0,0,1709549184,0, 2024-03-04 16:16:23.951
77,-101789.3078,-34447.81565,-16903.77497,-30492.94269,-11112.32622,-30175.39146,-37907.57512,-75946.84672,0.012,0.9,0.346,192,0,0,0,0,0,0,0,0,0,1709549184,0, 2024-03-04 16:16:23.951
78,-101806.0046,-34464.13242,-16909.16174,-30510.33235,-9599.269581,-30166.27194,-37856.52374,-75916.22483,0.012,0.9,0.346,192,0,0,0,0,0,0,0,0,0,1709549184,0, 2024-03-04 16:16:23.951
79,-101783.1611,-34445.2452,-16916.82838,-30500.13995,-9342.023354,-30174.89972,-37919.73447,-75943.35985,0.012,0.9,0.346,192,0,0,0,0,0,0,0,0,0,1709549184,0, 2024-03-04 16:16:23.951
80,-101750.5275,-34413.52807,-16900.55631,-30474.86013,-10647.85697,-30186.50027,-38003.17353,-75984.86703,0.012,0.9,0.346,192,0,0,0,0,0,0,0,0,0,1709549184,0, 2024-03-04 16:16:23.951
81,-101743.822,-34402.57572,-16886.20649,-30462.09728,-11752.77075,-30182.54401,-38003.24059,-75959.02842,0.012,0.9,0.346,192,0,0,0,0,0,0,0,0,0,1709549184,0, 2024-03-04 16:16:23.951
82,-101774.3992,-34430.44834,-16900.80218,-30485.47721,-11099.9657,-30172.61984,-37924.13776,-75906.99356,0.012,0.9,0.346,192,0,0,0,0,0,0,0,0,0,1709549184,0, 2024-03-04 16:16:23.951
83,-101791.2077,-34450.20729,-16905.29488,-30508.52186,-9570.100554,-30171.54696,-37870.53828,-75923.73501,0.012,0.9,0.346,192,0,0,0,0,0,0,0,0,0,1709549184,0, 2024-03-04 16:16:23.951
84,-101778.7131,-34443.18884,-16909.04998,-30508.81243,-9307.691074,-30193.11639,-37915.50999,-75956.68148,0.012,0.9,0.346,192,0,0,0,0,0,0,0,0,0,1709549184,0, 2024-03-04 16:16:23.951
85,-101749.1864,-34417.26082,-16893.49316,-30484.51608,-10646.44881,-30209.83549,-37999.88782,-76003.32958,0.012,0.9,0.346,192,0,0,0,0,0,0,0,0,0,1709549184,0, 2024-03-04 16:16:23.951
86,-101750.2817,-34417.32787,-16893.49316,-30482.61618,-11758.29163,-30218.75384,-38010.12492,-76042.40042,0.01,0.9,0.336,192,0,80,28,32,10,128,0,0,0,1709549184,0, 2024-03-04 16:16:23.951
87,-101777.7073,-34438.2491,-16900.69042,-30501.88339,-11095.49535,-30206.01335,-37933.19022,-76003.91072,0.01,0.9,0.336,192,0,0,0,0,0,0,0,0,0,1709549184,0, 2024-03-04 16:16:23.951
88,-101789.9784,-34448.10622,-16897.1812,-30517.14963,-9569.78763,-30199.10666,-37884.44106,-76035.7396,0.01,0.9,0.336,192,0,0,0,0,0,0,0,0,0,1709549184,0, 2024-03-04 16:16:23.951
89,-101768.2972,-34428.10141,-16886.05003,-30501.03402,-9321.839729,-30200.82774,-37921.72377,-76010.81741,0.01,0.9,0.336,192,0,0,0,0,0,0,0,0,0,1709549184,0, 2024-03-04 16:16:23.951
90,-101732.8697,-34391.53396,-16867.40868,-30456.5764,-10645.28652,-30187.95314,-37983.34753,-75884.73122,0.01,0.9,0.336,192,0,0,0,0,0,0,0,0,0,1709549184,0, 2024-03-04 16:16:23.951
91,-101734.1214,-34388.85175,-16868.14628,-30448.21685,-11730.01668,-30182.87929,-37981.84997,-75884.44065,0.01,0.9,0.336,192,0,0,0,0,0,0,0,0,0,1709549184,0, 2024-03-04 16:16:23.951
92,-101777.819,-34429.8225,-16877.53402,-30487.15359,-11071.95897,-30187.93079,-37915.73351,-75937.01195,0.01,0.9,0.336,192,0,0,0,0,0,0,0,0,0,1709549184,0, 2024-03-04 16:16:23.951
93,-101788.302,-34444.50759,-16875.32119,-30501.27989,-9551.682717,-30175.83849,-37855.27204,-75932.04986,0.01,0.9,0.336,192,0,0,0,0,0,0,0,0,0,1709549184,0, 2024-03-04 16:16:23.951
94,-101774.0192,-34434.69518,-16879.23275,-30495.28962,-9320.610383,-30186.23205,-37901.58485,-75960.48128,0.01,0.9,0.336,192,0,0,0,0,0,0,0,0,0,1709549184,0, 2024-03-04 16:16:23.951
95,-101754.3944,-34417.57374,-16879.9033,-30480.11279,-10644.75008,-30205.3875,-37988.93547,-75998.97099,0.01,0.9,0.336,192,0,0,0,0,0,0,0,0,0,1709549184,0, 2024-03-04 16:16:23.951
96,-101759.5576,-34418.02078,-16886.05003,-30477.7435,-11740.38789,-30206.05805,-37994.59046,-76011.89029,0.006,0.906,0.33,192,0,48,28,80,10,80,0,0,0,1709549184,0, 2024-03-04 16:16:23.951
97,-101797.8238,-34449.44733,-16907.01597,-30504.09621,-11066.70631,-30196.13388,-37914.4371,-76017.25471,0.006,0.906,0.33,192,0,0,0,0,0,0,0,0,0,1709549184,0, 2024-03-04 16:16:23.951
98,-101807.1892,-34458.38803,-16903.93143,-30516.41202,-9553.448505,-30184.28745,-37874.27102,-76045.90965,0.006,0.906,0.33,192,0,0,0,0,0,0,0,0,0,1709549184,0, 2024-03-04 16:16:23.951
99,-101781.2165,-34434.80694,-16891.77208,-30495.96018,-9322.890261,-30179.01244,-37909.98911,-75997.02638,0.006,0.906,0.33,192,0,0,0,0,0,0,0,0,0,1709549184,0, 2024-03-04 16:16:23.951
100,-101751.4663,-34406.01789,-16881.44557,-30466.03119,-10643.94541,-30180.06297,-37987.66142,-75942.37637,0.006,0.906,0.33,192,0,0,0,0,0,0,0,0,0,1709549184,0, 2024-03-04 16:16:23.951
101,-101753.1203,-34401.48048,-16882.87608,-30459.66094,-11732.65418,-30177.51487,-37985.15802,-75911.01687,0.006,0.906,0.33,192,0,0,0,0,0,0,0,0,0,1709549184,0, 2024-03-04 16:16:23.951
102,-101780.6577,-34421.55235,-16888.7993,-30478.19054,-11041.44884,-30161.53337,-37902.50127,-75882.80897,0.006,0.906,0.33,192,0,0,0,0,0,0,0,0,0,1709549184,0, 2024-03-04 16:16:23.951
103,-101798.3156,-34441.4007,-16896.33183,-30503.51507,-9515.629353,-30160.90753,-37847.02424,-75895.59417,0.006,0.906,0.33,192,0,0,0,0,0,0,0,0,0,1709549184,0, 2024-03-04 16:16:23.951
104,-101783.4069,-34431.94591,-16905.45135,-30503.22449,-9308.451034,-30178.74422,-37904.22236,-75930.03821,0.006,0.906,0.33,192,0,0,0,0,0,0,0,0,0,1709549184,0, 2024-03-04 16:16:23.951
105,-101764.4974,-34414.73507,-16915.26376,-30490.39459,-10663.65965,-30201.99003,-38006.99568,-75969.31022,0.006,0.906,0.33,192,0,0,0,0,0,0,0,0,0,1709549184,0, 2024-03-04 16:16:23.951
106,-101763.4245,-34408.61069,-16894.43194,-30482.66089,-11729.12261,-30201.31948,-37990.65655,-75982.60951,0.01,0.906,0.342,192,0,80,28,80,10,176,0,0,0,1709549184,0, 2024-03-04 16:16:23.951
107,-101795.1416,-34436.46096,-16909.13938,-30508.54421,-11039.0572,-30198.01142,-37912.33604,-75985.62699,0.01,0.906,0.342,192,0,0,0,0,0,0,0,0,0,1709549184,0, 2024-03-04 16:16:23.951
108,-101815.5041,-34459.03623,-16914.14617,-30531.18652,-9512.38835,-30199.41958,-37874.96392,-75975.09932,0.01,0.906,0.342,192,0,0,0,0,0,0,0,0,0,1709549184,0, 2024-03-04 16:16:23.951
109,-101794.6946,-34438.8079,-16907.91004,-30511.56169,-9271.749469,-30197.40792,-37913.67715,-75940.96821,0.01,0.906,0.342,192,0,0,0,0,0,0,0,0,0,1709549184,0, 2024-03-04 16:16:23.951
110,-101760.6752,-34407.4037,-16895.39306,-30480.96215,-10601.09712,-30203.19703,-37992.17647,-75936.27434,0.01,0.906,0.342,192,0,0,0,0,0,0,0,0,0,1709549184,0, 2024-03-04 16:16:23.951
111,-101767.1572,-34411.2482,-16905.36194,-30482.88441,-11665.75541,-30209.99196,-38001.60891,-75961.66592,0.01,0.906,0.342,192,0,0,0,0,0,0,0,0,0,1709549184,0, 2024-03-04 16:16:23.951
112,-101795.4098,-34435.0081,-16914.03442,-30506.57725,-10968.98448,-30202.1912,-37925.52357,-75985.64935,0.01,0.906,0.342,192,0,0,0,0,0,0,0,0,0,1709549184,0, 2024-03-04 16:16:23.951
113,-101803.9258,-34445.2005,-16910.30167,-30520.56945,-9459.437067,-30196.29034,-37870.42652,-76001.16146,0.01,0.906,0.342,192,0,0,0,0,0,0,0,0,0,1709549184,0, 2024-03-04 16:16:23.951
114,-101776.5897,-34422.42407,-16899.57284,-30500.27406,-9254.784495,-30197.18441,-37917.14167,-75978.6309,0.01,0.906,0.342,192,0,0,0,0,0,0,0,0,0,1709549184,0, 2024-03-04 16:16:23.951
115,-101737.6306,-34386.25895,-16880.84208,-30464.55597,-10593.65399,-30198.68197,-37994.63516,-75976.46278,0.01,0.906,0.342,192,0,0,0,0,0,0,0,0,0,1709549184,0, 2024-03-04 16:16:23.951
116,-101741.3186,-34384.3814,-16880.30563,-30460.71147,-11662.64852,-30200.62658,-38004.31347,-75986.81164,0.016,0.9,0.342,192,0,128,28,32,10,176,0,0,0,1709549184,0, 2024-03-04 16:16:23.951
117,-101778.7131,-34417.17141,-16900.31044,-30494.9767,-10956.4228,-30203.19703,-37928.13872,-76038.22065,0.016,0.9,0.342,192,0,0,0,0,0,0,0,0,0,1709549184,0, 2024-03-04 16:16:23.951
118,-101796.9745,-34436.93035,-16891.36975,-30514.2439,-9455.212588,-30198.41375,-37879.1884,-76013.96901,0.016,0.9,0.342,192,0,0,0,0,0,0,0,0,0,1709549184,0, 2024-03-04 16:16:23.951
119,-101775.6732,-34416.83613,-16878.07046,-30493.30032,-9258.628995,-30191.97645,-37911.73254,-75961.88944,0.016,0.9,0.342,192,0,0,0,0,0,0,0,0,0,1709549184,0, 2024-03-04 16:16:23.951
120,-101757.0766,-34397.2113,-16883.88191,-30472.98258,-10596.71618,-30204.58283,-37987.3485,-75988.62213,0.016,0.9,0.342,192,0,0,0,0,0,0,0,0,0,1709549184,0, 2024-03-04 16:16:23.951
121,-101766.6878,-34401.88282,-16895.54952,-30474.39074,-11659.02754,-30207.9356,-38001.58656,-76013.94665,0.016,0.9,0.342,192,0,0,0,0,0,0,0,0,0,1709549184,0, 2024-03-04 16:16:23.951
122,-101800.2825,-34427.49791,-16908.84881,-30493.41208,-10933.78048,-30187.05907,-37909.60913,-75968.21498,0.016,0.9,0.342,192,0,0,0,0,0,0,0,0,0,1709549184,0, 2024-03-04 16:16:23.951
123,-101813.0454,-34438.91966,-16899.7293,-30501.79398,-9426.110616,-30169.42354,-37854.66854,-75955.25097,0.016,0.9,0.342,192,0,0,0,0,0,0,0,0,0,1709549184,0, 2024-03-04 16:16:23.951
124,-101792.5935,-34420.59123,-16894.16372,-30489.99226,-9238.668887,-30177.62663,-37912.11252,-76003.32958,0.016,0.9,0.342,192,0,0,0,0,0,0,0,0,0,1709549184,0, 2024-03-04 16:16:23.951
125,-101760.6752,-34391.06457,-16881.95966,-30457.89515,-10587.50726,-30177.64898,-37980.62062,-75926.95366,0.016,0.9,0.342,192,0,0,0,0,0,0,0,0,0,1709549184,0, 2024-03-04 16:16:23.951
126,-101763.0669,-34388.58353,-16882.4514,-30451.54726,-11630.48436,-30173.49156,-37976.97729,-75910.18986,0.018,0.902,0.346,192,0,144,28,48,10,208,0,0,0,1709549184,0, 2024-03-04 16:16:23.951
127,-101800.1484,-34420.8818,-16904.60198,-30486.036,-10925.30917,-30175.12324,-37917.72281,-75934.32974,0.018,0.902,0.346,192,0,0,0,0,0,0,0,0,0,1709549184,0, 2024-03-04 16:16:23.951
128,-101817.1581,-34438.45027,-16907.06067,-30507.33721,-9433.576099,-30171.18933,-37869.13012,-75951.49588,0.018,0.902,0.346,192,0,0,0,0,0,0,0,0,0,1709549184,0, 2024-03-04 16:16:23.951
129,-101801.9589,-34423.58636,-16902.8809,-30497.72596,-9250.202388,-30180.97939,-37910.83847,-75974.07114,0.018,0.902,0.346,192,0,0,0,0,0,0,0,0,0,1709549184,0, 2024-03-04 16:16:23.951
130,-101774.0192,-34396.58545,-16899.6846,-30473.8543,-10592.75992,-30192.28938,-37979.14541,-75985.73875,0.018,0.902,0.346,192,0,0,0,0,0,0,0,0,0,1709549184,0, 2024-03-04 16:16:23.951
131,-101785.2845,-34403.08981,-16914.21323,-30477.20706,-11642.5543,-30196.98324,-37985.15802,-75997.40636,0.018,0.902,0.346,192,0,0,0,0,0,0,0,0,0,1709549184,0, 2024-03-04 16:16:23.951
132,-101811.5478,-34422.42407,-16899.57284,-30490.59576,-10921.71054,-30175.79379,-37912.29134,-75957.53085,0.018,0.902,0.346,192,0,0,0,0,0,0,0,0,0,1709549184,0, 2024-03-04 16:16:23.951
133,-101816.3534,-34427.94495,-16896.37654,-30496.8766,-9411.134948,-30157.17478,-37857.44016,-75888.70983,0.018,0.902,0.346,192,0,0,0,0,0,0,0,0,0,1709549184,0, 2024-03-04 16:16:23.951
134,-101806.1387,-34422.37937,-16907.06067,-30497.63656,-9245.285004,-30174.83266,-37915.62175,-75896.35413,0.018,0.902,0.346,192,0,0,0,0,0,0,0,0,0,1709549184,0, 2024-03-04 16:16:23.951
135,-101780.3671,-34403.93918,-16899.79635,-30483.4432,-10604.89692,-30197.43028,-37996.82564,-75927.51246,0.018,0.902,0.346,192,0,0,0,0,0,0,0,0,0,1709549184,0, 2024-03-04 16:16:23.951
136,-101784.681,-34404.72149,-16910.07816,-30485.92424,-11662.4697,-30206.86271,-37998.882,-75968.81848,0.02,0.91,0.338,192,0,160,28,112,10,144,0,0,0,1709549184,0, 2024-03-04 16:16:23.951
137,-101815.5711,-34429.04019,-16919.15297,-30512.50047,-10935.34511,-30203.55465,-37918.1922,-75990.83495,0.02,0.91,0.338,192,0,0,0,0,0,0,0,0,0,1709549184,0, 2024-03-04 16:16:23.951
138,-101824.0201,-34437.98088,-16913.38622,-30523.67634,-9424.814215,-30193.56342,-37881.42358,-75958.06729,0.02,0.91,0.338,192,0,0,0,0,0,0,0,0,0,1709549184,0, 2024-03-04 16:16:23.951
139,-101794.2475,-34412.76812,-16898.74582,-30502.73275,-9250.291795,-30194.94923,-37929.94922,-75967.7456,0.02,0.91,0.338,192,0,0,0,0,0,0,0,0,0,1709549184,0, 2024-03-04 16:16:23.951
140,-101761.7928,-34380.80512,-16885.89357,-30468.55694,-10605.76863,-30195.7986,-37999.01611,-75921.67865,0.02,0.91,0.338,192,0,0,0,0,0,0,0,0,0,1709549184,0, 2024-03-04 16:16:23.951
141,-101760.5858,-34374.56898,-16884.41835,-30460.59972,-11646.93524,-30191.97645,-37986.67794,-75903.0373,0.02,0.91,0.338,192,0,0,0,0,0,0,0,0,0,1709549184,0, 2024-03-04 16:16:23.951
142,-101791.8783,-34400.96639,-16894.61075,-30488.02531,-10906.93604,-30187.21553,-37915.21942,-75940.76704,0.02,0.91,0.338,192,0,0,0,0,0,0,0,0,0,1709549184,0, 2024-03-04 16:16:23.951
143,-101800.6848,-34409.05773,-16897.38237,-30502.37513,-9395.086395,-30181.64994,-37875.83564,-75978.69795,0.02,0.91,0.338,192,0,0,0,0,0,0,0,0,0,1709549184,0, 2024-03-04 16:16:23.951
144,-101783.7869,-34392.33862,-16890.34157,-30492.16038,-9251.342327,-30191.52942,-37924.47304,-75999.28391,0.02,0.91,0.338,192,0,0,0,0,0,0,0,0,0,1709549184,0, 2024-03-04 16:16:23.951
145,-101755.8472,-34363.97426,-16870.85085,-30463.6619,-10613.18941,-30197.58674,-37995.75275,-76000.26739,0.02,0.91,0.338,192,0,0,0,0,0,0,0,0,0,1709549184,0, 2024-03-04 16:16:23.951
146,-101764.3186,-34368.3552,-16886.98881,-30469.89804,-11651.22678,-30205.94629,-37991.86355,-76029.68228,0.02,0.91,0.338,192,0,0,0,0,0,0,0,0,0,1709549184,0, 2024-03-04 16:16:23.951
147,-101800.9978,-34398.59711,-16907.01597,-30502.0622,-10922.67167,-30201.52065,-37920.60619,-76018.70758,0.02,0.904,0.34,192,0,160,28,64,10,160,0,0,0,1709549184,0, 2024-03-04 16:16:23.951
148,-101810.0502,-34409.54946,-16894.70016,-30511.06995,-9399.333227,-30185.6062,-37865.48678,-75987.16926,0.02,0.904,0.34,192,0,0,0,0,0,0,0,0,0,1709549184,0, 2024-03-04 16:16:23.951
149,-101789.2631,-34390.774,-16880.52915,-30489.94756,-9224.631992,-30180.01827,-37909.2515,-75934.28504,0.02,0.904,0.34,192,0,0,0,0,0,0,0,0,0,1709549184,0, 2024-03-04 16:16:23.951
150,-101766.8667,-34365.49418,-16876.10351,-30466.36647,-10585.4956,-30190.0989,-37988.15316,-75952.03232,0.02,0.904,0.34,192,0,0,0,0,0,0,0,0,0,1709549184,0, 2024-03-04 16:16:23.951
151,-101779.6966,-34374.32311,-16889.35809,-30477.87761,-11627.42217,-30204.89576,-37998.72553,-76024.60844,0.02,0.904,0.34,192,0,0,0,0,0,0,0,0,0,1709549184,0, 2024-03-04 16:16:23.951
152,-101819.1027,-34408.96832,-16909.22879,-30509.66179,-10898.46473,-30200.06778,-37924.69656,-76001.78731,0.02,0.904,0.34,192,0,0,0,0,0,0,0,0,0,1709549184,0, 2024-03-04 16:16:23.951
153,-101825.54,-34410.55529,-16900.35515,-30507.47132,-9397.299218,-30168.95415,-37871.36529,-75897.44936,0.02,0.904,0.34,192,0,0,0,0,0,0,0,0,0,1709549184,0, 2024-03-04 16:16:23.951
154,-101800.7072,-34386.61657,-16887.90523,-30486.25952,-9246.112018,-30164.28264,-37920.65089,-75886.11703,0.02,0.904,0.34,192,0,0,0,0,0,0,0,0,0,1709549184,0, 2024-03-04 16:16:23.951
155,-101773.1251,-34360.80031,-16886.20649,-30460.55501,-10596.64912,-30171.68107,-37986.83441,-75899.75159,0.02,0.904,0.34,192,0,0,0,0,0,0,0,0,0,1709549184,0, 2024-03-04 16:16:23.951
156,-101782.8705,-34363.2143,-16890.07335,-30463.79602,-11650.44447,-30180.84528,-37994.4787,-75967.36562,0.02,0.904,0.34,192,0,0,0,0,0,0,0,0,0,1709549184,0, 2024-03-04 16:16:23.951
157,-101824.3777,-34399.08885,-16917.67775,-30500.09525,-10914.8262,-30184.8686,-37938.1076,-75988.01863,0.016,0.902,0.338,192,0,128,28,48,10,144,0,0,0,1709549184,0, 2024-03-04 16:16:23.951
158,-101841.7674,-34419.47364,-16926.88667,-30521.79879,-9417.371084,-30185.6062,-37894.90168,-75973.49,0.016,0.902,0.338,192,0,0,0,0,0,0,0,0,0,1709549184,0, 2024-03-04 16:16:23.951
159,-101812.8889,-34396.42899,-16907.08302,-30502.17396,-9276.443336,-30190.18831,-37934.79954,-75964.5046,0.016,0.902,0.338,192,0,0,0,0,0,0,0,0,0,1709549184,0, 2024-03-04 16:16:23.951
160,-101780.4342,-34365.29301,-16896.66711,-30468.04285,-10638.84922,-30191.3059,-37995.88686,-75901.0927,0.016,0.902,0.338,192,0,0,0,0,0,0,0,0,0,1709549184,0, 2024-03-04 16:16:23.951
161,-101783.2058,-34364.73422,-16898.58936,-30464.84655,-11650.48917,-30192.11056,-38004.15701,-75894.63304,0.016,0.902,0.338,192,0,0,0,0,0,0,0,0,0,1709549184,0, 2024-03-04 16:16:23.951
162,-101805.6246,-34383.44263,-16899.93047,-30487.26535,-10884.53959,-30185.02506,-37924.74126,-75934.82148,0.016,0.902,0.338,192,0,0,0,0,0,0,0,0,0,1709549184,0, 2024-03-04 16:16:23.951
163,-101813.7159,-34397.32306,-16901.13746,-30506.42079,-9387.196229,-30184.2651,-37885.80452,-75950.40064,0.016,0.902,0.338,192,0,0,0,0,0,0,0,0,0,1709549184,0, 2024-03-04 16:16:23.951
164,-101794.0687,-34385.52134,-16895.48247,-30499.89408,-9272.442373,-30199.48664,-37932.72083,-75987.90687,0.016,0.902,0.338,192,0,0,0,0,0,0,0,0,0,1709549184,0, 2024-03-04 16:16:23.951
165,-101773.2816,-34364.30953,-16892.085,-30479.71046,-10645.15241,-30216.78689,-38018.57388,-76029.07879,0.016,0.902,0.338,192,0,0,0,0,0,0,0,0,0,1709549184,0, 2024-03-04 16:16:23.951
166,-101772.097,-34357.78282,-16883.36782,-30466.54528,-11641.81669,-30202.72764,-38012.74008,-75989.09151,0.016,0.902,0.338,192,0,0,0,0,0,0,0,0,0,1709549184,0, 2024-03-04 16:16:23.951
167,-101804.3952,-34388.67293,-16899.28226,-30491.26631,-10857.114,-30191.9094,-37936.83355,-75958.29081,0.016,0.898,0.34,192,0,128,28,16,10,160,0,0,0,1709549184,0, 2024-03-04 16:16:23.951
168,-101817.2698,-34404.9003,-16895.59423,-30507.7619,-9358.809514,-30186.83555,-37878.92018,-75979.41321,0.016,0.898,0.34,192,0,0,0,0,0,0,0,0,0,1709549184,0, 2024-03-04 16:16:23.951
169,-101789.4196,-34380.44749,-16867.7216,-30486.6395,-9249.800056,-30188.46723,-37920.65089,-76009.05162,0.016,0.898,0.34,192,0,0,0,0,0,0,0,0,0,1709549184,0, 2024-03-04 16:16:23.951
170,-101768.1184,-34358.92276,-16870.89555,-30465.5171,-10641.15145,-30202.2359,-37999.91018,-76018.46171,0.016,0.898,0.34,192,0,0,0,0,0,0,0,0,0,1709549184,0, 2024-03-04 16:16:23.951
171,-101781.82,-34364.13072,-16886.60883,-30464.37716,-11644.83418,-30197.92201,-38006.28042,-75971.88067,0.016,0.898,0.34,192,0,0,0,0,0,0,0,0,0,1709549184,0, 2024-03-04 16:16:23.951
172,-101807.6586,-34384.22494,-16887.70406,-30479.08461,-10838.85262,-30175.41381,-37912.4925,-75932.98864,0.016,0.898,0.34,192,0,0,0,0,0,0,0,0,0,1709549184,0, 2024-03-04 16:16:23.951
173,-101816.9569,-34396.47369,-16882.4067,-30492.45095,-9350.293499,-30166.20489,-37853.95328,-75946.73496,0.016,0.898,0.34,192,0,0,0,0,0,0,0,0,0,1709549184,0, 2024-03-04 16:16:23.951
174,-101798.3379,-34383.01794,-16880.97619,-30486.72891,-9255.432696,-30181.09115,-37914.9959,-76003.21782,0.016,0.898,0.34,192,0,0,0,0,0,0,0,0,0,1709549184,0, 2024-03-04 16:16:23.951
175,-101775.8521,-34361.64968,-16875.76823,-30467.68522,-10637.21754,-30194.56925,-37992.15412,-76010.86211,0.016,0.898,0.34,192,0,0,0,0,0,0,0,0,0,1709549184,0, 2024-03-04 16:16:23.951
176,-101793.7111,-34375.21718,-16894.65545,-30480.67158,-11637.3687,-30205.11928,-37997.65265,-76028.02825,0.016,0.898,0.34,192,0,0,0,0,0,0,0,0,0,1709549184,0, 2024-03-04 16:16:23.951
177,-101829.3398,-34404.74384,-16910.27932,-30506.71136,-10858.00807,-30193.71989,-37932.05028,-76004.51422,0.018,0.904,0.34,192,0,144,28,64,10,160,0,0,0,1709549184,0, 2024-03-04 16:16:23.951
178,-101845.9695,-34421.70881,-16916.00137,-30521.79879,-9374.053404,-30181.38172,-37884.35166,-75946.69026,0.018,0.904,0.34,192,0,0,0,0,0,0,0,0,0,1709549184,0, 2024-03-04 16:16:23.951
179,-101814.61,-34394.6632,-16900.26574,-30494.08263,-9262.115867,-30170.29526,-37924.49539,-75880.97613,0.018,0.904,0.34,192,0,0,0,0,0,0,0,0,0,1709549184,0, 2024-03-04 16:16:23.951
180,-101786.335,-34363.50487,-16886.69823,-30460.84558,-10636.92697,-30170.49642,-38001.25128,-75862.62534,0.018,0.904,0.34,192,0,0,0,0,0,0,0,0,0,1709549184,0, 2024-03-04 16:16:23.951
181,-101796.1921,-34366.47765,-16888.77694,-30463.55015,-11648.92455,-30178.58776,-38018.48448,-75911.12863,0.018,0.904,0.34,192,0,0,0,0,0,0,0,0,0,1709549184,0, 2024-03-04 16:16:23.951
182,-101822.9695,-34386.99655,-16900.64572,-30483.10792,-10858.4551,-30166.00372,-37927.37877,-75925.99254,0.018,0.904,0.34,192,0,0,0,0,0,0,0,0,0,1709549184,0, 2024-03-04 16:16:23.951
183,-101839.4875,-34404.63208,-16906.7701,-30504.40913,-9376.087412,-30169.35649,-37881.13301,-75959.38605,0.018,0.904,0.34,192,0,0,0,0,0,0,0,0,0,1709549184,0, 2024-03-04 16:16:23.951
184,-101808.4633,-34380.11222,-16890.81095,-30483.51025,-9271.36949,-30174.13976,-37933.48079,-75974.54053,0.018,0.904,0.34,192,0,0,0,0,0,0,0,0,0,1709549184,0, 2024-03-04 16:16:23.951
185,-101776.232,-34350.85378,-16878.5622,-30454.09536,-10648.68398,-30183.32633,-38007.39801,-75961.64357,0.018,0.904,0.34,192,0,0,0,0,0,0,0,0,0,1709549184,0, 2024-03-04 16:16:23.951
186,-101779.8754,-34352.41841,-16876.37173,-30453.04483,-11640.43088,-30185.76267,-38006.54864,-75964.90693,0.018,0.904,0.34,192,0,0,0,0,0,0,0,0,0,1709549184,0, 2024-03-04 16:16:23.951
187,-101812.8442,-34381.34156,-16889.96159,-30486.25952,-10844.35115,-30188.84721,-37930.01627,-76017.90291,0.018,0.904,0.336,192,0,144,28,64,10,128,0,0,0,1709549184,0, 2024-03-04 16:16:23.951
188,-101826.2105,-34396.27253,-16897.53883,-30507.02429,-9359.211845,-30191.81999,-37894.16407,-76045.75319,0.018,0.904,0.336,192,0,0,0,0,0,0,0,0,0,1709549184,0, 2024-03-04 16:16:23.951
189,-101798.9414,-34373.47375,-16887.25703,-30484.15845,-9277.627978,-30189.22719,-37934.10664,-75987.5716,0.018,0.904,0.336,192,0,0,0,0,0,0,0,0,0,1709549184,0, 2024-03-04 16:16:23.951
190,-101766.3302,-34341.89073,-16868.95095,-30447.94863,-10662.13973,-30186.8132,-37989.51661,-75936.67667,0.018,0.904,0.336,192,0,0,0,0,0,0,0,0,0,1709549184,0, 2024-03-04 16:16:23.951
191,-101777.372,-34348.4845,-16882.4961,-30451.03317,-11640.40853,-30191.21649,-38003.4641,-75952.79228,0.018,0.904,0.336,192,0,0,0,0,0,0,0,0,0,1709549184,0, 2024-03-04 16:16:23.951
192,-101808.9997,-34373.87608,-16882.94314,-30475.12835,-10835.00812,-30179.07949,-37928.02697,-75967.23151,0.018,0.904,0.336,192,0,0,0,0,0,0,0,0,0,1709549184,0, 2024-03-04 16:16:23.951
193,-101827.7528,-34393.85854,-16882.11612,-30499.40234,-9343.006831,-30180.3759,-37880.52951,-76018.48406,0.018,0.904,0.336,192,0,0,0,0,0,0,0,0,0,1709549184,0, 2024-03-04 16:16:23.951
194,-101809.782,-34378.70406,-16880.79737,-30489.65698,-9261.37826,-30190.76946,-37925.09889,-76036.9019,0.018,0.904,0.336,192,0,0,0,0,0,0,0,0,0,1709549184,0, 2024-03-04 16:16:24.432
195,-101787.095,-34352.3737,-16878.83042,-30460.66677,-10664.46431,-30190.81416,-38006.25807,-75985.1129,0.018,0.904,0.336,192,0,0,0,0,0,0,0,0,0,1709549184,0, 2024-03-04 16:16:24.432
196,-101801.2213,-34356.28526,-16889.71572,-30460.15268,-11645.48238,-30185.87442,-38003.68762,-75961.33065,0.018,0.904,0.336,192,0,0,0,0,0,0,0,0,0,1709549184,0, 2024-03-04 16:16:24.432
197,-101833.4525,-34382.12387,-16897.73999,-30484.1361,-10824.77103,-30173.64802,-37924.6295,-75995.84174,0.016,0.902,0.336,192,0,128,28,48,10,128,0,0,0,1709549184,0, 2024-03-04 16:16:24.432
198,-101842.6391,-34391.91394,-16897.2259,-30497.14482,-9345.130246,-30164.70732,-37877.1991,-76007.75522,0.016,0.902,0.336,192,0,0,0,0,0,0,0,0,0,1709549184,0, 2024-03-04 16:16:24.432
199,-101821.0249,-34373.78667,-16890.22981,-30479.88927,-9281.807754,-30163.45562,-37925.56827,-75936.85549,0.016,0.902,0.336,192,0,0,0,0,0,0,0,0,0,1709549184,0, 2024-03-04 16:16:24.432
200,-101791.0512,-34344.72941,-16877.60107,-30450.72024,-10687.73248,-30165.89197,-37997.49619,-75915.93425,0.016,0.902,0.336,192,0,0,0,0,0,0,0,0,0,1709549184,0, 2024-03-04 16:16:24.432
201,-101794.851,-34343.88004,-16880.08212,-30452.6872,-11652.05379,-30170.40702,-37983.19107,-75969.0867,0.016,0.902,0.336,192,0,0,0,0,0,0,0,0,0,1709549184,0, 2024-03-04 16:16:24.432
202,-101825.3612,-34372.46792,-16893.09083,-30480.55982,-10817.43965,-30160.75106,-37905.29524,-75953.10521,0.016,0.902,0.336,192,0,0,0,0,0,0,0,0,0,1709549184,0, 2024-03-04 16:16:24.432
203,-101844.2707,-34392.27157,-16901.0257,-30500.49758,-9346.091371,-30157.55476,-37871.56646,-75931.02168,0.016,0.902,0.336,192,0,0,0,0,0,0,0,0,0,1709549184,0, 2024-03-04 16:16:24.432
204,-101827.9763,-34378.0335,-16899.6846,-30490.75222,-9299.331522,-30167.74716,-37928.474,-75938.86714,0.016,0.902,0.336,192,0,0,0,0,0,0,0,0,0,1709549184,0, 2024-03-04 16:16:24.432
205,-101794.3146,-34343.74593,-16885.80416,-30458.76687,-10702.17171,-30170.94346,-38005.87809,-75934.37444,0.016,0.902,0.336,192,0,0,0,0,0,0,0,0,0,1709549184,0, 2024-03-04 16:16:24.433
206,-101800.6401,-34346.27168,-16896.10832,-30458.521,-11667.61061,-30172.97747,-37999.06081,-75940.94586,0.016,0.902,0.336,192,0,0,0,0,0,0,0,0,0,1709549184,0, 2024-03-04 16:16:24.433
207,-101834.6148,-34373.47375,-16890.58744,-30481.90093,-10832.92941,-30162.89683,-37929.14455,-75928.63005,0.016,0.902,0.34,192,0,128,28,48,10,160,0,0,0,1709549184,0, 2024-03-04 16:16:24.433
208,-101841.4768,-34382.5262,-16890.58744,-30492.36154,-9335.027258,-30156.37012,-37890.54309,-75936.14023,0.016,0.902,0.34,192,0,0,0,0,0,0,0,0,0,1709549184,0, 2024-03-04 16:16:24.433
209,-101820.1532,-34365.60593,-16887.45819,-30481.52095,-9301.834917,-30173.82683,-37935.67126,-76003.35193,0.016,0.902,0.34,192,0,0,0,0,0,0,0,0,0,1709549184,0, 2024-03-04 16:16:24.433
210,-101797.265,-34342.15895,-16888.844,-30464.10894,-10730.33491,-30194.88218,-38016.294,-76055.87853,0.016,0.902,0.34,192,0,0,0,0,0,0,0,0,0,1709549184,0, 2024-03-04 16:16:24.433
211,-101801.1766,-34341.33194,-16889.96159,-30461.73965,-11682.96625,-30191.9988,-38014.12589,-76022.28385,0.016,0.902,0.34,192,0,0,0,0,0,0,0,0,0,1709549184,0, 2024-03-04 16:16:24.433
212,-101827.3952,-34362.74491,-16894.05196,-30478.25759,-10814.08689,-30172.26221,-37925.8812,-75958.26846,0.016,0.902,0.34,192,0,0,0,0,0,0,0,0,0,1709549184,0, 2024-03-04 16:16:24.433
213,-101833.2513,-34370.54567,-16886.72058,-30484.94077,-9325.594822,-30156.39247,-37885.71511,-75905.38423,0.016,0.902,0.34,192,0,0,0,0,0,0,0,0,0,1709549184,0, 2024-03-04 16:16:24.433
214,-101806.7645,-34348.12687,-16877.9587,-30464.73479,-9304.964162,-30158.71706,-37941.39331,-75907.30648,0.016,0.902,0.34,192,0,0,0,0,0,0,0,0,0,1709549184,0, 2024-03-04 16:16:24.433
215,-101772.5216,-34315.58273,-16856.21045,-30430.42486,-10697.90252,-30159.70053,-37996.13273,-75893.71662,0.016,0.902,0.34,192,0,0,0,0,0,0,0,0,0,1709549184,0, 2024-03-04 16:16:24.433
216,-101782.4905,-34321.21537,-16860.27847,-30436.28102,-11651.76322,-30169.04356,-38002.0783,-75932.72041,0.016,0.902,0.34,192,0,0,0,0,0,0,0,0,0,1709549184,0, 2024-03-04 16:16:24.433
217,-101813.4253,-34347.16575,-16870.15794,-30464.28775,-10811.20352,-30163.92501,-37927.93756,-75982.43069,0.012,0.908,0.338,192,0,96,28,96,10,144,0,0,0,1709549184,0, 2024-03-04 16:16:24.433
218,-101826.814,-34365.8518,-16870.56027,-30483.21968,-9330.065171,-30164.37205,-37883.79286,-75996.31113,0.012,0.908,0.338,192,0,0,0,0,0,0,0,0,0,1709549184,0, 2024-03-04 16:16:24.433
219,-101800.5507,-34342.58364,-16856.92571,-30461.09145,-9301.320827,-30163.12035,-37921.72377,-75971.79126,0.012,0.908,0.338,192,0,0,0,0,0,0,0,0,0,1709549184,0, 2024-03-04 16:16:24.433
220,-101778.2884,-34320.34365,-16862.31248,-30439.96906,-10722.84707,-30173.11158,-37995.97627,-75970.49486,0.012,0.908,0.338,192,0,0,0,0,0,0,0,0,0,1709549184,0, 2024-03-04 16:16:24.433
221,-101800.0143,-34340.10259,-16882.04907,-30457.7834,-11658.80402,-30186.79085,-38000.62543,-75992.22076,0.012,0.908,0.338,192,0,0,0,0,0,0,0,0,0,1709549184,0, 2024-03-04 16:16:24.433
222,-101837.2299,-34371.19387,-16889.55926,-30488.85232,-10817.55141,-30179.50418,-37931.73736,-75990.94671,0.012,0.908,0.338,192,0,0,0,0,0,0,0,0,0,1709549184,0, 2024-03-04 16:16:24.433
223,-101849.9481,-34384.56021,-16888.68754,-30502.88922,-9333.909671,-30169.5353,-37875.74624,-75961.28594,0.012,0.908,0.338,192,0,0,0,0,0,0,0,0,0,1709549184,0, 2024-03-04 16:16:24.433
224,-101827.0823,-34364.48835,-16882.76433,-30489.14289,-9326.757112,-30177.09019,-37916.69463,-75989.62796,0.012,0.908,0.338,192,0,0,0,0,0,0,0,0,0,1709549184,0, 2024-03-04 16:16:24.433
225,-101805.4011,-34346.38343,-16888.59813,-30479.93397,-10759.32512,-30205.29809,-37998.63613,-76049.46358,0.012,0.908,0.338,192,0,0,0,0,0,0,0,0,0,1709549184,0, 2024-03-04 16:16:24.433
226,-101813.3583,-34354.3183,-16896.82357,-30487.48886,-11683.70386,-30210.66251,-37998.94905,-76064.14867,0.012,0.908,0.338,192,0,0,0,0,0,0,0,0,0,1709549184,0, 2024-03-04 16:16:24.433
227,-101848.6517,-34385.7225,-16906.99362,-30509.21476,-10815.96444,-30190.54594,-37918.1922,-75971.38893,0.014,0.904,0.342,192,0,112,28,64,10,176,0,0,0,1709549184,0, 2024-03-04 16:16:24.433
228,-101856.8101,-34395.24435,-16897.60588,-30508.72302,-9337.150674,-30163.81325,-37866.78319,-75854.3105,0.014,0.904,0.342,192,0,0,0,0,0,0,0,0,0,1709549184,0, 2024-03-04 16:16:24.433
229,-101830.9715,-34373.92078,-16887.94993,-30490.81927,-9325.907746,-30168.73064,-37921.65672,-75910.70395,0.014,0.904,0.342,192,0,0,0,0,0,0,0,0,0,1709549184,0, 2024-03-04 16:16:24.433
230,-101805.2446,-34349.89266,-16880.75267,-30466.67939,-10739.14149,-30180.33119,-37992.98114,-75947.62903,0.014,0.904,0.342,192,0,0,0,0,0,0,0,0,0,1709549184,0, 2024-03-04 16:16:24.433
231,-101820.8461,-34362.02966,-16892.62144,-30474.34604,-11676.79717,-30186.50027,-37990.32128,-75954.44631,0.014,0.904,0.342,192,0,0,0,0,0,0,0,0,0,1709549184,0, 2024-03-04 16:16:24.433
232,-101857.8383,-34393.90324,-16912.04511,-30507.60543,-10830.26955,-30183.37103,-37936.34181,-75974.58523,0.014,0.904,0.342,192,0,0,0,0,0,0,0,0,0,1709549184,0, 2024-03-04 16:16:24.433
233,-101865.4378,-34405.61556,-16913.90031,-30524.59276,-9358.697755,-30182.05228,-37889.47021,-75991.25963,0.014,0.904,0.342,192,0,0,0,0,0,0,0,0,0,1709549184,0, 2024-03-04 16:16:24.433
234,-101834.1007,-34379.91105,-16895.66128,-30500.56463,-9348.751229,-30181.60524,-37935.26893,-75961.97885,0.014,0.904,0.342,192,0,0,0,0,0,0,0,0,0,1709549184,0, 2024-03-04 16:16:24.433
235,-101799.1426,-34348.19393,-16878.02576,-30466.45587,-10764.08604,-30184.3098,-37998.77024,-75933.1451,0.014,0.904,0.342,192,0,0,0,0,0,0,0,0,0,1709549184,0, 2024-03-04 16:16:24.433
236,-101801.8024,-34346.96458,-16877.93635,-30466.34411,-11673.17619,-30188.19901,-37991.05888,-75978.85442,0.014,0.904,0.342,192,0,0,0,0,0,0,0,0,0,1709549184,0, 2024-03-04 16:16:24.433
237,-101829.3845,-34369.51749,-16891.12388,-30491.89216,-10788.02476,-30182.14168,-37919.30979,-76002.05553,0.02,0.904,0.342,192,0,160,28,64,10,176,0,0,0,1709549184,0, 2024-03-04 16:16:24.433
238,-101833.8548,-34375.46305,-16891.88384,-30502.46453,-9314.03897,-30176.10671,-37894.23113,-75998.79217,0.02,0.904,0.342,192,0,0,0,0,0,0,0,0,0,1709549184,0, 2024-03-04 16:16:24.433
239,-101809.0891,-34354.00538,-16860.83726,-30480.11279,-9315.983572,-30177.80544,-37931.6703,-75948.32193,0.02,0.904,0.342,192,0,0,0,0,0,0,0,0,0,1709549184,0, 2024-03-04 16:16:24.433
240,-101776.8355,-34322.40001,-16848.56616,-30445.91462,-10740.08027,-30179.1242,-38004.49228,-75920.51636,0.02,0.904,0.342,192,0,0,0,0,0,0,0,0,0,1709549184,0, 2024-03-04 16:16:24.433
241,-101788.0338,-34327.22799,-16856.34456,-30448.93211,-11655.47361,-30185.6062,-37998.99375,-75990.34321,0.02,0.904,0.342,192,0,0,0,0,0,0,0,0,0,1709549184,0, 2024-03-04 16:16:24.433
242,-101828.0434,-34359.52626,-16875.18708,-30483.51025,-10773.07144,-30187.39434,-37917.29813,-76034.82318,0.02,0.904,0.342,192,0,0,0,0,0,0,0,0,0,1709549184,0, 2024-03-04 16:16:24.433
243,-101847.8694,-34379.64283,-16886.11709,-30502.0622,-9304.003036,-30182.54401,-37874.91922,-75981.31311,0.02,0.904,0.342,192,0,0,0,0,0,0,0,0,0,1709549184,0, 2024-03-04 16:16:24.433
244,-101826.3894,-34363.88485,-16868.07923,-30483.35379,-9318.308153,-30184.33215,-37921.92494,-75951.92056,0.02,0.904,0.342,192,0,0,0,0,0,0,0,0,0,1709549184,0, 2024-03-04 16:16:24.433
245,-101800.0143,-34337.86742,-16863.00538,-30456.46464,-10759.50393,-30190.6577,-38001.78772,-75964.81752,0.02,0.904,0.342,192,0,0,0,0,0,0,0,0,0,1709549184,0, 2024-03-04 16:16:24.433
246,-101809.8267,-34343.58947,-16869.6662,-30456.26348,-11665.95658,-30187.64021,-37986.76735,-75971.32188,0.02,0.904,0.342,192,0,0,0,0,0,0,0,0,0,1709549184,0, 2024-03-04 16:16:24.433
247,-101844.606,-34372.62438,-16885.6477,-30482.59383,-10769.11518,-30175.72673,-37924.98713,-75964.01286,0.01,0.908,0.34,192,0,80,28,96,10,160,0,0,0,1709549184,0, 2024-03-04 16:16:24.433
248,-101853.8149,-34381.878,-16886.80999,-30494.44026,-9305.433548,-30166.78603,-37867.85607,-75977.64742,0.01,0.908,0.34,192,0,0,0,0,0,0,0,0,0,1709549184,0, 2024-03-04 16:16:24.433
249,-101836.8723,-34368.75753,-16881.8032,-30482.28091,-9339.229386,-30176.95608,-37912.73837,-75998.4569,0.01,0.908,0.34,192,0,0,0,0,0,0,0,0,0,1709549184,0, 2024-03-04 16:16:24.433
250,-101821.0696,-34354.65358,-16886.16179,-30469.42865,-10786.16956,-30196.4021,-37999.73136,-76020.54042,0.01,0.908,0.34,192,0,0,0,0,0,0,0,0,0,1709549184,0, 2024-03-04 16:16:24.433
251,-101833.8772,-34362.54375,-16897.73999,-30477.27412,-11687.61542,-30198.83844,-38000.73719,-76008.26931,0.01,0.908,0.34,192,0,0,0,0,0,0,0,0,0,1709549184,0, 2024-03-04 16:16:24.433
252,-101861.7722,-34386.50482,-16903.95378,-30498.10594,-10760.57682,-30179.28066,-37912.93954,-75952.38995,0.01,0.908,0.34,192,0,0,0,0,0,0,0,0,0,1709549184,0, 2024-03-04 16:16:24.433
253,-101876.189,-34404.74384,-16912.98388,-30516.32261,-9289.675568,-30175.57027,-37869.19717,-75930.19467,0.01,0.908,0.34,192,0,0,0,0,0,0,0,0,0,1709549184,0, 2024-03-04 16:16:24.433
254,-101861.3251,-34394.48439,-16913.29681,-30509.43828,-9352.238101,-30190.0989,-37937.07942,-75941.25878,0.01,0.908,0.34,192,0,0,0,0,0,0,0,0,0,1709549184,0, 2024-03-04 16:16:24.433
255,-101832.8714,-34365.27066,-16889.58161,-30481.31978,-10804.18507,-30196.20093,-38011.7566,-75951.7641,0.01,0.908,0.34,192,0,0,0,0,0,0,0,0,0,1709549184,0, 2024-03-04 16:16:24.433
0,-101839.9569,-34365.94121,-16900.01987,-30481.27508,-11669.01877,-30191.75293,-37996.66917,-75949.52893,0.01,0.908,0.34,192,0,0,0,0,0,0,0,0,0,1709549184,0, 2024-03-04 16:16:24.433
1,-101872.4786,-34394.81966,-16912.64861,-30512.96985,-10753.84894,-30186.8132,-37922.19316,-75977.46861,0.01,0.908,0.336,192,0,80,28,96,10,128,0,0,0,1709549184,0, 2024-03-04 16:16:24.433
2,-101882.1793,-34407.15783,-16911.41926,-30527.29732,-9289.764975,-30179.54888,-37864.54801,-75955.29568,0.01,0.908,0.336,192,0,0,0,0,0,0,0,0,0,1709549184,0, 2024-03-04 16:16:24.433
3,-101858.7547,-34387.17537,-16905.65251,-30513.84157,-9345.733743,-30190.41183,-37922.97547,-75970.62897,0.01,0.908,0.336,192,0,0,0,0,0,0,0,0,0,1709549184,0, 2024-03-04 16:16:24.433
4,-101825.4729,-34354.38536,-16894.18607,-30483.73377,-10796.13844,-30196.58091,-38020.40673,-75969.91372,0.01,0.908,0.336,192,0,0,0,0,0,0,0,0,0,1709549184,0, 2024-03-04 16:16:24.433
5,-101825.7635,-34348.26098,-16887.05586,-30472.5579,-11669.08582,-30185.49445,-38000.8713,-75914.05671,0.01,0.908,0.336,192,0,0,0,0,0,0,0,0,0,1709549184,0, 2024-03-04 16:16:24.433
6,-101848.1823,-34370.32215,-16889.11222,-30493.59089,-10738.26977,-30177.67133,-37919.66741,-75952.54641,0.01,0.908,0.336,192,0,0,0,0,0,0,0,0,0,1709549184,0, 2024-03-04 16:16:24.433
7,-101849.8587,-34377.80999,-16885.02185,-30506.73372,-9264.84278,-30178.81127,-37874.82981,-75993.85244,0.01,0.908,0.336,192,0,0,0,0,0,0,0,0,0,1709549184,0, 2024-03-04 16:16:24.433
8,-101823.9083,-34358.56513,-16877.55637,-30492.36154,-9336.927156,-30194.36809,-37926.4847,-76041.28284,0.01,0.908,0.336,192,0,0,0,0,0,0,0,0,0,1709549184,0, 2024-03-04 16:16:24.433
9,-101799.7237,-34337.15216,-16868.90624,-30471.41796,-10795.37848,-30212.83063,-38007.15214,-76081.80655,0.01,0.908,0.336,192,0,0,0,0,0,0,0,0,0,1709549184,0, 2024-03-04 16:16:24.433
10,-101807.0327,-34338.26975,-16866.31344,-30460.64442,-11641.03438,-30194.43514,-37989.42721,-75973.37824,0.01,0.908,0.336,192,0,0,0,0,0,0,0,0,0,1709549184,0, 2024-03-04 16:16:24.433
11,-101836.4476,-34361.20264,-16873.80128,-30479.30813,-10700.07064,-30173.80448,-37910.05616,-75927.17718,0.014,0.906,0.338,192,0,112,28,80,10,144,0,0,0,1709549184,0, 2024-03-04 16:16:24.433
12,-101850.0151,-34376.91592,-16889.98394,-30498.88825,-9248.660117,-30173.75978,-37866.42556,-75962.76116,0.014,0.906,0.338,192,0,0,0,0,0,0,0,0,0,1709549184,0, 2024-03-04 16:16:24.433
13,-101825.3388,-34352.35135,-16865.66524,-30479.30813,-9337.418894,-30180.55471,-37927.35641,-76015.62303,0.014,0.906,0.338,192,0,0,0,0,0,0,0,0,0,1709549184,0, 2024-03-04 16:16:24.433
14,-101810.6761,-34334.29114,-16863.34066,-30459.66094,-10789.8129,-30193.47402,-37998.16674,-76024.67549,0.014,0.906,0.338,192,0,0,0,0,0,0,0,0,0,1709549184,0, 2024-03-04 16:16:24.433
15,-101822.9472,-34339.11912,-16874.31537,-30460.10798,-11635.26763,-30187.05907,-37979.7042,-75970.74073,0.014,0.906,0.338,192,0,0,0,0,0,0,0,0,0,1709549184,0, 2024-03-04 16:16:24.433
16,-101861.5263,-34371.37268,-16893.85079,-30494.23909,-10703.35635,-30186.56733,-37913.72185,-76033.97382,0.014,0.906,0.338,192,0,0,0,0,0,0,0,0,0,1709549184,0, 2024-03-04 16:16:24.433
17,-101869.7741,-34381.8333,-16893.53787,-30505.3032,-9282.411251,-30178.476,-37881.98237,-76058.94072,0.014,0.906,0.338,192,0,0,0,0,0,0,0,0,0,1709549184,0, 2024-03-04 16:16:24.433
18,-101841.3427,-34356.50877,-16878.42809,-30476.04477,-9367.034956,-30167.41188,-37930.53036,-75967.52208,0.014,0.906,0.338,192,0,0,0,0,0,0,0,0,0,1709549184,0, 2024-03-04 16:16:24.433
19,-101816.3087,-34331.69834,-16870.78379,-30449.69206,-10805.41442,-30172.41867,-38003.06177,-75932.94393,0.014,0.906,0.338,192,0,0,0,0,0,0,0,0,0,1709549184,0, 2024-03-04 16:16:24.433
20,-101828.2445,-34339.20852,-16882.11612,-30457.1352,-11667.00711,-30175.05618,-37996.22214,-75941.97404,0.014,0.906,0.338,192,0,0,0,0,0,0,0,0,0,1709549184,0, 2024-03-04 16:16:24.433
21,-101866.6672,-34373.56316,-16899.90811,-30495.5802,-10719.47196,-30176.15142,-37916.78404,-75985.26937,0.014,0.906,0.338,192,0,0,0,0,0,0,0,0,0,1709549184,0, 2024-03-04 16:16:24.433
22,-101877.3513,-34387.533,-16902.94795,-30515.18268,-9277.896199,-30176.46434,-37871.07472,-75982.34129,0.012,0.91,0.34,192,0,96,28,112,10,160,0,0,0,1709549184,0, 2024-03-04 16:16:24.433
23,-101860.744,-34375.12778,-16902.3221,-30508.92419,-9383.128212,-30194.85983,-37926.84232,-75997.65223,0.012,0.91,0.34,192,0,0,0,0,0,0,0,0,0,1709549184,0, 2024-03-04 16:16:24.433
24,-101840.0686,-34354.60888,-16901.80801,-30494.10498,-10848.03919,-30215.51284,-38006.03455,-76029.81639,0.012,0.91,0.34,192,0,0,0,0,0,0,0,0,0,1709549184,0, 2024-03-04 16:16:24.433
25,-101852.3844,-34362.6108,-16907.44065,-30499.04472,-11699.32773,-30215.91517,-37989.3378,-75991.48315,0.012,0.91,0.34,192,0,0,0,0,0,0,0,0,0,1709549184,0, 2024-03-04 16:16:24.433
26,-101889.6001,-34394.50674,-16921.5446,-30527.65495,-10746.36111,-30205.52161,-37918.92981,-75947.65138,0.012,0.91,0.34,192,0,0,0,0,0,0,0,0,0,1709549184,0, 2024-03-04 16:16:24.433
27,-101896.7303,-34403.31333,-16920.33761,-30544.57522,-9301.343179,-30209.50022,-37874.15926,-75988.55507,0.012,0.91,0.34,192,0,0,0,0,0,0,0,0,0,1709549184,0, 2024-03-04 16:16:24.433
28,-101868.433,-34378.88287,-16906.94891,-30524.01161,-9390.727805,-30215.57989,-37918.39336,-75989.22562,0.012,0.91,0.34,192,0,0,0,0,0,0,0,0,0,1709549184,0, 2024-03-04 16:16:24.433
29,-101842.9743,-34354.2289,-16905.89838,-30499.24588,-10826.82739,-30226.19697,-37993.49523,-75977.80388,0.012,0.91,0.34,192,0,0,0,0,0,0,0,0,0,1709549184,0, 2024-03-04 16:16:24.433
30,-101853.2114,-34357.71577,-16900.91394,-30503.73858,-11673.9585,-30230.01912,-37988.53314,-76032.65506,0.012,0.91,0.34,192,0,0,0,0,0,0,0,0,0,1709549184,0, 2024-03-04 16:16:24.433
31,-101883.2969,-34382.95089,-16907.50771,-30525.10685,-10719.58372,-30215.24462,-37908.71506,-76048.45775,0.012,0.91,0.34,192,0,0,0,0,0,0,0,0,0,1709549184,0, 2024-03-04 16:16:24.433
32,-101877.4854,-34380.64866,-16894.81192,-30517.82018,-9269.536647,-30189.42835,-37878.67431,-75981.80485,0.014,0.908,0.336,192,0,112,28,96,10,128,0,0,0,1709549184,0, 2024-03-04 16:16:24.433
33,-101841.8344,-34349.40092,-16876.52819,-30484.44903,-9359.547121,-30179.99592,-37934.08429,-75892.1967,0.014,0.908,0.336,192,0,0,0,0,0,0,0,0,0,1709549184,0, 2024-03-04 16:16:24.433
34,-101813.5818,-34322.62353,-16869.59915,-30458.81158,-10811.00235,-30191.3059,-38003.32999,-75929.05473,0.014,0.908,0.336,192,0,0,0,0,0,0,0,0,0,1709549184,0, 2024-03-04 16:16:24.433
35,-101824.4447,-34326.31157,-16875.70117,-30461.22556,-11651.18207,-30192.22232,-37994.21048,-75978.36268,0.014,0.908,0.336,192,0,0,0,0,0,0,0,0,0,1709549184,0, 2024-03-04 16:16:24.433
36,-101852.0715,-34346.27168,-16879.63508,-30479.50929,-10683.88798,-30173.82683,-37900.55667,-75975.68047,0.014,0.908,0.336,192,0,0,0,0,0,0,0,0,0,1709549184,0, 2024-03-04 16:16:24.433
37,-101856.7654,-34350.11618,-16874.60594,-30483.73377,-9240.658193,-30159.32055,-37866.02323,-75968.57261,0.014,0.908,0.336,192,0,0,0,0,0,0,0,0,0,1709549184,0, 2024-03-04 16:16:24.433
38,-101839.4204,-34334.00057,-16873.53306,-30470.92622,-9360.485895,-30170.51878,-37934.12899,-75989.73971,0.014,0.908,0.336,192,0,0,0,0,0,0,0,0,0,1709549184,0, 2024-03-04 16:16:24.433
39,-101816.5322,-34308.58663,-16866.93929,-30446.51812,-10820.03246,-30177.20195,-38007.88975,-75972.77474,0.014,0.908,0.336,192,0,0,0,0,0,0,0,0,0,1709549184,0, 2024-03-04 16:16:24.433
40,-101829.0939,-34312.78876,-16876.84111,-30448.14979,-11650.62328,-30172.23986,-37997.04915,-75975.94869,0.014,0.908,0.336,192,0,0,0,0,0,0,0,0,0,1709549184,0, 2024-03-04 16:16:24.433
41,-101860.0064,-34337.08511,-16888.70989,-30474.05547,-10688.78301,-30158.80646,-37915.42058,-75983.68239,0.014,0.908,0.336,192,0,0,0,0,0,0,0,0,0,1709549184,0, 2024-03-04 16:16:24.433
42,-101862.0627,-34341.46605,-16877.66813,-30479.66575,-9233.863262,-30144.72486,-37868.14664,-75959.60956,0.016,0.91,0.332,192,0,128,28,112,10,96,0,0,0,1709549184,0, 2024-03-04 16:16:24.433
43,-101839.331,-34322.13179,-16868.57097,-30460.26444,-9342.112761,-30147.60824,-37919.17567,-75962.49294,0.016,0.91,0.332,192,0,0,0,0,0,0,0,0,0,1709549184,0, 2024-03-04 16:16:24.433
44,-101820.645,-34303.6469,-16871.96843,-30441.60073,-10826.22389,-30159.96875,-37996.62447,-75956.30151,0.016,0.91,0.332,192,0,0,0,0,0,0,0,0,0,1709549184,0, 2024-03-04 16:16:24.433
45,-101827.1493,-34303.44573,-16874.74005,-30440.03611,-11649.43864,-30152.81619,-37982.297,-75950.33359,0.016,0.91,0.332,192,0,0,0,0,0,0,0,0,0,1709549184,0, 2024-03-04 16:16:24.433
46,-101863.538,-34336.52631,-16894.0296,-30481.38684,-10690.97348,-30162.4945,-37906.0552,-76045.37321,0.016,0.91,0.332,192,0,0,0,0,0,0,0,0,0,1709549184,0, 2024-03-04 16:16:24.433
47,-101876.6808,-34351.81491,-16898.32114,-30504.11856,-9250.381202,-30165.31082,-37864.54801,-76041.93104,0.016,0.91,0.332,192,0,0,0,0,0,0,0,0,0,1709549184,0, 2024-03-04 16:16:24.433
48,-101844.2707,-34320.81304,-16875.54471,-30468.82516,-9355.389697,-30143.8755,-37916.35936,-75877.64572,0.016,0.91,0.332,192,0,0,0,0,0,0,0,0,0,1709549184,0, 2024-03-04 16:16:24.433
49,-101821.2708,-34295.75673,-16872.54958,-30447.56865,-10819.58542,-30156.23601,-37990.43304,-75879.18799,0.016,0.91,0.332,192,0,0,0,0,0,0,0,0,0,1709549184,0, 2024-03-04 16:16:24.433
50,-101844.0472,-34311.26884,-16892.28617,-30465.22653,-11651.33854,-30170.98816,-37991.86355,-75935.15675,0.016,0.91,0.332,192,0,0,0,0,0,0,0,0,0,1709549184,0, 2024-03-04 16:16:24.433
51,-101883.6545,-34348.01511,-16911.82159,-30502.7104,-10693.0969,-30171.03287,-37919.19803,-75926.03724,0.016,0.91,0.332,192,0,0,0,0,0,0,0,0,0,1709549184,0, 2024-03-04 16:16:24.433
52,-101890.5836,-34360.59914,-16909.80994,-30521.55292,-9256.729097,-30174.6315,-37883.88227,-75916.82832,0.008,0.908,0.33,192,0,64,28,96,10,80,0,0,0,1709549184,0, 2024-03-04 16:16:24.433
53,-101864.8567,-34338.02388,-16903.41734,-30507.7619,-9383.195267,-30188.91426,-37940.6557,-75933.90506,0.008,0.908,0.33,192,0,0,0,0,0,0,0,0,0,1709549184,0, 2024-03-04 16:16:24.433
54,-101847.7353,-34319.82956,-16909.89934,-30495.73666,-10854.43179,-30216.00458,-38027.55928,-75999.44037,0.008,0.908,0.33,192,0,0,0,0,0,0,0,0,0,1709549184,0, 2024-03-04 16:16:24.433
55,-101852.9209,-34319.33782,-16909.07233,-30491.40042,-11657.08293,-30210.66251,-37997.74206,-75997.8534,0.008,0.908,0.33,192,0,0,0,0,0,0,0,0,0,1709549184,0, 2024-03-04 16:16:24.433
56,-101878.3795,-34343.03067,-16909.4076,-30509.0583,-10674.00851,-30194.01046,-37911.50903,-75966.58331,0.008,0.908,0.33,192,0,0,0,0,0,0,0,0,0,1709549184,0, 2024-03-04 16:16:24.433
57,-101881.4864,-34349.75855,-16886.22885,-30517.23904,-9249.375373,-30189.54011,-37876.08151,-75988.80094,0.008,0.908,0.33,192,0,0,0,0,0,0,0,0,0,1709549184,0, 2024-03-04 16:16:24.433
58,-101851.848,-34320.83539,-16877.37756,-30490.95338,-9382.72588,-30188.31076,-37928.67517,-75968.46085,0.008,0.908,0.33,192,0,0,0,0,0,0,0,0,0,1709549184,0, 2024-03-04 16:16:24.433
59,-101825.8753,-34291.95694,-16869.08506,-30459.28096,-10836.12571,-30190.18831,-38015.51169,-75956.65913,0.008,0.908,0.33,192,0,0,0,0,0,0,0,0,0,1709549185,0, 2024-03-04 16:16:24.913
60,-101834.1454,-34292.42632,-16873.30954,-30461.96317,-11650.73504,-30191.66353,-37989.76248,-76020.33925,0.008,0.908,0.33,192,0,0,0,0,0,0,0,0,0,1709549185,0, 2024-03-04 16:16:24.913
61,-101867.1589,-34316.11917,-16885.02185,-30489.72404,-10658.78697,-30184.10864,-37908.35743,-76033.7056,0.008,0.908,0.33,192,0,0,0,0,0,0,0,0,0,1709549185,0, 2024-03-04 16:16:24.913
62,-101869.26,-34317.10265,-16874.56124,-30488.29353,-9225.88369,-30160.97458,-37879.25546,-75963.61053,0.012,0.906,0.332,192,0,96,28,80,10,96,0,0,0,1709549185,0, 2024-03-04 16:16:24.913
63,-101848.2047,-34296.76256,-16869.6215,-30468.19931,-9379.104898,-30161.86865,-37940.76746,-75945.05858,0.012,0.906,0.332,192,0,0,0,0,0,0,0,0,0,1709549185,0, 2024-03-04 16:16:24.913
64,-101826.8811,-34274.76844,-16866.40285,-30445.28877,-10846.54162,-30170.71994,-38003.4194,-75981.15664,0.012,0.906,0.332,192,0,0,0,0,0,0,0,0,0,1709549185,0, 2024-03-04 16:16:24.913
65,-101841.8344,-34283.75385,-16873.95774,-30449.46855,-11642.62136,-30168.08244,-37979.68185,-75998.34514,0.012,0.906,0.332,192,0,0,0,0,0,0,0,0,0,1709549185,0, 2024-03-04 16:16:24.913
66,-101873.2386,-34311.42531,-16884.37365,-30470.92622,-10625.43817,-30149.19521,-37895.50518,-75927.37835,0.012,0.906,0.332,192,0,0,0,0,0,0,0,0,0,1709549185,0, 2024-03-04 16:16:24.913
67,-101878.4466,-34318.57786,-16879.23275,-30477.58704,-9200.581515,-30137.12527,-37856.54609,-75924.09264,0.012,0.906,0.332,192,0,0,0,0,0,0,0,0,0,1709549185,0, 2024-03-04 16:16:24.913
68,-101855.849,-34300.80823,-16873.44365,-30460.15268,-9374.343976,-30144.27783,-37921.45555,-75953.14991,0.012,0.906,0.332,192,0,0,0,0,0,0,0,0,0,1709549185,0, 2024-03-04 16:16:24.913
69,-101829.4292,-34274.85785,-16855.74107,-30430.06723,-10859.63975,-30147.04944,-37993.27171,-75941.21408,0.012,0.906,0.332,192,0,0,0,0,0,0,0,0,0,1709549185,0, 2024-03-04 16:16:24.913
70,-101841.0744,-34283.73149,-16865.0841,-30433.4647,-11642.68841,-30143.40611,-37966.09199,-75944.20921,0.012,0.906,0.332,192,0,0,0,0,0,0,0,0,0,1709549185,0, 2024-03-04 16:16:24.913
71,-101875.4738,-34317.41557,-16882.36199,-30468.82516,-10635.94349,-30141.21564,-37892.68886,-75960.7048,0.012,0.906,0.332,192,0,0,0,0,0,0,0,0,0,1709549185,0, 2024-03-04 16:16:24.913
72,-101885.6885,-34334.06762,-16890.47568,-30492.92034,-9227.001277,-30148.61407,-37883.70346,-75986.52106,0.014,0.904,0.332,192,0,112,28,64,10,96,0,0,0,1709549185,0, 2024-03-04 16:16:24.913
73,-101857.6594,-34311.91704,-16880.97619,-30475.84361,-9400.003779,-30157.55476,-37927.31171,-75980.95548,0.014,0.904,0.332,192,0,0,0,0,0,0,0,0,0,1709549185,0, 2024-03-04 16:16:24.913
74,-101837.8781,-34291.42049,-16876.17056,-30455.21295,-10857.24811,-30169.5353,-37991.50592,-75941.88463,0.014,0.904,0.332,192,0,0,0,0,0,0,0,0,0,1709549185,0, 2024-03-04 16:16:24.913
75,-101850.1716,-34297.61193,-16881.8479,-30460.46561,-11638.86626,-30170.11644,-37983.79457,-75933.39097,0.014,0.904,0.332,192,0,0,0,0,0,0,0,0,0,1709549185,0, 2024-03-04 16:16:24.913
76,-101885.6885,-34329.3067,-16897.38237,-30494.73083,-10641.01733,-30168.32831,-37905.78698,-75951.92056,0.014,0.904,0.332,192,0,0,0,0,0,0,0,0,0,1709549185,0, 2024-03-04 16:16:24.913
77,-101896.0597,-34342.24836,-16903.55145,-30512.52282,-9237.104265,-30165.55669,-37864.61507,-75929.14414,0.014,0.904,0.332,192,0,0,0,0,0,0,0,0,0,1709549185,0, 2024-03-04 16:16:24.913
78,-101872.121,-34321.70711,-16898.03057,-30501.25754,-9416.298201,-30180.66647,-37930.88799,-75992.7125,0.014,0.904,0.332,192,0,0,0,0,0,0,0,0,0,1709549185,0, 2024-03-04 16:16:24.913
79,-101849.3446,-34298.99774,-16898.52231,-30485.67837,-10893.83792,-30201.61005,-38006.43689,-76064.52865,0.014,0.904,0.332,192,0,0,0,0,0,0,0,0,0,1709549185,0, 2024-03-04 16:16:24.913
80,-101864.3873,-34308.7431,-16911.15104,-30495.20022,-11674.85257,-30206.32627,-37995.66334,-76057.30904,0.014,0.904,0.332,192,0,0,0,0,0,0,0,0,0,1709549185,0, 2024-03-04 16:16:24.913
81,-101888.3931,-34327.51856,-16913.07329,-30511.44993,-10669.06877,-30186.52263,-37908.02215,-76007.26348,0.014,0.904,0.332,192,0,0,0,0,0,0,0,0,0,1709549185,0, 2024-03-04 16:16:24.913
82,-101886.1579,-34329.03848,-16898.05292,-30510.64527,-9248.190731,-30167.97068,-37867.85607,-75925.52315,0.016,0.902,0.332,192,0,128,28,48,10,96,0,0,0,1709549185,0, 2024-03-04 16:16:24.913
83,-101851.5798,-34299.33301,-16877.66813,-30482.12445,-9427.317611,-30168.17184,-37938.7558,-75908.58053,0.016,0.902,0.332,192,0,0,0,0,0,0,0,0,0,1709549185,0, 2024-03-04 16:16:24.913
84,-101815.437,-34262.11736,-16852.20949,-30445.80286,-10888.67466,-30168.19419,-37989.20369,-75924.83025,0.016,0.902,0.332,192,0,0,0,0,0,0,0,0,0,1709549185,0, 2024-03-04 16:16:24.913
85,-101827.1493,-34264.57605,-16858.37857,-30447.90392,-11648.09753,-30166.00372,-37976.82082,-75969.19846,0.016,0.902,0.332,192,0,0,0,0,0,0,0,0,0,1709549185,0, 2024-03-04 16:16:24.913
86,-101865.8625,-34299.73534,-16877.17639,-30482.54913,-10644.43715,-30165.95902,-37899.99788,-76009.58806,0.016,0.902,0.332,192,0,0,0,0,0,0,0,0,0,1709549185,0, 2024-03-04 16:16:24.913
87,-101874.088,-34311.9841,-16884.08308,-30496.85425,-9239.250033,-30163.098,-37868.19135,-76015.176,0.016,0.902,0.332,192,0,0,0,0,0,0,0,0,0,1709549185,0, 2024-03-04 16:16:24.913
88,-101843.6449,-34286.81604,-16879.14334,-30474.30134,-9420.947363,-30163.85796,-37924.42833,-76001.11675,0.016,0.902,0.332,192,0,0,0,0,0,0,0,0,0,1709549185,0, 2024-03-04 16:16:24.913
89,-101817.1357,-34259.23398,-16858.15505,-30441.66779,-10907.85246,-30160.97458,-37998.18909,-75966.56096,0.016,0.902,0.332,192,0,0,0,0,0,0,0,0,0,1709549185,0, 2024-03-04 16:16:24.913
90,-101825.6964,-34264.5537,-16865.93346,-30442.20423,-11655.47361,-30152.8609,-37987.3932,-75980.21787,0.016,0.902,0.332,192,0,0,0,0,0,0,0,0,0,1709549185,0, 2024-03-04 16:16:24.914
91,-101862.8674,-34300.07062,-16885.42418,-30475.97772,-10624.38764,-30149.10581,-37904.7588,-76007.08467,0.016,0.902,0.332,192,0,0,0,0,0,0,0,0,0,1709549185,0, 2024-03-04 16:16:24.914
92,-101866.6001,-34307.37964,-16884.86539,-30481.81152,-9236.277251,-30135.91828,-37888.71025,-76002.68137,0.024,0.9,0.334,192,0,192,28,32,10,112,0,0,0,1709549185,0, 2024-03-04 16:16:24.914
93,-101841.4991,-34286.74898,-16876.14821,-30460.21974,-9451.569253,-30136.94646,-37949.32818,-75988.64448,0.024,0.9,0.334,192,0,0,0,0,0,0,0,0,0,1709549185,0, 2024-03-04 16:16:24.914
94,-101819.3486,-34267.37002,-16871.47669,-30437.9574,-10937.17795,-30145.97656,-38003.86643,-75961.28594,0.024,0.9,0.334,192,0,0,0,0,0,0,0,0,0,1709549185,0, 2024-03-04 16:16:24.914
95,-101838.504,-34284.08912,-16881.89261,-30453.60362,-11687.88364,-30153.71026,-37981.78291,-75964.63871,0.024,0.9,0.334,192,0,0,0,0,0,0,0,0,0,1709549185,0, 2024-03-04 16:16:24.914
96,-101867.5836,-34308.63134,-16885.89357,-30477.96702,-10637.57517,-30139.11458,-37897.47213,-75930.52994,0.024,0.9,0.334,192,0,0,0,0,0,0,0,0,0,1709549185,0, 2024-03-04 16:16:24.914
97,-101874.6691,-34317.37087,-16886.09474,-30491.95921,-9223.156777,-30136.47707,-37866.87259,-75933.99446,0.024,0.9,0.334,192,0,0,0,0,0,0,0,0,0,1709549185,0, 2024-03-04 16:16:24.914
98,-101844.7401,-34289.14062,-16868.3251,-30470.30037,-9422.534337,-30141.52856,-37917.45459,-75936.3414,0.024,0.9,0.334,192,0,0,0,0,0,0,0,0,0,1709549185,0, 2024-03-04 16:16:24.914
99,-101838.7722,-34280.55755,-16882.25024,-30464.06424,-10927.79022,-30168.52947,-38002.30181,-75965.8904,0.024,0.9,0.334,192,0,0,0,0,0,0,0,0,0,1709549185,0, 2024-03-04 16:16:24.914
100,-101856.3183,-34289.76647,-16897.73999,-30477.0506,-11692.55515,-30177.2243,-37991.75179,-76002.52491,0.024,0.9,0.334,192,0,0,0,0,0,0,0,0,0,1709549185,0, 2024-03-04 16:16:24.914
101,-101882.6487,-34312.96758,-16904.64668,-30499.37999,-10638.80451,-30161.28751,-37902.68009,-75975.25578,0.024,0.9,0.334,192,0,0,0,0,0,0,0,0,0,1709549185,0, 2024-03-04 16:16:24.914
102,-101888.9519,-34325.77513,-16900.53396,-30510.71233,-9237.148969,-30157.26419,-37861.03879,-75958.58138,0.024,0.906,0.334,192,0,192,28,80,10,112,0,0,0,1709549185,0, 2024-03-04 16:16:24.914
103,-101865.6837,-34308.51958,-16887.5923,-30495.31197,-9453.312689,-30169.87058,-37914.14653,-75947.49492,0.024,0.906,0.334,192,0,0,0,0,0,0,0,0,0,1709549185,0, 2024-03-04 16:16:24.914
104,-101848.607,-34291.97929,-16883.7031,-30472.73671,-10931.07592,-30180.08532,-37991.32711,-75890.83325,0.024,0.906,0.334,192,0,0,0,0,0,0,0,0,0,1709549185,0, 2024-03-04 16:16:24.914
105,-101860.744,-34297.45547,-16886.22885,-30478.14584,-11669.35404,-30186.36616,-37981.62645,-75952.9711,0.024,0.906,0.334,192,0,0,0,0,0,0,0,0,0,1709549185,0, 2024-03-04 16:16:24.914
106,-101893.4893,-34324.92576,-16902.2774,-30511.91932,-10621.54897,-30189.00367,-37905.00467,-76036.70073,0.024,0.906,0.334,192,0,0,0,0,0,0,0,0,0,1709549185,0, 2024-03-04 16:16:24.914
107,-101900.396,-34331.87715,-16918.97415,-30531.61121,-9211.869146,-30199.37488,-37888.46438,-76117.01055,0.024,0.906,0.334,192,0,0,0,0,0,0,0,0,0,1709549185,0, 2024-03-04 16:16:24.914
108,-101865.9966,-34299.98121,-16889.17928,-30502.59864,-9439.633422,-30198.19024,-37943.65083,-76076.19626,0.024,0.906,0.334,192,0,0,0,0,0,0,0,0,0,1709549185,0, 2024-03-04 16:16:24.914
109,-101827.6634,-34261.33505,-16862.24542,-30457.2246,-10922.15758,-30181.69465,-38007.50977,-75964.61635,0.024,0.906,0.334,192,0,0,0,0,0,0,0,0,0,1709549185,0, 2024-03-04 16:16:24.914
110,-101834.3913,-34261.9609,-16865.21821,-30452.21781,-11656.36768,-30166.49546,-37980.55357,-75939.73886,0.024,0.906,0.334,192,0,0,0,0,0,0,0,0,0,1709549185,0, 2024-03-04 16:16:24.914
111,-101871.3387,-34295.71203,-16881.22206,-30486.50539,-10602.57233,-30164.50616,-37899.81906,-75972.8865,0.024,0.906,0.334,192,0,0,0,0,0,0,0,0,0,1709549185,0, 2024-03-04 16:16:24.914
112,-101872.9033,-34299.1542,-16876.59524,-30488.65116,-9203.576649,-30148.25644,-37865.39738,-75939.67181,0.02,0.904,0.334,192,0,160,28,64,10,112,0,0,0,1709549185,0, 2024-03-04 16:16:24.914
113,-101842.3708,-34274.61198,-16859.18324,-30464.44422,-9450.809294,-30150.04458,-37929.50218,-75953.23932,0.02,0.904,0.334,192,0,0,0,0,0,0,0,0,0,1709549185,0, 2024-03-04 16:16:24.914
114,-101824.2883,-34254.51776,-16859.87614,-30445.33347,-10953.00298,-30162.09217,-37993.69639,-75984.64352,0.02,0.904,0.334,192,0,0,0,0,0,0,0,0,0,1709549185,0, 2024-03-04 16:16:24.914
115,-101841.3427,-34268.26409,-16872.10254,-30456.5317,-11665.93422,-30165.57904,-37989.60602,-76011.06328,0.02,0.904,0.334,192,0,0,0,0,0,0,0,0,0,1709549185,0, 2024-03-04 16:16:24.914
116,-101875.9655,-34299.08714,-16888.06169,-30485.96895,-10591.48587,-30152.99501,-37922.23786,-76001.31792,0.02,0.904,0.334,192,0,0,0,0,0,0,0,0,0,1709549185,0, 2024-03-04 16:16:24.914
117,-101882.6934,-34305.81502,-16883.97132,-30495.13316,-9196.982884,-30143.42846,-37862.40224,-76002.70373,0.02,0.904,0.334,192,0,0,0,0,0,0,0,0,0,1709549185,0, 2024-03-04 16:16:24.914
118,-101853.3903,-34278.43413,-16874.00244,-30470.18861,-9470.478829,-30143.07083,-37926.88703,-75977.3345,0.02,0.904,0.334,192,0,0,0,0,0,0,0,0,0,1709549185,0, 2024-03-04 16:16:24.914
119,-101833.4525,-34258.31756,-16875.12003,-30448.95446,-10971.1973,-30151.98918,-38000.89365,-75943.76218,0.02,0.904,0.334,192,0,0,0,0,0,0,0,0,0,1709549185,0, 2024-03-04 16:16:24.914
120,-101850.5069,-34269.00169,-16887.79347,-30458.02927,-11675.36666,-30151.72096,-37980.15123,-75943.94099,0.02,0.904,0.334,192,0,0,0,0,0,0,0,0,0,1709549185,0, 2024-03-04 16:16:24.914
121,-101883.1628,-34299.28831,-16900.53396,-30491.60159,-10603.04172,-30150.9163,-37900.15434,-76005.78827,0.02,0.904,0.334,192,0,0,0,0,0,0,0,0,0,1709549185,0, 2024-03-04 16:16:24.914
122,-101900.2395,-34321.21537,-16915.42022,-30522.06701,-9245.48617,-30168.41771,-37881.06595,-76076.6433,0.022,0.902,0.336,192,0,176,28,48,10,128,0,0,0,1709549185,0, 2024-03-04 16:16:24.914
123,-101877.6643,-34301.92581,-16916.85074,-30504.58795,-9502.285362,-30174.60915,-37944.12022,-76023.35674,0.022,0.902,0.336,192,0,0,0,0,0,0,0,0,0,1709549185,0, 2024-03-04 16:16:24.914
124,-101852.4068,-34276.64599,-16910.6593,-30476.26829,-10990.9786,-30175.23499,-38001.72067,-75973.15472,0.022,0.902,0.336,192,0,0,0,0,0,0,0,0,0,1709549185,0, 2024-03-04 16:16:24.914
125,-101864.8344,-34281.921,-16904.15494,-30482.81735,-11697.98663,-30175.43616,-37986.92381,-76015.84655,0.022,0.902,0.336,192,0,0,0,0,0,0,0,0,0,1709549185,0, 2024-03-04 16:16:24.914
126,-101896.6409,-34311.69353,-16914.72732,-30509.88531,-10612.78708,-30166.07078,-37899.0144,-75982.11777,0.022,0.902,0.336,192,0,0,0,0,0,0,0,0,0,1709549185,0, 2024-03-04 16:16:24.914
127,-101904.7769,-34323.04821,-16916.33665,-30521.10589,-9221.65921,-30160.84047,-37879.1884,-75935.96142,0.022,0.902,0.336,192,0,0,0,0,0,0,0,0,0,1709549185,0, 2024-03-04 16:16:24.914
128,-101870.8023,-34294.058,-16899.95282,-30494.99905,-9489.656626,-30161.68984,-37937.32529,-75956.8603,0.022,0.902,0.336,192,0,0,0,0,0,0,0,0,0,1709549185,0, 2024-03-04 16:16:24.914
129,-101848.5399,-34273.09206,-16892.84496,-30475.57538,-10997.84058,-30177.76074,-37997.31737,-75983.8165,0.022,0.902,0.336,192,0,0,0,0,0,0,0,0,0,1709549185,0, 2024-03-04 16:16:24.914
130,-101862.6439,-34283.30681,-16903.5291,-30485.92424,-11698.65718,-30183.25927,-37985.80623,-75985.62699,0.022,0.902,0.336,192,0,0,0,0,0,0,0,0,0,1709549185,0, 2024-03-04 16:16:24.914
131,-101889.3319,-34308.1843,-16908.44648,-30510.31,-10608.60731,-30175.57027,-37904.57999,-75990.32086,0.022,0.902,0.336,192,0,0,0,0,0,0,0,0,0,1709549185,0, 2024-03-04 16:16:24.914
132,-101879.4077,-34299.93651,-16885.33478,-30501.3693,-9202.995503,-30157.68887,-37872.50523,-75960.32482,0.026,0.9,0.33,192,0,208,28,32,10,80,0,0,0,1709549185,0, 2024-03-04 16:16:24.914
133,-101844.3602,-34269.7393,-16869.6662,-30473.49667,-9465.807315,-30159.40996,-37935.78302,-75961.33065,0.026,0.9,0.33,192,0,0,0,0,0,0,0,0,0,1709549185,0, 2024-03-04 16:16:24.914
134,-101816.8005,-34244.30302,-16863.76534,-30449.42384,-10973.96892,-30170.51878,-38004.20171,-75986.61047,0.026,0.9,0.33,192,0,0,0,0,0,0,0,0,0,1709549185,0, 2024-03-04 16:16:24.914
135,-101833.229,-34254.16014,-16872.79545,-30460.53266,-11670.78455,-30176.48669,-37980.84414,-76037.77361,0.026,0.9,0.33,192,0,0,0,0,0,0,0,0,0,1709549185,0, 2024-03-04 16:16:24.914
