Sample Index, EXG Channel 0, EXG Channel 1, EXG Channel 2, EXG Channel 3, EXG Channel 4, EXG Channel 5, EXG Channel 6, EXG Channel 7, Accel Channel 0, Accel Channel 1, Accel Channel 2, Other, Other, Other, Other, Other, Other, Other, Analog Channel 0, Analog Channel 1, Analog Channel 2, Timestamp, Other, Timestamp (Formatted)
0,-64296.89399,-49225.82796,-51956.54058,-32904.15947,-42759.89297,-58188.20693,-29898.90038,-53627.86992,0.028,0.888,0.388,192,0,224,27,192,12,32,0,0,0,1.71E+09,0, 2024-03-15 14:25:13.064
1,-64269.80368,-49204.48204,-51935.77581,-32881.33834,-42744.96201,-58180.00384,-29917.67584,-53616.15761,0.028,0.888,0.388,192,0,0,0,0,0,0,0,0,0,1.71E+09,0, 2024-03-15 14:25:13.064
2,-64173.9594,-49115.76797,-51838.52337,-32779.34733,-42654.66096,-58113.55211,-29880.95193,-53538.59705,0.028,0.888,0.388,192,0,0,0,0,0,0,0,0,0,1.71E+09,0, 2024-03-15 14:25:13.064
3,-64143.44926,-49080.72043,-51797.61968,-32733.28039,-42612.77379,-58070.92733,-29827.28539,-53488.88677,0.028,0.888,0.388,192,0,0,0,0,0,0,0,0,0,1.71E+09,0, 2024-03-15 14:25:13.064
4,-64227.42477,-49156.64931,-51875.04612,-32813.72432,-42678.89025,-58113.21683,-29842.46222,-53561.82051,0.028,0.888,0.388,192,0,0,0,0,0,0,0,0,0,1.71E+09,0, 2024-03-15 14:25:13.064
5,-64314.2613,-49243.15056,-51967.6494,-32911.37909,-42768.14077,-58185.18945,-29906.43292,-53661.35283,0.028,0.888,0.388,192,0,0,0,0,0,0,0,0,0,1.71E+09,0, 2024-03-15 14:25:13.064
6,-64285.27108,-49224.77743,-51946.43759,-32896.60459,-42751.80164,-58187.58108,-29919.70985,-53667.72308,0.028,0.888,0.388,192,0,0,0,0,0,0,0,0,0,1.71E+09,0, 2024-03-15 14:25:13.064
7,-64173.4006,-49125.31216,-51835.28237,-32786.14226,-42651.19644,-58117.48601,-29873.57585,-53580.23835,0.028,0.888,0.388,192,0,0,0,0,0,0,0,0,0,1.71E+09,0, 2024-03-15 14:25:13.064
8,-64135.67086,-49086.77776,-51789.81892,-32737.16959,-42609.46573,-58075.91177,-29827.39715,-53507.30461,0.028,0.888,0.388,192,0,0,0,0,0,0,0,0,0,1.71E+09,0, 2024-03-15 14:25:13.064
9,-64224.38493,-49166.03704,-51872.2745,-32820.38514,-42684.43348,-58121.82225,-29846.97728,-53541.45808,0.028,0.888,0.388,192,0,0,0,0,0,0,0,0,0,1.71E+09,0, 2024-03-15 14:25:13.064
10,-64298.05628,-49239.55193,-51956.89821,-32906.32759,-42766.62085,-58184.25067,-29909.18218,-53625.97002,0.032,0.882,0.39,192,1,0,27,144,12,48,0,0,0,1.71E+09,0, 2024-03-15 14:25:13.064
11,-64265.48979,-49217.08843,-51935.99933,-32886.00986,-42751.64518,-58180.04855,-29928.53879,-53619.39861,0.032,0.882,0.39,192,0,0,0,0,0,0,0,0,0,1.71E+09,0, 2024-03-15 14:25:13.064
12,-64172.1042,-49133.64937,-51839.48449,-32788.69036,-42660.96415,-58120.81642,-29888.50682,-53520.6933,0.032,0.882,0.39,192,0,0,0,0,0,0,0,0,0,1.71E+09,0, 2024-03-15 14:25:13.064
13,-64138.12955,-49094.84674,-51792.65759,-32742.15403,-42614.94191,-58082.30437,-29835.08615,-53474.89458,0.032,0.882,0.39,192,0,0,0,0,0,0,0,0,0,1.71E+09,0, 2024-03-15 14:25:13.064
14,-64221.63567,-49167.13228,-51873.5709,-32825.34722,-42690.31199,-58130.00299,-29857.61671,-53538.86527,0.032,0.882,0.39,192,0,0,0,0,0,0,0,0,0,1.71E+09,0, 2024-03-15 14:25:13.064
15,-64302.59368,-49244.04463,-51958.7087,-32916.89997,-42767.8949,-58199.76279,-29912.91492,-53651.13809,0.032,0.882,0.39,192,0,0,0,0,0,0,0,0,0,1.71E+09,0, 2024-03-15 14:25:13.064
16,-64277.60443,-49224.26334,-51938.838,-32899.06328,-42752.82982,-58201.52857,-29929.00818,-53674.87564,0.032,0.882,0.39,192,0,0,0,0,0,0,0,0,0,1.71E+09,0, 2024-03-15 14:25:13.064
17,-64177.26745,-49131.28008,-51837.18226,-32793.45128,-42657.38787,-58134.85332,-29891.90428,-53577.22087,0.032,0.882,0.39,192,0,0,0,0,0,0,0,0,0,1.71E+09,0, 2024-03-15 14:25:13.064
18,-64139.11303,-49091.51633,-51789.03661,-32741.59524,-42608.01287,-58089.68044,-29838.9083,-53501.71667,0.032,0.882,0.39,192,0,0,0,0,0,0,0,0,0,1.71E+09,0, 2024-03-15 14:25:13.064
19,-64221.68037,-49165.16532,-51868.02767,-32820.31808,-42677.12446,-58132.77461,-29852.00642,-53549.99644,0.032,0.882,0.39,192,0,0,0,0,0,0,0,0,0,1.71E+09,0, 2024-03-15 14:25:13.064
20,-64303.17483,-49243.19526,-51957.90404,-32912.02729,-42761.32348,-58202.06502,-29915.2395,-53653.2168,0.026,0.884,0.388,192,0,208,27,160,12,32,0,0,0,1.71E+09,0, 2024-03-15 14:25:13.064
21,-64274.69871,-49221.93876,-51935.77581,-32892.08953,-42739.50818,-58199.80749,-29922.63793,-53658.17888,0.026,0.884,0.388,192,0,0,0,0,0,0,0,0,0,1.71E+09,0, 2024-03-15 14:25:13.064
22,-64174.54054,-49132.71059,-51833.96361,-32790.21028,-42644.71443,-58136.23913,-29882.85183,-53565.93324,0.026,0.884,0.388,192,0,0,0,0,0,0,0,0,0,1.71E+09,0, 2024-03-15 14:25:13.064
23,-64139.26949,-49095.36083,-51788.43311,-32742.46696,-42598.42397,-58093.86022,-29833.74504,-53499.95089,0.026,0.884,0.388,192,0,0,0,0,0,0,0,0,0,1.71E+09,0, 2024-03-15 14:25:13.064
24,-64226.95538,-49172.45199,-51873.70501,-32826.77774,-42673.86111,-58141.91647,-29857.21437,-53578.8749,0.026,0.884,0.388,192,0,0,0,0,0,0,0,0,0,1.71E+09,0, 2024-03-15 14:25:13.064
25,-64303.21953,-49242.74823,-51955.60181,-32908.65218,-42750.72876,-58199.47221,-29910.00919,-53670.20412,0.026,0.884,0.388,192,0,0,0,0,0,0,0,0,0,1.71E+09,0, 2024-03-15 14:25:13.064
26,-64282.49947,-49225.80561,-51943.55422,-32892.13424,-42739.79875,-58197.01352,-29927.62237,-53653.03798,0.026,0.884,0.388,192,0,0,0,0,0,0,0,0,0,1.71E+09,0, 2024-03-15 14:25:13.064
27,-64182.45306,-49133.04587,-51844.33482,-32786.67871,-42645.69791,-58128.55013,-29889.24442,-53551.56106,0.026,0.884,0.388,192,0,0,0,0,0,0,0,0,0,1.71E+09,0, 2024-03-15 14:25:13.064
28,-64146.01971,-49094.42205,-51797.59732,-32737.50487,-42600.27916,-58085.83594,-29836.67312,-53515.08302,0.026,0.884,0.388,192,0,0,0,0,0,0,0,0,0,1.71E+09,0, 2024-03-15 14:25:13.064
29,-64231.49279,-49171.06619,-51878.04125,-32820.60865,-42672.74352,-58130.60649,-29853.39223,-53590.56486,0.026,0.884,0.388,192,0,0,0,0,0,0,0,0,0,1.71E+09,0, 2024-03-15 14:25:13.064
30,-64308.80747,-49246.2351,-51963.1567,-32906.81933,-42753.54508,-58187.33522,-29909.96449,-53640.49865,0.028,0.89,0.386,192,0,224,27,208,12,16,0,0,0,1.71E+09,0, 2024-03-15 14:25:13.064
31,-64284.75699,-49228.75604,-51945.65528,-32889.92141,-42740.64812,-58182.6637,-29928.78466,-53605.71934,0.028,0.89,0.386,192,0,0,0,0,0,0,0,0,0,1.71E+09,0, 2024-03-15 14:25:13.064
32,-64184.95645,-49139.99726,-51842.68079,-32790.09852,-42644.62503,-58121.24111,-29886.62927,-53533.34439,0.028,0.89,0.386,192,0,0,0,0,0,0,0,0,0,1.71E+09,0, 2024-03-15 14:25:13.064
33,-64148.63487,-49106.40259,-51798.29023,-32744.72448,-42602.26847,-58082.7514,-29843.51275,-53484.7964,0.028,0.89,0.386,192,0,0,0,0,0,0,0,0,0,1.71E+09,0, 2024-03-15 14:25:13.064
34,-64232.49861,-49177.81641,-51881.2599,-32823.26851,-42679.80667,-58125.35383,-29866.89268,-53549.12472,0.028,0.89,0.386,192,0,0,0,0,0,0,0,0,0,1.71E+09,0, 2024-03-15 14:25:13.064
35,-64302.41487,-49244.82694,-51961.50267,-32904.4724,-42759.22242,-58185.07769,-29923.17437,-53632.40732,0.028,0.89,0.386,192,0,0,0,0,0,0,0,0,0,1.71E+09,0, 2024-03-15 14:25:13.064
36,-64275.54807,-49226.07383,-51943.30835,-32887.77565,-42747.10777,-58189.6598,-29946.91192,-53633.81548,0.028,0.89,0.386,192,0,0,0,0,0,0,0,0,0,1.71E+09,0, 2024-03-15 14:25:13.064
37,-64180.57551,-49141.1372,-51847.53112,-32790.54556,-42661.94763,-58135.63563,-29916.42415,-53568.45898,0.028,0.89,0.386,192,0,0,0,0,0,0,0,0,0,1.71E+09,0, 2024-03-15 14:25:13.064
38,-64141.9964,-49100.7923,-51797.75379,-32741.32702,-42610.24804,-58099.53756,-29859.5166,-53540.94399,0.028,0.89,0.386,192,0,0,0,0,0,0,0,0,0,1.71E+09,0, 2024-03-15 14:25:13.064
39,-64222.37327,-49169.45686,-51874.46497,-32818.12761,-42678.33146,-58142.3188,-29874.91696,-53600.75725,0.028,0.89,0.386,192,0,0,0,0,0,0,0,0,0,1.71E+09,0, 2024-03-15 14:25:13.064
40,-64302.61604,-49244.3352,-51960.07216,-32901.20904,-42759.26712,-58194.91246,-29931.24335,-53629.74747,0.024,0.888,0.392,192,0,192,27,192,12,64,0,0,0,1.71E+09,0, 2024-03-15 14:25:13.064
41,-64280.86779,-49230.2089,-51943.24129,-32887.21685,-42746.50428,-58196.16415,-29952.63397,-53636.45299,0.024,0.888,0.392,192,0,0,0,0,0,0,0,0,0,1.71E+09,0, 2024-03-15 14:25:13.064
42,-64184.66588,-49146.2781,-51843.55251,-32791.30552,-42651.53171,-58141.89412,-29904.01893,-53603.43946,0.024,0.888,0.392,192,0,0,0,0,0,0,0,0,0,1.71E+09,0, 2024-03-15 14:25:13.064
43,-64152.56878,-49111.61055,-51799.20665,-32746.69144,-42607.05174,-58105.52783,-29852.14053,-53576.50561,0.024,0.888,0.392,192,0,0,0,0,0,0,0,0,0,1.71E+09,0, 2024-03-15 14:25:13.064
44,-64239.13708,-49187.00298,-51882.66806,-32827.87297,-42683.15943,-58149.20314,-29874.69344,-53605.76404,0.024,0.888,0.392,192,0,0,0,0,0,0,0,0,0,1.71E+09,0, 2024-03-15 14:25:13.064
45,-64311.40027,-49255.8687,-51960.45213,-32904.91943,-42755.1544,-58196.54413,-29917.51938,-53630.46272,0.024,0.888,0.392,192,0,0,0,0,0,0,0,0,0,1.71E+09,0, 2024-03-15 14:25:13.064
46,-64290.56845,-49240.446,-51947.55518,-32891.46368,-42744.89495,-58195.4489,-29937.59125,-53640.25279,0.024,0.888,0.392,192,0,0,0,0,0,0,0,0,0,1.71E+09,0, 2024-03-15 14:25:13.064
47,-64199.84272,-49155.46467,-51855.6448,-32795.06061,-42658.9972,-58135.9262,-29905.0024,-53565.03917,0.024,0.888,0.392,192,0,0,0,0,0,0,0,0,0,1.71E+09,0, 2024-03-15 14:25:13.064
48,-64159.81074,-49113.71161,-51805.12986,-32741.12585,-42607.74465,-58089.12165,-29850.91118,-53494.60882,0.024,0.888,0.392,192,0,0,0,0,0,0,0,0,0,1.71E+09,0, 2024-03-15 14:25:13.064
49,-64245.64144,-49188.58995,-51886.04318,-32821.7933,-42677.52679,-58131.94759,-29869.64194,-53564.86035,0.024,0.888,0.392,192,0,0,0,0,0,0,0,0,0,1.71E+09,0, 2024-03-15 14:25:13.064
50,-64328.96874,-49265.50231,-51972.1421,-32908.3616,-42756.07082,-58189.12336,-29925.05192,-53644.09729,0.026,0.89,0.392,192,0,208,27,208,12,64,0,0,0,1.71E+09,0, 2024-03-15 14:25:13.064
51,-64311.78025,-49254.70641,-51957.74757,-32896.71634,-42743.71031,-58192.54317,-29944.0062,-53638.24113,0.026,0.89,0.392,192,0,0,0,0,0,0,0,0,0,1.71E+09,0, 2024-03-15 14:25:13.064
52,-64213.34317,-49165.83588,-51856.09184,-32796.28996,-42652.42578,-58131.90289,-29902.20844,-53558.78068,0.026,0.89,0.392,192,0,0,0,0,0,0,0,0,0,1.71E+09,0, 2024-03-15 14:25:13.064
53,-64170.98661,-49122.07116,-51804.74988,-32743.33867,-42604.92833,-58088.47345,-29845.59147,-53519.66512,0.026,0.89,0.392,192,0,0,0,0,0,0,0,0,0,1.71E+09,0, 2024-03-15 14:25:13.064
54,-64252.52578,-49193.99908,-51879.98585,-32820.42984,-42671.8718,-58127.92428,-29861.95294,-53567.27434,0.026,0.89,0.392,192,0,0,0,0,0,0,0,0,0,1.71E+09,0, 2024-03-15 14:25:13.064
55,-64335.92014,-49275.67235,-51967.33647,-32911.96023,-42756.29434,-58190.77738,-29918.27934,-53612.20135,0.026,0.89,0.392,192,0,0,0,0,0,0,0,0,0,1.71E+09,0, 2024-03-15 14:25:13.064
56,-64306.81816,-49254.81817,-51949.41037,-32894.21295,-42744.60438,-58188.63162,-29940.89931,-53606.56871,0.026,0.89,0.392,192,0,0,0,0,0,0,0,0,0,1.71E+09,0, 2024-03-15 14:25:13.064
57,-64206.36942,-49163.57835,-51851.39797,-32796.73699,-42656.02442,-58136.01561,-29908.62339,-53580.79715,0.026,0.89,0.392,192,0,0,0,0,0,0,0,0,0,1.71E+09,0, 2024-03-15 14:25:13.064
58,-64167.63385,-49122.6076,-51806.49332,-32750.58064,-42611.67855,-58103.49382,-29856.36501,-53570.5824,0.026,0.89,0.392,192,0,0,0,0,0,0,0,0,0,1.71E+09,0, 2024-03-15 14:25:13.064
59,-64249.30713,-49190.17693,-51884.3668,-32824.45315,-42684.43348,-58140.75418,-29877.04037,-53592.80003,0.026,0.89,0.392,192,0,0,0,0,0,0,0,0,0,1.71E+09,0, 2024-03-15 14:25:13.064
60,-64331.09216,-49262.73069,-51970.75629,-32908.29455,-42768.05136,-58195.60536,-29935.55724,-53621.902,0.026,0.89,0.396,192,0,208,27,208,12,96,0,0,0,1.71E+09,0, 2024-03-15 14:25:13.064
61,-64307.71223,-49245.02811,-51954.64068,-32895.33054,-42758.01542,-58198.53344,-29955.27148,-53634.91072,0.026,0.89,0.396,192,0,0,0,0,0,0,0,0,0,1.71E+09,0, 2024-03-15 14:25:13.064
62,-64205.09538,-49151.3296,-51852.62732,-32794.05478,-42664.98746,-58138.49665,-29916.37944,-53578.60667,0.026,0.89,0.396,192,0,0,0,0,0,0,0,0,0,1.71E+09,0, 2024-03-15 14:25:13.064
63,-64164.92929,-49111.90112,-51803.22996,-32743.60689,-42616.1489,-58097.86118,-29866.17742,-53522.45909,0.026,0.89,0.396,192,0,0,0,0,0,0,0,0,0,1.71E+09,0, 2024-03-15 14:25:13.064
64,-64245.84261,-49184.85721,-51878.37653,-32821.30156,-42684.14291,-58140.4189,-29880.84017,-53568.74956,0.026,0.89,0.396,192,0,0,0,0,0,0,0,0,0,1.71E+09,0, 2024-03-15 14:25:13.064
65,-64331.31568,-49268.72096,-51970.80099,-32917.27995,-42773.684,-58209.88813,-29942.7098,-53650.28872,0.026,0.89,0.396,192,0,0,0,0,0,0,0,0,0,1.71E+09,0, 2024-03-15 14:25:13.064
66,-64312.74138,-49257.92506,-51961.3015,-32910.03798,-42769.50422,-58219.18645,-29965.06154,-53677.98253,0.026,0.89,0.396,192,0,0,0,0,0,0,0,0,0,1.71E+09,0, 2024-03-15 14:25:13.064
67,-64213.07495,-49167.33344,-51858.63994,-32808.04697,-42672.76587,-58157.07095,-29922.16854,-53618.68335,0.026,0.89,0.396,192,0,0,0,0,0,0,0,0,0,1.71E+09,0, 2024-03-15 14:25:13.064
68,-64171.92539,-49121.33355,-51807.49915,-32751.9441,-42619.23344,-58109.81937,-29867.98792,-53575.768,0.026,0.89,0.396,192,0,0,0,0,0,0,0,0,0,1.71E+09,0, 2024-03-15 14:25:13.064
69,-64254.40332,-49189.1711,-51885.12676,-32823.24616,-42690.62492,-58142.85524,-29883.96941,-53612.06724,0.026,0.89,0.396,192,0,0,0,0,0,0,0,0,0,1.71E+09,0, 2024-03-15 14:25:13.064
70,-64333.59555,-49259.86967,-51968.2976,-32903.37716,-42767.2467,-58191.13501,-29931.93626,-53622.52785,0.032,0.89,0.398,192,1,0,27,208,12,112,0,0,0,1.71E+09,0, 2024-03-15 14:25:13.064
71,-64313.27782,-49243.91052,-51953.81367,-32890.50256,-42755.7579,-58191.73851,-29951.80696,-53632.02734,0.032,0.89,0.398,192,0,0,0,0,0,0,0,0,0,1.71E+09,0, 2024-03-15 14:25:13.064
72,-64221.25569,-49159.91266,-51857.58941,-32796.49112,-42666.0827,-58138.04962,-29911.70793,-53580.52892,0.032,0.89,0.398,192,0,0,0,0,0,0,0,0,0,1.71E+09,0, 2024-03-15 14:25:13.064
73,-64176.10516,-49114.29275,-51802.60412,-32739.65064,-42611.94677,-58091.96032,-29853.59339,-53523.50962,0.032,0.89,0.398,192,0,0,0,0,0,0,0,0,0,1.71E+09,0, 2024-03-15 14:25:13.064
74,-64250.2906,-49180.56568,-51874.84495,-32811.26562,-42677.83972,-58128.99716,-29867.2056,-53562.58047,0.032,0.89,0.398,192,0,0,0,0,0,0,0,0,0,1.71E+09,0, 2024-03-15 14:25:13.064
75,-64336.18836,-49264.96586,-51966.353,-32904.94179,-42764.07275,-58196.27591,-29928.35998,-53631.51325,0.032,0.89,0.398,192,0,0,0,0,0,0,0,0,0,1.71E+09,0, 2024-03-15 14:25:13.064
76,-64314.28365,-49251.15249,-51949.43272,-32889.7426,-42750.37113,-58195.76182,-29944.67675,-53604.42294,0.032,0.89,0.398,192,0,0,0,0,0,0,0,0,0,1.71E+09,0, 2024-03-15 14:25:13.064
77,-64211.13035,-49161.43258,-51844.89362,-32787.841,-42653.87865,-58135.74739,-29900.97909,-53540.72047,0.032,0.89,0.398,192,0,0,0,0,0,0,0,0,0,1.71E+09,0, 2024-03-15 14:25:13.064
78,-64177.82625,-49129.44724,-51801.64299,-32746.40086,-42611.6115,-58106.31014,-29855.15801,-53524.38134,0.032,0.89,0.398,192,0,0,0,0,0,0,0,0,0,1.71E+09,0, 2024-03-15 14:25:13.064
79,-64259.47717,-49201.01752,-51880.14232,-32824.4308,-42682.98062,-58148.44318,-29873.17352,-53584.68635,0.032,0.89,0.398,192,0,0,0,0,0,0,0,0,0,1.71E+09,0, 2024-03-15 14:25:13.064
80,-64335.49545,-49274.97945,-51968.00702,-32911.08852,-42768.43134,-58206.71418,-29933.45617,-53655.8543,0.026,0.886,0.392,192,0,208,27,176,12,64,0,0,0,1.71E+09,0, 2024-03-15 14:25:13.064
81,-64310.14857,-49259.91437,-51954.99831,-32898.34802,-42762.01639,-58209.10581,-29955.04796,-53674.49566,0.026,0.886,0.392,192,0,0,0,0,0,0,0,0,0,1.71E+09,0, 2024-03-15 14:25:13.064
82,-64216.53947,-49176.78823,-51860.71865,-32803.33076,-42674.68812,-58153.38292,-29923.17437,-53603.79709,0.026,0.886,0.392,192,0,0,0,0,0,0,0,0,0,1.71E+09,0, 2024-03-15 14:25:13.064
83,-64175.56872,-49132.46472,-51808.63909,-32748.32311,-42621.80389,-58108.12063,-29873.79937,-53540.45225,0.026,0.886,0.392,192,0,0,0,0,0,0,0,0,0,1.71E+09,0, 2024-03-15 14:25:13.064
84,-64256.10206,-49200.45873,-51886.15494,-32824.11788,-42693.06126,-58148.82316,-29891.83723,-53598.90206,0.026,0.886,0.392,192,0,0,0,0,0,0,0,0,0,1.71E+09,0, 2024-03-15 14:25:13.064
85,-64339.98815,-49279.33804,-51975.58427,-32913.79308,-42778.04259,-58209.73166,-29946.91192,-53664.57148,0.026,0.886,0.392,192,0,0,0,0,0,0,0,0,0,1.71E+09,0, 2024-03-15 14:25:13.064
86,-64315.33418,-49261.07666,-51958.59694,-32897.65512,-42764.83271,-58207.16121,-29963.45222,-53653.19445,0.026,0.886,0.392,192,0,0,0,0,0,0,0,0,0,1.71E+09,0, 2024-03-15 14:25:13.064
87,-64216.53947,-49171.51322,-51857.63411,-32796.31231,-42672.25178,-58145.80567,-29920.64862,-53562.44636,0.026,0.886,0.392,192,0,0,0,0,0,0,0,0,0,1.71E+09,0, 2024-03-15 14:25:13.064
88,-64183.34713,-49135.81748,-51810.69545,-32751.3853,-42626.9448,-58114.66969,-29876.59334,-53537.85944,0.026,0.886,0.392,192,0,0,0,0,0,0,0,0,0,1.71E+09,0, 2024-03-15 14:25:13.064
89,-64260.50535,-49200.90576,-51879.09178,-32817.9935,-42686.95923,-58145.96214,-29884.66232,-53572.07997,0.026,0.886,0.392,192,0,0,0,0,0,0,0,0,0,1.71E+09,0, 2024-03-15 14:25:13.064
90,-64343.83265,-49279.11452,-51967.33647,-32904.80768,-42769.57128,-58200.99213,-29936.38425,-53616.6717,0.026,0.884,0.39,192,0,208,27,160,12,48,0,0,0,1.71E+09,0, 2024-03-15 14:25:13.544
91,-64323.04553,-49269.54797,-51960.36273,-32899.51031,-42767.22434,-58210.2234,-29965.30741,-53645.68426,0.026,0.884,0.39,192,0,0,0,0,0,0,0,0,0,1.71E+09,0, 2024-03-15 14:25:13.544
92,-64224.6308,-49180.40921,-51863.15499,-32799.84388,-42677.81737,-58152.39944,-29930.25988,-53606.79222,0.026,0.884,0.39,192,0,0,0,0,0,0,0,0,0,1.71E+09,0, 2024-03-15 14:25:13.544
93,-64184.04003,-49138.65616,-51812.28242,-32744.54567,-42627.45889,-58107.58419,-29875.94514,-53541.97217,0.026,0.884,0.39,192,0,0,0,0,0,0,0,0,0,1.71E+09,0, 2024-03-15 14:25:13.544
94,-64263.00875,-49206.73957,-51884.03152,-32814.7525,-42690.51316,-58140.50831,-29888.99855,-53577.69025,0.026,0.884,0.39,192,0,0,0,0,0,0,0,0,0,1.71E+09,0, 2024-03-15 14:25:13.544
95,-64348.52652,-49290.15628,-51974.33257,-32910.12739,-42774.01927,-58209.06111,-29945.45906,-53679.18952,0.026,0.884,0.39,192,0,0,0,0,0,0,0,0,0,1.71E+09,0, 2024-03-15 14:25:13.544
96,-64327.40412,-49277.92988,-51960.36273,-32901.00788,-42763.71512,-58215.94545,-29961.23939,-53688.55491,0.026,0.884,0.39,192,0,0,0,0,0,0,0,0,0,1.71E+09,0, 2024-03-15 14:25:13.544
97,-64225.279,-49187.80764,-51857.87998,-32800.04505,-42669.34605,-58153.22645,-29922.9285,-53584.82046,0.026,0.884,0.39,192,0,0,0,0,0,0,0,0,0,1.71E+09,0, 2024-03-15 14:25:13.544
98,-64177.66978,-49140.89133,-51796.07741,-32741.19291,-42608.81753,-58106.57836,-29862.19881,-53526.10243,0.026,0.884,0.39,192,0,0,0,0,0,0,0,0,0,1.71E+09,0, 2024-03-15 14:25:13.544
99,-64260.97474,-49213.37804,-51869.7264,-32819.04403,-42674.93399,-58150.76776,-29872.74884,-53602.45599,0.026,0.884,0.39,192,0,0,0,0,0,0,0,0,0,1.71E+09,0, 2024-03-15 14:25:13.544
100,-64352.43807,-49301.22039,-51969.61635,-32920.4539,-42771.15825,-58224.64028,-29942.03924,-53701.69773,0.026,0.882,0.39,192,0,208,27,144,12,48,0,0,0,1.71E+09,0, 2024-03-15 14:25:13.544
101,-64331.18157,-49285.84239,-51958.7534,-32905.61234,-42766.91142,-58219.1641,-29970.29185,-53651.24984,0.026,0.882,0.39,192,0,0,0,0,0,0,0,0,0,1.71E+09,0, 2024-03-15 14:25:13.544
102,-64226.10601,-49191.92036,-51853.78961,-32799.44155,-42670.44129,-58150.38778,-29929.67873,-53545.30258,0.026,0.882,0.39,192,0,0,0,0,0,0,0,0,0,1.71E+09,0, 2024-03-15 14:25:13.544
103,-64182.74363,-49146.54632,-51801.97827,-32745.46209,-42620.21692,-58108.16534,-29881.44367,-53494.11708,0.026,0.882,0.39,192,0,0,0,0,0,0,0,0,0,1.71E+09,0, 2024-03-15 14:25:13.544
104,-64257.62197,-49210.31585,-51875.33669,-32816.98767,-42686.33338,-58148.30907,-29889.93733,-53586.0051,0.026,0.882,0.39,192,0,0,0,0,0,0,0,0,0,1.71E+09,0, 2024-03-15 14:25:13.544
105,-64340.68106,-49287.20585,-51968.25289,-32908.16044,-42774.9357,-58213.06207,-29950.37645,-53693.62875,0.026,0.882,0.39,192,0,0,0,0,0,0,0,0,0,1.71E+09,0, 2024-03-15 14:25:13.544
106,-64317.85993,-49268.94447,-51949.90211,-32888.15563,-42760.2953,-58203.07084,-29963.98866,-53643.35968,0.026,0.882,0.39,192,0,0,0,0,0,0,0,0,0,1.71E+09,0, 2024-03-15 14:25:13.544
107,-64217.92528,-49181.72797,-51849.78865,-32786.36578,-42669.18959,-58140.44126,-29929.03053,-53561.90992,0.026,0.882,0.39,192,0,0,0,0,0,0,0,0,0,1.71E+09,0, 2024-03-15 14:25:13.544
108,-64176.19457,-49143.70765,-51803.43113,-32739.58358,-42624.46375,-58107.0701,-29885.55639,-53548.1636,0.026,0.882,0.39,192,0,0,0,0,0,0,0,0,0,1.71E+09,0, 2024-03-15 14:25:13.544
109,-64257.08553,-49214.33916,-51875.98489,-32813.61256,-42688.30033,-58144.03989,-29894.49708,-53582.54058,0.026,0.882,0.39,192,0,0,0,0,0,0,0,0,0,1.71E+09,0, 2024-03-15 14:25:13.544
110,-64337.77533,-49291.43033,-51954.8195,-32895.33054,-42763.51395,-58192.40906,-29938.19474,-53594.96815,0.034,0.888,0.39,192,1,16,27,192,12,48,0,0,0,1.71E+09,0, 2024-03-15 14:25:13.544
111,-64316.45177,-49280.81325,-51942.6825,-32886.41219,-42752.67336,-58197.84054,-29961.01588,-53615.39765,0.034,0.888,0.39,192,0,0,0,0,0,0,0,0,0,1.71E+09,0, 2024-03-15 14:25:13.544
112,-64217.27708,-49190.33339,-51843.12783,-32786.83517,-42660.13714,-58139.59189,-29922.74969,-53557.61839,0.034,0.888,0.39,192,0,0,0,0,0,0,0,0,0,1.71E+09,0, 2024-03-15 14:25:13.544
113,-64173.55706,-49145.29462,-51787.62845,-32731.20168,-42605.8671,-58097.01182,-29869.32902,-53503.14719,0.034,0.888,0.39,192,0,0,0,0,0,0,0,0,0,1.71E+09,0, 2024-03-15 14:25:13.544
114,-64254.58214,-49214.16035,-51862.43974,-32806.70587,-42674.53166,-58137.60258,-29883.36592,-53561.30642,0.034,0.888,0.39,192,0,0,0,0,0,0,0,0,0,1.71E+09,0, 2024-03-15 14:25:13.544
115,-64341.66453,-49294.2243,-51953.5678,-32896.76105,-42761.83757,-58196.18651,-29940.42992,-53624.62892,0.034,0.888,0.39,192,0,0,0,0,0,0,0,0,0,1.71E+09,0, 2024-03-15 14:25:13.544
116,-64322.17381,-49280.43327,-51942.54839,-32885.76399,-42753.8133,-58197.61702,-29959.3842,-53635.06718,0.034,0.888,0.39,192,0,0,0,0,0,0,0,0,0,1.71E+09,0, 2024-03-15 14:25:13.544
117,-64218.08174,-49187.2265,-51844.24542,-32786.52224,-42664.76395,-58139.50248,-29924.8284,-53585.15574,0.034,0.888,0.39,192,0,0,0,0,0,0,0,0,0,1.71E+09,0, 2024-03-15 14:25:13.544
118,-64177.98271,-49144.46761,-51794.66925,-32735.42616,-42617.15473,-58103.91851,-29876.48158,-53565.32974,0.034,0.888,0.39,192,0,0,0,0,0,0,0,0,0,1.71E+09,0, 2024-03-15 14:25:13.544
119,-64267.68026,-49224.82213,-51879.18119,-32822.32974,-42694.53647,-58157.18271,-29902.3649,-53643.09146,0.034,0.888,0.39,192,0,0,0,0,0,0,0,0,0,1.71E+09,0, 2024-03-15 14:25:13.544
120,-64349.13002,-49300.59454,-51965.16835,-32907.75811,-42776.25445,-58211.00571,-29949.1471,-53682.0729,0.034,0.888,0.39,192,0,0,0,0,0,0,0,0,0,1.71E+09,0, 2024-03-15 14:25:13.544
121,-64329.81811,-49286.69176,-51950.975,-32893.36358,-42767.31375,-58206.49066,-29970.94005,-53658.17888,0.028,0.888,0.396,192,0,224,27,192,12,96,0,0,0,1.71E+09,0, 2024-03-15 14:25:13.544
122,-64237.21483,-49204.70556,-51854.46016,-32798.83805,-42676.3198,-58151.12539,-29938.59708,-53599.68437,0.028,0.888,0.396,192,0,0,0,0,0,0,0,0,0,1.71E+09,0, 2024-03-15 14:25:13.544
123,-64190.92437,-49160.04678,-51797.9773,-32744.36685,-42622.25093,-58109.39468,-29885.84696,-53555.83025,0.028,0.888,0.396,192,0,0,0,0,0,0,0,0,0,1.71E+09,0, 2024-03-15 14:25:13.544
124,-64267.72496,-49228.309,-51868.92174,-32818.52994,-42685.77459,-58148.53259,-29897.71574,-53605.1382,0.028,0.888,0.396,192,0,0,0,0,0,0,0,0,0,1.71E+09,0, 2024-03-15 14:25:13.544
125,-64357.13194,-49311.23397,-51961.79324,-32910.70854,-42773.32637,-58206.3342,-29945.45906,-53646.93596,0.028,0.888,0.396,192,0,0,0,0,0,0,0,0,0,1.71E+09,0, 2024-03-15 14:25:13.544
126,-64338.60234,-49300.43808,-51952.38315,-32900.6279,-42767.80549,-58204.18843,-29968.92839,-53621.14204,0.028,0.888,0.396,192,0,0,0,0,0,0,0,0,0,1.71E+09,0, 2024-03-15 14:25:13.544
127,-64239.22649,-49211.52284,-51854.10253,-32800.38033,-42675.89512,-58143.74931,-29929.90225,-53564.12274,0.028,0.888,0.396,192,0,0,0,0,0,0,0,0,0,1.71E+09,0, 2024-03-15 14:25:13.544
128,-64192.26547,-49160.02442,-51795.80919,-32737.50487,-42618.42878,-58095.02251,-29874.42522,-53513.13841,0.028,0.888,0.396,192,0,0,0,0,0,0,0,0,0,1.71E+09,0, 2024-03-15 14:25:13.544
129,-64271.07772,-49224.82213,-51870.3746,-32807.1529,-42683.80763,-58129.4442,-29883.32121,-53542.15098,0.028,0.888,0.396,192,0,0,0,0,0,0,0,0,0,1.71E+09,0, 2024-03-15 14:25:13.544
130,-64360.14943,-49309.0435,-51968.76698,-32903.62303,-42776.81324,-58194.53248,-29946.84487,-53624.22658,0.028,0.888,0.396,192,0,0,0,0,0,0,0,0,0,1.71E+09,0, 2024-03-15 14:25:13.544
131,-64340.74811,-49297.97939,-51960.11686,-32897.18573,-42773.28167,-58200.88037,-29973.93518,-53656.83778,0.03,0.888,0.394,192,0,240,27,192,12,80,0,0,0,1.71E+09,0, 2024-03-15 14:25:13.544
132,-64245.30616,-49213.37804,-51866.01601,-32801.72143,-42686.15457,-58145.4704,-29932.02566,-53596.71159,0.03,0.888,0.394,192,0,0,0,0,0,0,0,0,0,1.71E+09,0, 2024-03-15 14:25:13.544
133,-64200.55797,-49166.68524,-51811.09778,-32743.45043,-42633.06917,-58101.19159,-29885.95872,-53536.83126,0.03,0.888,0.394,192,0,0,0,0,0,0,0,0,0,1.71E+09,0, 2024-03-15 14:25:13.544
134,-64271.79298,-49226.69968,-51874.64379,-32805.61063,-42685.79694,-58126.53847,-29888.79739,-53536.60775,0.03,0.888,0.394,192,0,0,0,0,0,0,0,0,0,1.71E+09,0, 2024-03-15 14:25:13.544
135,-64360.81998,-49309.89287,-51967.67175,-32898.63859,-42774.82394,-58188.11753,-29946.57665,-53609.74265,0.03,0.888,0.394,192,0,0,0,0,0,0,0,0,0,1.71E+09,0, 2024-03-15 14:25:13.544
136,-64348.92885,-49302.67326,-51964.27428,-32897.65512,-42776.38856,-58198.55579,-29976.19271,-53640.74452,0.03,0.888,0.394,192,0,0,0,0,0,0,0,0,0,1.71E+09,0, 2024-03-15 14:25:13.544
137,-64253.91159,-49217.82603,-51870.3746,-32806.4153,-42689.30616,-58147.63852,-29943.4027,-53605.04879,0.03,0.888,0.394,192,0,0,0,0,0,0,0,0,0,1.71E+09,0, 2024-03-15 14:25:13.544
138,-64201.5638,-49165.27708,-51804.12403,-32738.64481,-42623.7932,-58093.45789,-29877.4427,-53522.97318,0.03,0.888,0.394,192,0,0,0,0,0,0,0,0,0,1.71E+09,0, 2024-03-15 14:25:13.544
139,-64278.11852,-49233.33815,-51875.18023,-32808.85164,-42687.49567,-58127.81252,-29889.89262,-53542.06157,0.03,0.888,0.394,192,0,0,0,0,0,0,0,0,0,1.71E+09,0, 2024-03-15 14:25:13.544
140,-64365.51385,-49316.37488,-51970.8457,-32904.4724,-42778.08729,-58194.66659,-29947.9401,-53640.56571,0.03,0.888,0.394,192,0,0,0,0,0,0,0,0,0,1.71E+09,0, 2024-03-15 14:25:13.544
141,-64353.13098,-49312.01629,-51966.3977,-32902.70661,-42779.58486,-58206.3342,-29977.9585,-53674.29449,0.028,0.892,0.39,192,0,224,27,224,12,48,0,0,0,1.71E+09,0, 2024-03-15 14:25:13.544
142,-64256.43733,-49225.00094,-51867.20066,-32806.37059,-42690.71432,-58151.84065,-29943.69327,-53598.96911,0.028,0.892,0.39,192,0,0,0,0,0,0,0,0,0,1.71E+09,0, 2024-03-15 14:25:13.544
143,-64204.7601,-49170.37328,-51804.68283,-32741.17055,-42632.15275,-58102.17507,-29886.91984,-53515.99944,0.028,0.892,0.39,192,0,0,0,0,0,0,0,0,0,1.71E+09,0, 2024-03-15 14:25:13.544
144,-64274.27402,-49229.78422,-51869.637,-32804.42599,-42689.70849,-58131.54526,-29894.27357,-53555.71849,0.028,0.892,0.39,192,0,0,0,0,0,0,0,0,0,1.71E+09,0, 2024-03-15 14:25:13.544
145,-64351.14167,-49304.17082,-51951.64555,-32890.81548,-42765.88324,-58189.101,-29940.8099,-53641.32567,0.028,0.892,0.39,192,0,0,0,0,0,0,0,0,0,1.71E+09,0, 2024-03-15 14:25:13.544
146,-64339.13879,-49301.51097,-51950.19268,-32890.9943,-42771.49353,-58201.79679,-29977.19854,-53652.79211,0.028,0.892,0.39,192,0,0,0,0,0,0,0,0,0,1.71E+09,0, 2024-03-15 14:25:13.544
147,-64244.56856,-49218.00485,-51856.98591,-32798.52513,-42687.898,-58150.99128,-29950.04117,-53608.24509,0.028,0.892,0.39,192,0,0,0,0,0,0,0,0,0,1.71E+09,0, 2024-03-15 14:25:13.544
148,-64197.58519,-49168.78631,-51797.01618,-32736.0073,-42630.1858,-58102.95738,-29897.55927,-53559.33947,0.028,0.892,0.39,192,0,0,0,0,0,0,0,0,0,1.71E+09,0, 2024-03-15 14:25:13.544
149,-64271.97179,-49233.82988,-51864.45139,-32800.80501,-42688.23328,-58131.94759,-29901.09085,-53578.78549,0.028,0.892,0.39,192,0,0,0,0,0,0,0,0,0,1.71E+09,0, 2024-03-15 14:25:13.544
150,-64357.51192,-49314.92201,-51953.47839,-32890.4355,-42769.99596,-58188.65397,-29950.42115,-53636.90002,0.028,0.892,0.39,192,0,0,0,0,0,0,0,0,0,1.71E+09,0, 2024-03-15 14:25:13.544
151,-64340.59165,-49305.37782,-51944.94002,-32883.68528,-42764.11745,-58191.02325,-29970.82829,-53649.26054,0.032,0.892,0.388,192,1,0,27,224,12,32,0,0,0,1.71E+09,0, 2024-03-15 14:25:13.544
152,-64244.88148,-49219.41301,-51846.97233,-32787.03633,-42674.97869,-58132.14876,-29935.87016,-53584.57459,0.032,0.892,0.388,192,0,0,0,0,0,0,0,0,0,1.71E+09,0, 2024-03-15 14:25:13.544
153,-64197.16051,-49171.53557,-51786.68967,-32725.47963,-42616.41712,-58082.34907,-29881.9354,-53514.83715,0.032,0.892,0.388,192,0,0,0,0,0,0,0,0,0,1.71E+09,0, 2024-03-15 14:25:13.544
154,-64279.52668,-49243.23997,-51865.03254,-32799.88859,-42685.01463,-58118.80477,-29894.20651,-53562.60283,0.032,0.892,0.388,192,0,0,0,0,0,0,0,0,0,1.71E+09,0, 2024-03-15 14:25:13.544
155,-64372.6664,-49328.64598,-51963.31316,-32898.75035,-42773.61694,-58184.29538,-29953.6845,-53659.63175,0.032,0.892,0.388,192,0,0,0,0,0,0,0,0,0,1.71E+09,0, 2024-03-15 14:25:13.544
156,-64362.87634,-49322.67807,-51959.73688,-32896.31401,-42775.0251,-58188.27399,-29982.85353,-53669.46652,0.032,0.892,0.388,192,0,0,0,0,0,0,0,0,0,1.71E+09,0, 2024-03-15 14:25:13.544
157,-64266.49562,-49233.98635,-51862.23857,-32796.44642,-42684.50054,-58120.74937,-29940.69814,-53549.77292,0.032,0.892,0.388,192,0,0,0,0,0,0,0,0,0,1.71E+09,0, 2024-03-15 14:25:13.544
158,-64209.11869,-49177.50349,-51794.62454,-32727.11131,-42620.37338,-58062.836,-29882.78477,-53464.36691,0.032,0.892,0.388,192,0,0,0,0,0,0,0,0,0,1.71E+09,0, 2024-03-15 14:25:13.544
159,-64282.47711,-49243.55289,-51863.51262,-32800.76031,-42683.9641,-58104.38789,-29895.2794,-53550.21996,0.032,0.892,0.388,192,0,0,0,0,0,0,0,0,0,1.71E+09,0, 2024-03-15 14:25:13.544
160,-64377.65084,-49337.7655,-51966.97884,-32911.02146,-42782.42353,-58185.92706,-29958.736,-53681.33529,0.032,0.892,0.388,192,0,0,0,0,0,0,0,0,0,1.71E+09,0, 2024-03-15 14:25:13.544
161,-64362.78693,-49332.42343,-51962.5979,-32913.10017,-42783.80934,-58199.71808,-29986.2957,-53697.18268,0.03,0.896,0.388,192,0,240,28,0,12,32,0,0,0,1.71E+09,0, 2024-03-15 14:25:13.544
162,-64267.34498,-49246.16805,-51866.19483,-32821.32391,-42696.32461,-58147.83968,-29950.4882,-53622.03611,0.03,0.896,0.388,192,0,0,0,0,0,0,0,0,0,1.71E+09,0, 2024-03-15 14:25:13.544
163,-64212.69497,-49190.40044,-51800.70422,-32757.01794,-42631.79512,-58096.52008,-29887.50099,-53538.19472,0.03,0.896,0.388,192,0,0,0,0,0,0,0,0,0,1.71E+09,0, 2024-03-15 14:25:13.544
164,-64280.64427,-49248.35852,-51865.12194,-32821.45802,-42690.51316,-58125.5997,-29895.56997,-53556.47845,0.03,0.896,0.388,192,0,0,0,0,0,0,0,0,0,1.71E+09,0, 2024-03-15 14:25:13.544
165,-64374.09692,-49336.91613,-51969.68341,-32928.56758,-42792.2583,-58205.14956,-29961.41821,-53685.85034,0.03,0.896,0.388,192,0,0,0,0,0,0,0,0,0,1.71E+09,0, 2024-03-15 14:25:13.544
166,-64365.22327,-49331.55171,-51974.37727,-32931.92034,-42800.39433,-58222.04747,-29993.53766,-53736.45469,0.03,0.896,0.388,192,0,0,0,0,0,0,0,0,0,1.71E+09,0, 2024-03-15 14:25:13.544
167,-64268.7755,-49244.20109,-51879.00238,-32834.37733,-42708.4169,-58164.53644,-29955.20442,-53635.96125,0.03,0.896,0.388,192,0,0,0,0,0,0,0,0,0,1.71E+09,0, 2024-03-15 14:25:13.544
168,-64216.27125,-49190.15458,-51814.45054,-32766.22686,-42645.98848,-58110.62403,-29892.64189,-53529.67871,0.03,0.896,0.388,192,0,0,0,0,0,0,0,0,0,1.71E+09,0, 2024-03-15 14:25:13.544
169,-64279.0573,-49243.28467,-51872.60978,-32824.31904,-42698.04569,-58135.63563,-29885.64579,-53573.1305,0.03,0.896,0.388,192,0,0,0,0,0,0,0,0,0,1.71E+09,0, 2024-03-15 14:25:13.544
170,-64371.90644,-49332.33402,-51974.53373,-32927.40529,-42796.70629,-58207.11651,-29955.20442,-53662.49277,0.03,0.896,0.388,192,0,0,0,0,0,0,0,0,0,1.71E+09,0, 2024-03-15 14:25:13.544
171,-64363.23397,-49329.00361,-51972.72324,-32925.95243,-42797.80153,-58215.58782,-29981.04304,-53664.63854,0.024,0.892,0.384,192,0,192,27,224,12,0,0,0,0,1.71E+09,0, 2024-03-15 14:25:13.544
172,-64267.99318,-49245.78807,-51877.59422,-32830.59988,-42708.34985,-58160.15549,-29951.91872,-53599.86318,0.024,0.892,0.384,192,0,0,0,0,0,0,0,0,0,1.71E+09,0, 2024-03-15 14:25:13.544
173,-64210.5939,-49191.92036,-51808.52733,-32762.71764,-42637.49482,-58111.33928,-29890.45142,-53567.65432,0.024,0.892,0.384,192,0,0,0,0,0,0,0,0,0,1.71E+09,0, 2024-03-15 14:25:13.545
174,-64280.91249,-49256.78513,-51875.31434,-32831.04692,-42696.01169,-58149.20314,-29894.6759,-53632.16145,0.024,0.892,0.384,192,0,0,0,0,0,0,0,0,0,1.71E+09,0, 2024-03-15 14:25:13.545
175,-64367.92783,-49342.63818,-51970.59983,-32927.18177,-42786.71506,-58214.13496,-29954.04213,-53705.7434,0.024,0.892,0.384,192,0,0,0,0,0,0,0,0,0,1.71E+09,0, 2024-03-15 14:25:13.545
176,-64354.62855,-49335.97736,-51966.88944,-32922.19733,-42787.60913,-58215.99015,-29980.61836,-53701.00483,0.024,0.892,0.384,192,0,0,0,0,0,0,0,0,0,1.71E+09,0, 2024-03-15 14:25:13.545
177,-64265.04275,-49256.69572,-51876.36487,-32830.75635,-42703.03013,-58161.56365,-29949.7953,-53637.21295,0.024,0.892,0.384,192,0,0,0,0,0,0,0,0,0,1.71E+09,0, 2024-03-15 14:25:13.545
178,-64210.79507,-49204.45969,-51810.20371,-32765.57866,-42635.01378,-58112.90391,-29889.28913,-53596.15279,0.024,0.892,0.384,192,0,0,0,0,0,0,0,0,0,1.71E+09,0, 2024-03-15 14:25:13.545
179,-64277.71619,-49261.09901,-51869.81581,-32822.46385,-42692.03308,-58133.3334,-29892.21721,-53607.79805,0.024,0.892,0.384,192,0,0,0,0,0,0,0,0,0,1.71E+09,0, 2024-03-15 14:25:13.545
180,-64363.81511,-49342.19114,-51962.39674,-32913.36839,-42782.11061,-58190.06213,-29945.57082,-53671.70169,0.024,0.892,0.384,192,0,0,0,0,0,0,0,0,0,1.71E+09,0, 2024-03-15 14:25:13.545
181,-64355.67908,-49340.98415,-51961.83794,-32912.98841,-42786.26803,-58201.79679,-29972.66113,-53691.43828,0.022,0.888,0.386,192,0,176,27,192,12,16,0,0,0,1.71E+09,0, 2024-03-15 14:25:13.545
182,-64260.19243,-49256.94159,-51864.71961,-32814.86426,-42697.95629,-58144.35281,-29940.96636,-53604.17707,0.022,0.888,0.386,192,0,0,0,0,0,0,0,0,0,1.71E+09,0, 2024-03-15 14:25:13.545
183,-64206.14591,-49205.26435,-51802.78293,-32751.09473,-42640.35584,-58100.23047,-29890.94316,-53570.47064,0.022,0.888,0.386,192,0,0,0,0,0,0,0,0,0,1.71E+09,0, 2024-03-15 14:25:13.545
184,-64279.23611,-49272.05137,-51873.5262,-32824.14023,-42706.62876,-58145.02336,-29908.17635,-53646.33246,0.022,0.888,0.386,192,0,0,0,0,0,0,0,0,0,1.71E+09,0, 2024-03-15 14:25:13.545
185,-64363.01045,-49350.72951,-51964.4978,-32915.98355,-42795.18638,-58206.51301,-29961.977,-53714.86291,0.022,0.888,0.386,192,0,0,0,0,0,0,0,0,0,1.71E+09,0, 2024-03-15 14:25:13.545
186,-64350.8958,-49343.68871,-51959.13338,-32912.13905,-42796.46043,-58212.23506,-29986.00513,-53702.16712,0.022,0.888,0.386,192,0,0,0,0,0,0,0,0,0,1.71E+09,0, 2024-03-15 14:25:13.545
187,-64258.15842,-49261.50134,-51865.27841,-32819.64753,-42708.75218,-58158.83674,-29956.94786,-53613.36364,0.022,0.888,0.386,192,0,0,0,0,0,0,0,0,0,1.71E+09,0, 2024-03-15 14:25:13.545
188,-64204.58129,-49205.44317,-51798.80432,-32754.80512,-42637.00308,-58112.90391,-29897.89455,-53546.19665,0.022,0.888,0.386,192,0,0,0,0,0,0,0,0,0,1.71E+09,0, 2024-03-15 14:25:13.545
189,-64274.94458,-49266.64224,-51865.74779,-32823.93906,-42693.24007,-58153.31586,-29902.85664,-53617.11873,0.022,0.888,0.386,192,0,0,0,0,0,0,0,0,0,1.71E+09,0, 2024-03-15 14:25:13.545
190,-64363.34573,-49350.0366,-51963.2461,-32921.795,-42785.84335,-58221.19811,-29962.04406,-53710.99606,0.022,0.888,0.386,192,0,0,0,0,0,0,0,0,0,1.71E+09,0, 2024-03-15 14:25:13.545
191,-64353.10863,-49344.62748,-51961.70383,-32918.57635,-42788.30204,-58227.76952,-29992.10715,-53705.02814,0.022,0.896,0.388,192,0,176,28,0,12,32,0,0,0,1.71E+09,0, 2024-03-15 14:25:13.545
192,-64255.47621,-49257.58979,-51866.4854,-32821.12274,-42699.81148,-58170.01261,-29953.72921,-53644.29845,0.022,0.896,0.388,192,0,0,0,0,0,0,0,0,0,1.71E+09,0, 2024-03-15 14:25:13.545
193,-64200.69208,-49203.02918,-51802.93939,-32754.11221,-42638.94768,-58120.77172,-29900.84498,-53587.61443,0.022,0.896,0.388,192,0,0,0,0,0,0,0,0,0,1.71E+09,0, 2024-03-15 14:25:13.545
194,-64274.43049,-49267.24574,-51869.32407,-32821.34626,-42698.47038,-58155.39457,-29911.68558,-53623.109,0.022,0.896,0.388,192,0,0,0,0,0,0,0,0,0,1.71E+09,0, 2024-03-15 14:25:13.545
195,-64362.36225,-49352.22707,-51965.43657,-32919.73864,-42788.92789,-58223.03095,-29965.10624,-53731.62672,0.022,0.896,0.388,192,0,0,0,0,0,0,0,0,0,1.71E+09,0, 2024-03-15 14:25:13.545
196,-64347.36423,-49344.73924,-51960.49684,-32917.39171,-42786.20097,-58230.0941,-29979.9478,-53756.07953,0.022,0.896,0.388,192,0,0,0,0,0,0,0,0,0,1.71E+09,0, 2024-03-15 14:25:13.545
197,-64257.51022,-49261.70251,-51869.25702,-32822.26268,-42702.24782,-58169.40912,-29949.37062,-53640.36454,0.022,0.896,0.388,192,0,0,0,0,0,0,0,0,0,1.71E+09,0, 2024-03-15 14:25:13.545
198,-64203.28488,-49205.17495,-51805.33103,-32751.25119,-42642.59102,-58111.71926,-29895.70408,-53543.46973,0.022,0.896,0.388,192,0,0,0,0,0,0,0,0,0,1.71E+09,0, 2024-03-15 14:25:13.545
199,-64270.20601,-49265.16703,-51868.49706,-32813.23258,-42697.17398,-58140.03892,-29903.88482,-53599.97494,0.022,0.896,0.388,192,0,0,0,0,0,0,0,0,0,1.71E+09,0, 2024-03-15 14:25:13.545
200,-64357.26605,-49348.67315,-51961.3462,-32905.61234,-42785.06104,-58196.00769,-29959.80888,-53666.44903,0.022,0.896,0.388,192,0,0,0,0,0,0,0,0,0,1.71E+09,0, 2024-03-15 14:25:13.545
201,-64346.9619,-49343.5993,-51958.30637,-32903.13129,-42784.47989,-58198.10876,-29979.45606,-53667.43251,0.02,0.888,0.388,192,0,160,27,192,12,32,0,0,0,1.71E+09,0, 2024-03-15 14:25:13.545
202,-64263.52284,-49270.66556,-51875.78373,-32819.3346,-42707.99222,-58152.13122,-29956.1432,-53607.41807,0.02,0.888,0.388,192,0,0,0,0,0,0,0,0,0,1.71E+09,0, 2024-03-15 14:25:13.545
203,-64206.97292,-49214.42857,-51808.61673,-32750.84886,-42642.43455,-58101.8845,-29900.62146,-53564.63683,0.02,0.888,0.388,192,0,0,0,0,0,0,0,0,0,1.71E+09,0, 2024-03-15 14:25:13.545
204,-64274.13991,-49270.39734,-51867.75945,-32810.9527,-42696.36931,-58132.52874,-29901.35907,-53627.6017,0.02,0.888,0.388,192,0,0,0,0,0,0,0,0,0,1.71E+09,0, 2024-03-15 14:25:13.545
205,-64366.85495,-49354.35049,-51963.46962,-32904.76297,-42788.4138,-58195.73947,-29959.13833,-53711.24193,0.02,0.888,0.388,192,0,0,0,0,0,0,0,0,0,1.71E+09,0, 2024-03-15 14:25:13.545
206,-64359.7918,-49348.24846,-51959.22279,-32898.19156,-42787.54208,-58197.92994,-29985.55809,-53705.29636,0.02,0.888,0.388,192,0,0,0,0,0,0,0,0,0,1.71E+09,0, 2024-03-15 14:25:13.545
207,-64269.11077,-49268.69861,-51870.9781,-32813.12082,-42708.46161,-58156.89214,-29963.2734,-53674.47331,0.02,0.888,0.388,192,0,0,0,0,0,0,0,0,0,1.71E+09,0, 2024-03-15 14:25:13.545
208,-64211.44327,-49211.72401,-51806.98506,-32746.26675,-42647.32959,-58109.55114,-29905.49414,-53599.05852,0.02,0.888,0.388,192,0,0,0,0,0,0,0,0,0,1.71E+09,0, 2024-03-15 14:25:13.545
209,-64278.76672,-49268.07276,-51870.41931,-32807.82346,-42705.66764,-58138.04962,-29911.9538,-53623.91366,0.02,0.888,0.388,192,0,0,0,0,0,0,0,0,0,1.71E+09,0, 2024-03-15 14:25:13.545
210,-64371.25824,-49355.91511,-51967.62704,-32909.81447,-42794.13584,-58210.96101,-29971.02946,-53732.94547,0.02,0.888,0.388,192,0,0,0,0,0,0,0,0,0,1.71E+09,0, 2024-03-15 14:25:14.025
211,-64363.45748,-49356.78683,-51969.01285,-32914.7095,-42798.98617,-58224.79674,-30000.422,-53724.3624,0.022,0.892,0.386,192,0,176,27,224,12,16,0,0,0,1.71E+09,0, 2024-03-15 14:25:14.025
212,-64270.74245,-49275.38178,-51875.29199,-32822.79913,-42711.09911,-58171.75605,-29963.98866,-53624.56186,0.022,0.892,0.386,192,0,0,0,0,0,0,0,0,0,1.71E+09,0, 2024-03-15 14:25:14.025
213,-64219.17697,-49224.4198,-51810.7625,-32757.085,-42646.94961,-58123.72215,-29908.06459,-53538.03826,0.022,0.892,0.386,192,0,0,0,0,0,0,0,0,0,1.71E+09,0, 2024-03-15 14:25:14.025
214,-64287.61802,-49285.39536,-51870.01698,-32821.05569,-42699.18563,-58157.98738,-29910.94797,-53590.67662,0.022,0.892,0.386,192,0,0,0,0,0,0,0,0,0,1.71E+09,0, 2024-03-15 14:25:14.025
215,-64373.73929,-49375.11526,-51967.71645,-32928.29936,-42791.90067,-58234.96678,-29971.23062,-53703.28471,0.022,0.892,0.386,192,0,0,0,0,0,0,0,0,0,1.71E+09,0, 2024-03-15 14:25:14.025
216,-64351.52165,-49372.74598,-51971.29273,-32939.56464,-42799.41086,-58256.15624,-30003.12656,-53734.39833,0.022,0.892,0.386,192,0,0,0,0,0,0,0,0,0,1.71E+09,0, 2024-03-15 14:25:14.025
217,-64260.90768,-49295.67716,-51885.46203,-32856.37145,-42722.63261,-58212.03389,-29976.34917,-53686.5209,0.022,0.892,0.386,192,0,0,0,0,0,0,0,0,0,1.71E+09,0, 2024-03-15 14:25:14.025
218,-64213.41022,-49236.40033,-51814.53995,-32779.5932,-42656.69497,-58153.60643,-29912.19967,-53630.77565,0.022,0.892,0.386,192,0,0,0,0,0,0,0,0,0,1.71E+09,0, 2024-03-15 14:25:14.025
219,-64285.47225,-49283.85309,-51869.83816,-32826.01778,-42706.20408,-58167.241,-29908.73515,-53645.97483,0.022,0.892,0.386,192,0,0,0,0,0,0,0,0,0,1.71E+09,0, 2024-03-15 14:25:14.025
220,-64377.85201,-49366.91217,-51966.30829,-32917.97285,-42798.49443,-58223.63445,-29965.55328,-53696.64624,0.022,0.892,0.386,192,0,0,0,0,0,0,0,0,0,1.71E+09,0, 2024-03-15 14:25:14.025
221,-64380.98125,-49372.67892,-51974.39962,-32925.6395,-42804.90938,-58235.61498,-29990.72134,-53712.67244,0.024,0.888,0.384,192,0,192,27,192,12,0,0,0,0,1.71E+09,0, 2024-03-15 14:25:14.025
222,-64294.16708,-49293.39728,-51888.47952,-32836.70191,-42725.18071,-58182.26137,-29965.01684,-53669.19829,0.024,0.888,0.384,192,0,0,0,0,0,0,0,0,0,1.71E+09,0, 2024-03-15 14:25:14.025
223,-64233.83972,-49230.36536,-51822.8548,-32763.567,-42663.64636,-58123.45393,-29909.24924,-53602.12071,0.024,0.888,0.384,192,0,0,0,0,0,0,0,0,0,1.71E+09,0, 2024-03-15 14:25:14.025
224,-64303.21953,-49284.6354,-51884.79148,-32818.66405,-42720.48685,-58141.6259,-29912.98198,-53609.65325,0.024,0.888,0.384,192,0,0,0,0,0,0,0,0,0,1.71E+09,0, 2024-03-15 14:25:14.025
225,-64393.36412,-49364.54289,-51971.56095,-32904.71827,-42802.04836,-58190.03978,-29959.20538,-53658.82709,0.024,0.888,0.384,192,0,0,0,0,0,0,0,0,0,1.71E+09,0, 2024-03-15 14:25:14.025
226,-64393.23001,-49368.90148,-51985.08376,-32916.96702,-42818.5216,-58209.08346,-29998.81268,-53712.04659,0.024,0.888,0.384,192,0,0,0,0,0,0,0,0,0,1.71E+09,0, 2024-03-15 14:25:14.025
227,-64296.53636,-49279.80742,-51893.95569,-32825.52604,-42732.71325,-58155.34987,-29970.15774,-53671.32171,0.024,0.888,0.384,192,0,0,0,0,0,0,0,0,0,1.71E+09,0, 2024-03-15 14:25:14.025
228,-64232.90095,-49213.44509,-51818.87619,-32748.99366,-42655.59973,-58097.41415,-29907.41639,-53588.39674,0.024,0.888,0.384,192,0,0,0,0,0,0,0,0,0,1.71E+09,0, 2024-03-15 14:25:14.025
229,-64300.73849,-49270.71026,-51879.00238,-32806.90703,-42709.42273,-58123.23041,-29915.17245,-53598.61149,0.024,0.888,0.384,192,0,0,0,0,0,0,0,0,0,1.71E+09,0, 2024-03-15 14:25:14.025
230,-64395.42048,-49358.99965,-51977.37241,-32905.96997,-42803.72474,-58190.21859,-29971.43179,-53686.20797,0.024,0.888,0.384,192,0,0,0,0,0,0,0,0,0,1.71E+09,0, 2024-03-15 14:25:14.025
231,-64381.62945,-49352.74116,-51971.09157,-32904.27123,-42797.53331,-58199.82984,-29986.58627,-53713.16418,0.024,0.884,0.39,192,0,192,27,160,12,48,0,0,0,1.71E+09,0, 2024-03-15 14:25:14.025
232,-64287.68507,-49271.82785,-51881.84105,-32813.4561,-42715.70357,-58150.29837,-29958.49013,-53644.34315,0.024,0.884,0.39,192,0,0,0,0,0,0,0,0,0,1.71E+09,0, 2024-03-15 14:25:14.025
233,-64226.01661,-49212.48397,-51816.05987,-32741.08115,-42655.08564,-58096.7883,-29912.6467,-53563.31808,0.024,0.884,0.39,192,0,0,0,0,0,0,0,0,0,1.71E+09,0, 2024-03-15 14:25:14.025
234,-64286.12045,-49265.97169,-51872.16274,-32795.70881,-42707.05345,-58119.94471,-29917.29586,-53576.12563,0.024,0.884,0.39,192,0,0,0,0,0,0,0,0,0,1.71E+09,0, 2024-03-15 14:25:14.025
235,-64372.84522,-49350.32718,-51964.40839,-32890.10023,-42795.23108,-58183.28955,-29970.76124,-53652.41213,0.024,0.884,0.39,192,0,0,0,0,0,0,0,0,0,1.71E+09,0, 2024-03-15 14:25:14.025
236,-64370.31947,-49355.91511,-51972.92441,-32905.05354,-42808.3292,-58210.64808,-30005.22763,-53719.33326,0.024,0.884,0.39,192,0,0,0,0,0,0,0,0,0,1.71E+09,0, 2024-03-15 14:25:14.025
237,-64279.86196,-49275.76176,-51885.79731,-32820.45219,-42728.8464,-58168.64916,-29979.88075,-53681.71527,0.024,0.884,0.39,192,0,0,0,0,0,0,0,0,0,1.71E+09,0, 2024-03-15 14:25:14.025
238,-64220.51808,-49218.29542,-51819.07735,-32753.08403,-42663.91458,-58121.73285,-29926.57184,-53612.44722,0.024,0.884,0.39,192,0,0,0,0,0,0,0,0,0,1.71E+09,0, 2024-03-15 14:25:14.025
239,-64287.61802,-49274.75593,-51877.19189,-32812.83025,-42713.98249,-58149.00197,-29923.97903,-53619.24215,0.024,0.884,0.39,192,0,0,0,0,0,0,0,0,0,1.71E+09,0, 2024-03-15 14:25:14.025
240,-64382.16589,-49363.13473,-51970.46572,-32911.53555,-42800.68491,-58214.58199,-29974.22576,-53666.71725,0.024,0.884,0.39,192,0,0,0,0,0,0,0,0,0,1.71E+09,0, 2024-03-15 14:25:14.025
241,-64386.79271,-49372.05307,-51979.8311,-32925.21482,-42809.55855,-58237.0455,-30009.89914,-53698.0991,0.026,0.882,0.388,192,0,208,27,144,12,32,0,0,0,1.71E+09,0, 2024-03-15 14:25:14.025
242,-64293.27301,-49287.63053,-51886.78078,-32832.32097,-42721.55973,-58184.49654,-29969.64365,-53654.84847,0.026,0.882,0.388,192,0,0,0,0,0,0,0,0,0,1.71E+09,0, 2024-03-15 14:25:14.025
243,-64228.76587,-49226.56557,-51815.61283,-32761.22007,-42656.20323,-58136.37324,-29911.37265,-53625.79121,0.026,0.882,0.388,192,0,0,0,0,0,0,0,0,0,1.71E+09,0, 2024-03-15 14:25:14.025
244,-64292.02131,-49279.40509,-51874.01794,-32817.9488,-42708.66277,-58161.00486,-29916.06652,-53641.01275,0.026,0.882,0.388,192,0,0,0,0,0,0,0,0,0,1.71E+09,0, 2024-03-15 14:25:14.025
245,-64387.82089,-49369.34851,-51975.07018,-32917.72698,-42803.94826,-58223.43328,-29978.62905,-53690.85714,0.026,0.882,0.388,192,0,0,0,0,0,0,0,0,0,1.71E+09,0, 2024-03-15 14:25:14.025
246,-64390.83837,-49377.21632,-51980.12167,-32924.9913,-42809.75971,-58233.42451,-30001.76311,-53675.85911,0.026,0.882,0.388,192,0,0,0,0,0,0,0,0,0,1.71E+09,0, 2024-03-15 14:25:14.025
247,-64300.06794,-49294.80544,-51887.58545,-32832.27626,-42723.83961,-58178.14865,-29965.35211,-53609.51914,0.026,0.882,0.388,192,0,0,0,0,0,0,0,0,0,1.71E+09,0, 2024-03-15 14:25:14.025
248,-64236.38782,-49231.95234,-51814.15997,-32756.72737,-42653.63278,-58122.38105,-29909.47275,-53562.51342,0.026,0.882,0.388,192,0,0,0,0,0,0,0,0,0,1.71E+09,0, 2024-03-15 14:25:14.025
249,-64302.14665,-49285.84239,-51872.1851,-32812.45027,-42705.08649,-58147.12443,-29907.66226,-53629.5463,0.026,0.882,0.388,192,0,0,0,0,0,0,0,0,0,1.71E+09,0, 2024-03-15 14:25:14.025
250,-64398.81794,-49373.79651,-51971.02451,-32909.92622,-42796.66159,-58208.68113,-29964.90508,-53705.36342,0.026,0.882,0.388,192,0,0,0,0,0,0,0,0,0,1.71E+09,0, 2024-03-15 14:25:14.025
251,-64401.29899,-49380.18911,-51983.83206,-32920.23038,-42809.49149,-58221.46633,-29998.41034,-53689.47133,0.026,0.882,0.388,192,0,0,0,0,0,0,0,0,0,1.71E+09,0, 2024-03-15 14:25:14.025
252,-64308.53925,-49298.26996,-51896.74966,-32832.74565,-42729.56165,-58170.79492,-29972.14704,-53639.64929,0.024,0.884,0.392,192,0,192,27,160,12,64,0,0,0,1.71E+09,0, 2024-03-15 14:25:14.025
253,-64243.62978,-49233.87459,-51828.77801,-32758.18023,-42664.89806,-58113.23918,-29922.90615,-53535.06548,0.024,0.884,0.392,192,0,0,0,0,0,0,0,0,0,1.71E+09,0, 2024-03-15 14:25:14.025
254,-64305.11943,-49284.36718,-51881.41637,-32810.57272,-42709.98153,-58136.59676,-29909.62921,-53575.54449,0.024,0.884,0.392,192,0,0,0,0,0,0,0,0,0,1.71E+09,0, 2024-03-15 14:25:14.025
255,-64397.23097,-49369.50497,-51969.86222,-32900.42673,-42794.8064,-58195.13597,-29960.27827,-53655.40727,0.024,0.884,0.392,192,0,0,0,0,0,0,0,0,0,1.71E+09,0, 2024-03-15 14:25:14.025
0,-64397.20862,-49378.37862,-51978.89232,-32911.31203,-42808.82094,-58214.09025,-30000.19848,-53704.96109,0.024,0.884,0.392,192,0,0,0,0,0,0,0,0,0,1.71E+09,0, 2024-03-15 14:25:14.025
1,-64304.82886,-49300.37103,-51894.15686,-32825.88367,-42732.22151,-58168.40329,-29979.59018,-53670.74057,0.024,0.884,0.392,192,0,0,0,0,0,0,0,0,0,1.71E+09,0, 2024-03-15 14:25:14.025
2,-64245.77555,-49238.18847,-51824.28531,-32751.80998,-42666.55209,-58114.66969,-29927.55531,-53599.79613,0.024,0.884,0.392,192,0,0,0,0,0,0,0,0,0,1.71E+09,0, 2024-03-15 14:25:14.025
3,-64306.14761,-49288.34579,-51877.66127,-32801.05088,-42715.05537,-58135.00978,-29924.69429,-53595.07991,0.024,0.884,0.392,192,0,0,0,0,0,0,0,0,0,1.71E+09,0, 2024-03-15 14:25:14.025
4,-64398.39326,-49376.03168,-51975.51721,-32900.42673,-42808.53037,-58204.479,-29985.55809,-53687.14675,0.024,0.884,0.392,192,0,0,0,0,0,0,0,0,0,1.71E+09,0, 2024-03-15 14:25:14.025
5,-64395.30872,-49379.33974,-51979.67463,-32908.74158,-42815.21354,-58219.56643,-30017.36462,-53698.25556,0.024,0.884,0.392,192,0,0,0,0,0,0,0,0,0,1.71E+09,0, 2024-03-15 14:25:14.025
6,-64302.07959,-49296.48182,-51889.41829,-32818.75346,-42733.60732,-58168.09036,-29986.85449,-53633.50256,0.024,0.888,0.392,192,0,192,27,192,12,64,0,0,0,1.71E+09,0, 2024-03-15 14:25:14.025
7,-64242.15457,-49239.01549,-51821.11136,-32751.02767,-42667.17794,-58124.3033,-29930.12576,-53582.42882,0.024,0.888,0.392,192,0,0,0,0,0,0,0,0,0,1.71E+09,0, 2024-03-15 14:25:14.025
8,-64304.0242,-49291.6762,-51876.92367,-32808.20344,-42715.68122,-58153.44997,-29927.68942,-53615.71057,0.024,0.888,0.392,192,0,0,0,0,0,0,0,0,0,1.71E+09,0, 2024-03-15 14:25:14.025
9,-64398.70619,-49378.8033,-51976.076,-32909.45684,-42807.92687,-58222.62862,-29983.32292,-53710.2361,0.024,0.888,0.392,192,0,0,0,0,0,0,0,0,0,1.71E+09,0, 2024-03-15 14:25:14.025
10,-64400.76255,-49387.27461,-51988.48122,-32925.10306,-42823.57309,-58244.51098,-30021.09736,-53740.81328,0.024,0.888,0.392,192,0,0,0,0,0,0,0,0,0,1.71E+09,0, 2024-03-15 14:25:14.025
11,-64307.77929,-49306.406,-51896.97318,-32832.56684,-42738.59176,-58190.10683,-29984.84284,-53662.8951,0.024,0.888,0.392,192,0,0,0,0,0,0,0,0,0,1.71E+09,0, 2024-03-15 14:25:14.025
12,-64236.07489,-49234.83571,-51812.43888,-32746.31146,-42657.20906,-58123.07395,-29919.7322,-53591.16835,0.024,0.888,0.392,192,0,0,0,0,0,0,0,0,0,1.71E+09,0, 2024-03-15 14:25:14.025
13,-64298.34685,-49286.17767,-51864.74196,-32799.3745,-42703.38776,-58144.8222,-29916.75942,-53629.68041,0.024,0.888,0.392,192,0,0,0,0,0,0,0,0,0,1.71E+09,0, 2024-03-15 14:25:14.025
14,-64392.40299,-49373.0142,-51964.05077,-32898.32567,-42800.81902,-58210.20105,-29976.84091,-53723.20011,0.024,0.888,0.392,192,0,0,0,0,0,0,0,0,0,1.71E+09,0, 2024-03-15 14:25:14.025
15,-64389.92195,-49376.65753,-51970.68923,-32906.10408,-42807.27867,-58222.44981,-30009.45211,-53719.35561,0.024,0.888,0.392,192,0,0,0,0,0,0,0,0,0,1.71E+09,0, 2024-03-15 14:25:14.025
16,-64299.12916,-49297.26413,-51882.35514,-32815.4007,-42724.75603,-58163.79883,-29977.06443,-53622.32669,0.024,0.884,0.39,192,0,192,27,160,12,48,0,0,0,1.71E+09,0, 2024-03-15 14:25:14.025
17,-64241.41696,-49239.37312,-51815.43402,-32743.47278,-42658.68427,-58107.62889,-29924.11315,-53545.77196,0.024,0.884,0.39,192,0,0,0,0,0,0,0,0,0,1.71E+09,0, 2024-03-15 14:25:14.025
18,-64309.34391,-49295.29718,-51873.88383,-32803.8672,-42707.1205,-58136.86498,-29917.63114,-53607.46278,0.024,0.884,0.39,192,0,0,0,0,0,0,0,0,0,1.71E+09,0, 2024-03-15 14:25:14.025
19,-64404.89762,-49381.37375,-51970.95745,-32900.65025,-42796.48278,-58197.37115,-29970.13539,-53689.58309,0.024,0.884,0.39,192,0,0,0,0,0,0,0,0,0,1.71E+09,0, 2024-03-15 14:25:14.025
20,-64401.81308,-49383.07248,-51977.39476,-32906.66287,-42804.66352,-58206.64712,-30003.5736,-53692.31,0.024,0.884,0.39,192,0,0,0,0,0,0,0,0,0,1.71E+09,0, 2024-03-15 14:25:14.025
21,-64313.6578,-49303.32146,-51889.12772,-32819.15579,-42725.49364,-58156.13218,-29977.17619,-53630.61918,0.024,0.884,0.39,192,0,0,0,0,0,0,0,0,0,1.71E+09,0, 2024-03-15 14:25:14.025
22,-64255.4315,-49242.52471,-51819.43498,-32748.47957,-42659.44423,-58106.35485,-29923.30848,-53585.22279,0.024,0.884,0.39,192,0,0,0,0,0,0,0,0,0,1.71E+09,0, 2024-03-15 14:25:14.025
23,-64311.57909,-49287.40702,-51870.70988,-32797.13932,-42704.03596,-58124.14683,-29922.21325,-53593.6047,0.024,0.884,0.39,192,0,0,0,0,0,0,0,0,0,1.71E+09,0, 2024-03-15 14:25:14.025
24,-64406.19402,-49372.52246,-51971.42684,-32896.7834,-42800.26022,-58189.0116,-29978.31613,-53673.15455,0.024,0.884,0.39,192,0,0,0,0,0,0,0,0,0,1.71E+09,0, 2024-03-15 14:25:14.025
25,-64404.36118,-49375.87522,-51982.91564,-32907.78046,-42813.33599,-58206.66947,-30013.27425,-53709.16321,0.024,0.884,0.39,192,0,0,0,0,0,0,0,0,0,1.71E+09,0, 2024-03-15 14:25:14.025
26,-64311.35557,-49294.13489,-51895.14034,-32819.37931,-42735.44016,-58158.63558,-29993.56002,-53684.35278,0.028,0.884,0.39,192,0,224,27,160,12,48,0,0,0,1.71E+09,0, 2024-03-15 14:25:14.025
27,-64251.74347,-49237.69674,-51827.10163,-32750.87121,-42671.24595,-58112.8145,-29943.69327,-53633.41315,0.028,0.884,0.39,192,0,0,0,0,0,0,0,0,0,1.71E+09,0, 2024-03-15 14:25:14.025
28,-64316.07179,-49290.96094,-51881.34931,-32804.49305,-42711.54615,-58136.01561,-29936.29485,-53628.58518,0.028,0.884,0.39,192,0,0,0,0,0,0,0,0,0,1.71E+09,0, 2024-03-15 14:25:14.025
29,-64406.41754,-49375.49524,-51974.71255,-32899.57737,-42793.97938,-58198.73461,-29984.21699,-53686.63266,0.028,0.884,0.39,192,0,0,0,0,0,0,0,0,0,1.71E+09,0, 2024-03-15 14:25:14.025
30,-64410.73142,-49386.08997,-51986.76014,-32915.78238,-42810.00558,-58222.29334,-30025.76888,-53705.02814,0.028,0.884,0.39,192,0,0,0,0,0,0,0,0,0,1.71E+09,0, 2024-03-15 14:25:14.025
31,-64320.18451,-49305.35547,-51895.07328,-32825.14606,-42725.67245,-58170.28083,-29990.05079,-53617.56577,0.028,0.884,0.39,192,0,0,0,0,0,0,0,0,0,1.71E+09,0, 2024-03-15 14:25:14.025
32,-64252.12345,-49239.12725,-51812.99768,-32743.85276,-42646.63668,-58111.00401,-29927.51061,-53538.77587,0.028,0.884,0.39,192,0,0,0,0,0,0,0,0,0,1.71E+09,0, 2024-03-15 14:25:14.025
33,-64314.59657,-49293.5761,-51867.02184,-32800.89442,-42692.88244,-58140.03892,-29924.69429,-53568.28017,0.028,0.884,0.39,192,0,0,0,0,0,0,0,0,0,1.71E+09,0, 2024-03-15 14:25:14.025
34,-64405.45641,-49381.95489,-51964.52015,-32902.34898,-42784.30108,-58209.75402,-29979.50077,-53670.91938,0.028,0.884,0.39,192,0,0,0,0,0,0,0,0,0,1.71E+09,0, 2024-03-15 14:25:14.025
35,-64407.49042,-49389.62154,-51976.56774,-32917.92815,-42799.3438,-58233.31275,-30006.1217,-53720.71907,0.028,0.884,0.39,192,0,0,0,0,0,0,0,0,0,1.71E+09,0, 2024-03-15 14:25:14.025
36,-64331.82977,-49320.59936,-51901.46588,-32843.85447,-42729.91928,-58197.48291,-29991.90599,-53687.75024,0.026,0.888,0.392,192,0,208,27,192,12,64,0,0,0,1.71E+09,0, 2024-03-15 14:25:14.025
37,-64263.81341,-49252.22537,-51820.03848,-32762.33766,-42646.63668,-58135.47917,-29927.77883,-53598.56678,0.026,0.888,0.392,192,0,0,0,0,0,0,0,0,0,1.71E+09,0, 2024-03-15 14:25:14.025
38,-64326.66651,-49304.03671,-51871.31338,-32814.66309,-42690.20023,-58157.0486,-29917.29586,-53618.0575,0.026,0.888,0.392,192,0,0,0,0,0,0,0,0,0,1.71E+09,0, 2024-03-15 14:25:14.025
39,-64423.00253,-49392.34846,-51971.35979,-32914.48598,-42784.94928,-58222.80743,-29969.08486,-53701.8989,0.026,0.888,0.392,192,0,0,0,0,0,0,0,0,0,1.71E+09,0, 2024-03-15 14:25:14.025
40,-64423.22605,-49397.89169,-51982.22273,-32924.9913,-42800.28257,-58238.05132,-30004.33356,-53726.75404,0.026,0.888,0.392,192,0,0,0,0,0,0,0,0,0,1.71E+09,0, 2024-03-15 14:25:14.025
41,-64336.27776,-49318.92297,-51900.72827,-32840.4123,-42727.12531,-58190.75503,-29985.17811,-53682.05055,0.026,0.888,0.392,192,0,0,0,0,0,0,0,0,0,1.71E+09,0, 2024-03-15 14:25:14.025
42,-64272.0165,-49255.68989,-51832.55545,-32767.52326,-42663.5346,-58140.10598,-29940.47462,-53643.98553,0.026,0.888,0.392,192,0,0,0,0,0,0,0,0,0,1.71E+09,0, 2024-03-15 14:25:14.025
43,-64328.23114,-49302.6062,-51882.5116,-32814.05959,-42704.84062,-58154.58991,-29925.87893,-53649.93109,0.026,0.888,0.392,192,0,0,0,0,0,0,0,0,0,1.71E+09,0, 2024-03-15 14:25:14.025
44,-64417.36989,-49384.86062,-51972.56678,-32900.15851,-42787.92206,-58199.3381,-29973.95754,-53659.76586,0.026,0.888,0.392,192,0,0,0,0,0,0,0,0,0,1.71E+09,0, 2024-03-15 14:25:14.025
45,-64419.38155,-49391.14146,-51983.87676,-32909.97093,-42803.233,-58211.74332,-30009.25094,-53691.97472,0.026,0.888,0.392,192,0,0,0,0,0,0,0,0,0,1.71E+09,0, 2024-03-15 14:25:14.025
46,-64327.89586,-49307.83651,-51896.5485,-32816.96532,-42726.38771,-58152.89118,-29986.67568,-53613.76597,0.03,0.888,0.386,192,0,240,27,192,12,16,0,0,0,1.71E+09,0, 2024-03-15 14:25:14.025
47,-64266.62973,-49247.91148,-51824.55353,-32742.60107,-42653.69983,-58098.41998,-29936.87599,-53547.15777,0.03,0.888,0.386,192,0,0,0,0,0,0,0,0,0,1.71E+09,0, 2024-03-15 14:25:14.025
48,-64325.43717,-49296.14655,-51878.6671,-32794.85944,-42700.45968,-58122.98454,-29929.05288,-53609.92147,0.03,0.888,0.386,192,0,0,0,0,0,0,0,0,0,1.71E+09,0, 2024-03-15 14:25:14.025
49,-64421.63908,-49385.08414,-51979.62993,-32895.64346,-42796.23691,-58190.73268,-29985.93807,-53699.64137,0.03,0.888,0.386,192,0,0,0,0,0,0,0,0,0,1.71E+09,0, 2024-03-15 14:25:14.025
50,-64419.96269,-49391.0297,-51983.09445,-32901.67843,-42803.59063,-58198.42168,-30014.07892,-53669.86885,0.03,0.888,0.386,192,0,0,0,0,0,0,0,0,0,1.71E+09,0, 2024-03-15 14:25:14.025
51,-64325.32541,-49305.53428,-51891.13938,-32806.63881,-42721.04564,-58140.62007,-29988.44147,-53604.5794,0.03,0.888,0.386,192,0,0,0,0,0,0,0,0,0,1.71E+09,0, 2024-03-15 14:25:14.025
52,-64258.51604,-49240.42365,-51817.8033,-32730.88875,-42651.9564,-58087.82525,-29939.26763,-53560.07708,0.03,0.888,0.386,192,0,0,0,0,0,0,0,0,0,1.71E+09,0, 2024-03-15 14:25:14.025
53,-64314.68598,-49288.21168,-51868.25119,-32784.6894,-42697.28574,-58114.0662,-29931.01983,-53599.97494,0.03,0.888,0.386,192,0,0,0,0,0,0,0,0,0,1.71E+09,0, 2024-03-15 14:25:14.025
54,-64410.97729,-49381.17258,-51969.34813,-32891.79896,-42792.43711,-58189.101,-29980.97598,-53679.32364,0.03,0.888,0.386,192,0,0,0,0,0,0,0,0,0,1.71E+09,0, 2024-03-15 14:25:14.025
55,-64425.34947,-49403.72549,-51998.13718,-32926.04183,-42823.08135,-58230.71995,-30023.42195,-53737.03584,0.03,0.888,0.386,192,0,0,0,0,0,0,0,0,0,1.71E+09,0, 2024-03-15 14:25:14.025
56,-64336.0766,-49323.63919,-51914.80987,-32843.07216,-42750.25937,-58184.5189,-30014.01186,-53674.49566,0.024,0.882,0.388,192,0,192,27,144,12,32,0,0,0,1.71E+09,0, 2024-03-15 14:25:14.025
57,-64261.06414,-49249.20788,-51829.09093,-32760.30365,-42664.20515,-58120.65996,-29949.70589,-53579.27723,0.024,0.882,0.388,192,0,0,0,0,0,0,0,0,0,1.71E+09,0, 2024-03-15 14:25:14.025
58,-64322.75496,-49301.73448,-51881.50577,-32816.20536,-42708.9757,-58147.07972,-29931.42217,-53610.39086,0.024,0.882,0.388,192,0,0,0,0,0,0,0,0,0,1.71E+09,0, 2024-03-15 14:25:14.025
59,-64432.61378,-49408.37466,-51991.29754,-32931.3392,-42812.1737,-58229.82588,-29990.09549,-53719.15444,0.024,0.882,0.388,192,0,0,0,0,0,0,0,0,0,1.71E+09,0, 2024-03-15 14:25:14.025
60,-64443.81201,-49426.16664,-52004.2392,-32949.19824,-42828.33401,-58252.15527,-30024.56188,-53698.56849,0.024,0.882,0.388,192,0,0,0,0,0,0,0,0,0,1.71E+09,0, 2024-03-15 14:25:14.025
61,-64352.16985,-49344.2028,-51910.0266,-32857.35492,-42747.62186,-58197.70642,-30003.86417,-53621.99141,0.024,0.882,0.388,192,0,0,0,0,0,0,0,0,0,1.71E+09,0, 2024-03-15 14:25:14.025
62,-64278.27499,-49270.26323,-51823.14537,-32768.93142,-42664.87571,-58130.91941,-29942.0616,-53559.83121,0.024,0.882,0.388,192,0,0,0,0,0,0,0,0,0,1.71E+09,0, 2024-03-15 14:25:14.025
63,-64333.72966,-49316.59839,-51871.29103,-32816.63004,-42699.9903,-58152.04181,-29925.02957,-53617.63282,0.024,0.882,0.388,192,0,0,0,0,0,0,0,0,0,1.71E+09,0, 2024-03-15 14:25:14.025
64,-64431.5409,-49409.91693,-51978.91468,-32921.90676,-42794.09114,-58224.97555,-29979.03138,-53706.25749,0.024,0.882,0.388,192,0,0,0,0,0,0,0,0,0,1.71E+09,0, 2024-03-15 14:25:14.025
65,-64434.06665,-49417.49417,-51992.03515,-32931.22744,-42807.12221,-58237.38077,-30012.80487,-53695.97568,0.024,0.882,0.388,192,0,0,0,0,0,0,0,0,0,1.71E+09,0, 2024-03-15 14:25:14.025
66,-64333.5732,-49323.14745,-51891.07232,-32825.45898,-42714.49658,-58165.43051,-29975.11983,-53601.02547,0.026,0.884,0.388,192,0,208,27,160,12,32,0,0,0,1.71E+09,0, 2024-03-15 14:25:14.025
67,-64260.34889,-49248.00089,-51804.07933,-32737.01313,-42629.87287,-58098.19646,-29917.94406,-53541.86041,0.026,0.884,0.388,192,0,0,0,0,0,0,0,0,0,1.71E+09,0, 2024-03-15 14:25:14.025
68,-64320.67625,-49297.19708,-51856.8518,-32788.13157,-42677.6609,-58119.94471,-29915.44067,-53586.54154,0.026,0.884,0.388,192,0,0,0,0,0,0,0,0,0,1.71E+09,0, 2024-03-15 14:25:14.025
69,-64427.1376,-49396.52823,-51965.36952,-32898.83976,-42778.75784,-58195.71712,-29963.2287,-53681.73762,0.026,0.884,0.388,192,0,0,0,0,0,0,0,0,0,1.71E+09,0, 2024-03-15 14:25:14.025
70,-64438.15701,-49410.60983,-51985.26257,-32918.10696,-42802.74127,-58218.5159,-30004.87,-53714.50528,0.026,0.884,0.388,192,0,0,0,0,0,0,0,0,0,1.71E+09,0, 2024-03-15 14:25:14.025
71,-64345.19611,-49323.01334,-51890.93821,-32818.77581,-42721.67149,-58154.96989,-29989.46965,-53620.82912,0.026,0.884,0.388,192,0,0,0,0,0,0,0,0,0,1.71E+09,0, 2024-03-15 14:25:14.025
72,-64271.27889,-49246.74919,-51802.64882,-32725.27846,-42640.15468,-58082.32672,-29932.58446,-53518.43578,0.026,0.884,0.388,192,0,0,0,0,0,0,0,0,0,1.71E+09,0, 2024-03-15 14:25:14.025
73,-64325.77244,-49289.75395,-51851.97912,-32770.09371,-42682.8018,-58101.21394,-29922.54852,-53559.36182,0.026,0.884,0.388,192,0,0,0,0,0,0,0,0,0,1.71E+09,0, 2024-03-15 14:25:14.025
74,-64425.59533,-49383.92185,-51961.3462,-32876.64448,-42782.98232,-58177.05341,-29973.62226,-53657.19541,0.026,0.884,0.388,192,0,0,0,0,0,0,0,0,0,1.71E+09,0, 2024-03-15 14:25:14.507
75,-64434.67014,-49398.69635,-51986.93895,-32898.95152,-42809.98323,-58207.00475,-30019.75626,-53709.49849,0.026,0.884,0.388,192,0,0,0,0,0,0,0,0,0,1.71E+09,0, 2024-03-15 14:25:14.507
76,-64342.71507,-49312.41862,-51899.7448,-32806.75057,-42735.01548,-58148.44318,-30005.62996,-53633.25669,0.026,0.886,0.39,192,0,208,27,176,12,48,0,0,0,1.71E+09,0, 2024-03-15 14:25:14.507
77,-64263.85811,-49233.71813,-51811.94714,-32718.10355,-42649.07302,-58078.19165,-29947.62718,-53549.5047,0.026,0.886,0.39,192,0,0,0,0,0,0,0,0,0,1.71E+09,0, 2024-03-15 14:25:14.507
78,-64318.8434,-49282.19906,-51862.99853,-32772.77592,-42693.15066,-58105.52783,-29934.05967,-53611.32963,0.026,0.886,0.39,192,0,0,0,0,0,0,0,0,0,1.71E+09,0, 2024-03-15 14:25:14.507
79,-64418.57689,-49381.61962,-51969.07991,-32885.58518,-42791.18541,-58186.88818,-29979.12079,-53715.26524,0.026,0.886,0.39,192,0,0,0,0,0,0,0,0,0,1.71E+09,0, 2024-03-15 14:25:14.507
80,-64432.12204,-49405.04425,-51992.14691,-32912.40727,-42816.53229,-58218.94058,-30026.6853,-53712.8736,0.026,0.886,0.39,192,0,0,0,0,0,0,0,0,0,1.71E+09,0, 2024-03-15 14:25:14.507
81,-64336.166,-49319.05709,-51895.52032,-32818.6417,-42729.20403,-58160.82605,-30002.59012,-53615.17413,0.026,0.886,0.39,192,0,0,0,0,0,0,0,0,0,1.71E+09,0, 2024-03-15 14:25:14.507
82,-64254.06805,-49235.23804,-51797.41851,-32724.58556,-42635.39375,-58091.0439,-29925.45425,-53543.51444,0.026,0.886,0.39,192,0,0,0,0,0,0,0,0,0,1.71E+09,0, 2024-03-15 14:25:14.507
83,-64316.00473,-49289.06104,-51850.81683,-32785.24819,-42683.31589,-58128.37131,-29921.69916,-53601.91954,0.026,0.886,0.39,192,0,0,0,0,0,0,0,0,0,1.71E+09,0, 2024-03-15 14:25:14.507
84,-64422.06376,-49390.24739,-51960.74271,-32899.80088,-42785.39631,-58210.91631,-29973.04111,-53677.73666,0.026,0.886,0.39,192,0,0,0,0,0,0,0,0,0,1.71E+09,0, 2024-03-15 14:25:14.507
85,-64431.74206,-49403.61373,-51980.34519,-32921.70559,-42803.12125,-58238.96775,-30011.06143,-53712.04659,0.026,0.886,0.39,192,0,0,0,0,0,0,0,0,0,1.71E+09,0, 2024-03-15 14:25:14.507
86,-64345.30787,-49322.18633,-51897.37551,-32834.37733,-42726.83474,-58190.17389,-29996.59985,-53668.46069,0.028,0.882,0.392,192,0,224,27,144,12,64,0,0,0,1.71E+09,0, 2024-03-15 14:25:14.507
87,-64263.25461,-49239.1049,-51807.99089,-32739.31536,-42640.69112,-58117.82129,-29933.99262,-53597.69506,0.028,0.882,0.392,192,0,0,0,0,0,0,0,0,0,1.71E+09,0, 2024-03-15 14:25:14.507
88,-64317.63641,-49288.5246,-51855.51069,-32788.71271,-42679.67256,-58139.81541,-29917.72055,-53623.17605,0.028,0.882,0.392,192,0,0,0,0,0,0,0,0,0,1.71E+09,0, 2024-03-15 14:25:14.507
89,-64420.45443,-49388.79453,-51962.35203,-32896.15755,-42776.41091,-58211.63156,-29962.89342,-53694.32166,0.028,0.882,0.392,192,0,0,0,0,0,0,0,0,0,1.71E+09,0, 2024-03-15 14:25:14.507
90,-64440.95098,-49416.86832,-51993.2645,-32928.45582,-42808.15039,-58245.4274,-30004.73589,-53735.56062,0.028,0.882,0.392,192,0,0,0,0,0,0,0,0,0,1.71E+09,0, 2024-03-15 14:25:14.507
91,-64356.26022,-49341.74411,-51911.30065,-32844.79324,-42739.48583,-58198.26522,-30005.89818,-53691.50534,0.028,0.882,0.392,192,0,0,0,0,0,0,0,0,0,1.71E+09,0, 2024-03-15 14:25:14.507
92,-64261.31001,-49246.72684,-51801.71005,-32731.42519,-42639.01474,-58107.45008,-29942.03924,-53564.25685,0.028,0.882,0.392,192,0,0,0,0,0,0,0,0,0,1.71E+09,0, 2024-03-15 14:25:14.507
93,-64307.89105,-49280.20975,-51832.17547,-32763.27643,-42663.31108,-58110.51227,-29913.31725,-53574.60571,0.028,0.882,0.392,192,0,0,0,0,0,0,0,0,0,1.71E+09,0, 2024-03-15 14:25:14.507
94,-64420.58854,-49389.1298,-51946.05761,-32885.40636,-42766.41968,-58194.17485,-29959.87594,-53701.63068,0.028,0.882,0.392,192,0,0,0,0,0,0,0,0,0,1.71E+09,0, 2024-03-15 14:25:14.507
95,-64437.30765,-49414.76726,-51972.63384,-32918.91163,-42797.91329,-58225.89197,-30002.41131,-53753.46437,0.028,0.882,0.392,192,0,0,0,0,0,0,0,0,0,1.71E+09,0, 2024-03-15 14:25:14.507
96,-64341.48572,-49325.22617,-51875.22493,-32818.32878,-42714.54128,-58154.94754,-29986.72038,-53643.15851,0.026,0.886,0.394,192,0,208,27,176,12,80,0,0,0,1.71E+09,0, 2024-03-15 14:25:14.507
97,-64249.21772,-49231.99704,-51771.04345,-32707.66529,-42618.78641,-58065.31704,-29924.7837,-53506.25408,0.026,0.886,0.394,192,0,0,0,0,0,0,0,0,0,1.71E+09,0, 2024-03-15 14:25:14.507
98,-64300.09029,-49270.77732,-51820.32905,-32752.39113,-42661.47824,-58081.76793,-29914.32308,-53545.25787,0.026,0.886,0.394,192,0,0,0,0,0,0,0,0,0,1.71E+09,0, 2024-03-15 14:25:14.507
99,-64415.40294,-49379.63031,-51949.1645,-32879.12552,-42779.98719,-58169.56558,-29961.77583,-53691.17006,0.026,0.886,0.394,192,0,0,0,0,0,0,0,0,0,1.71E+09,0, 2024-03-15 14:25:14.507
100,-64440.88393,-49409.13462,-51990.8058,-32919.55983,-42823.55074,-58208.61408,-30009.65327,-53763.00857,0.026,0.886,0.394,192,0,0,0,0,0,0,0,0,0,1.71E+09,0, 2024-03-15 14:25:14.507
101,-64350.29231,-49322.56631,-51904.70688,-32825.57074,-42747.71127,-58144.79985,-29999.21501,-53676.50732,0.026,0.886,0.394,192,0,0,0,0,0,0,0,0,0,1.71E+09,0, 2024-03-15 14:25:14.507
102,-64260.84063,-49230.87945,-51803.87816,-32718.77411,-42651.86699,-58063.03716,-29949.12475,-53572.34819,0.026,0.886,0.394,192,0,0,0,0,0,0,0,0,0,1.71E+09,0, 2024-03-15 14:25:14.507
103,-64308.58395,-49269.70443,-51845.2736,-32761.19772,-42686.89217,-58079.08572,-29929.45521,-53580.95361,0.026,0.886,0.394,192,0,0,0,0,0,0,0,0,0,1.71E+09,0, 2024-03-15 14:25:14.507
104,-64414.62063,-49374.19884,-51957.5017,-32882.94767,-42787.07269,-58164.53644,-29962.04406,-53671.47817,0.026,0.886,0.394,192,0,0,0,0,0,0,0,0,0,1.71E+09,0, 2024-03-15 14:25:14.507
105,-64439.98986,-49409.24637,-51996.28198,-32929.75222,-42825.42829,-58213.53146,-30005.60761,-53716.13696,0.026,0.886,0.394,192,0,0,0,0,0,0,0,0,0,1.71E+09,0, 2024-03-15 14:25:14.507
106,-64345.24081,-49324.35445,-51905.5339,-32840.68052,-42748.69475,-58161.47425,-29998.16447,-53654.82612,0.024,0.886,0.396,192,0,192,27,176,12,96,0,0,0,1.71E+09,0, 2024-03-15 14:25:14.507
107,-64248.41306,-49227.81726,-51797.50792,-32732.29691,-42649.94474,-58082.79611,-29937.0101,-53566.55908,0.024,0.886,0.396,192,0,0,0,0,0,0,0,0,0,1.71E+09,0, 2024-03-15 14:25:14.507
108,-64301.18552,-49270.15147,-51839.12687,-32775.86046,-42684.38878,-58104.96904,-29918.77108,-53580.79715,0.024,0.886,0.396,192,0,0,0,0,0,0,0,0,0,1.71E+09,0, 2024-03-15 14:25:14.507
109,-64412.16194,-49379.85383,-51958.35107,-32902.39369,-42794.33701,-58199.22634,-29965.30741,-53720.60731,0.024,0.886,0.396,192,0,0,0,0,0,0,0,0,0,1.71E+09,0, 2024-03-15 14:25:14.507
110,-64439.36401,-49419.43877,-51999.16536,-32951.52282,-42832.11146,-58252.64701,-30006.68049,-53807.62265,0.024,0.886,0.396,192,0,0,0,0,0,0,0,0,0,1.71E+09,0, 2024-03-15 14:25:14.507
111,-64351.09697,-49340.403,-51911.23359,-32862.69699,-42746.48192,-58198.35463,-30000.44435,-53723.22246,0.024,0.886,0.396,192,0,0,0,0,0,0,0,0,0,1.71E+09,0, 2024-03-15 14:25:14.507
112,-64252.21285,-49241.38477,-51800.86068,-32747.02671,-42641.96517,-58109.48409,-29940.31816,-53592.93414,0.024,0.886,0.396,192,0,0,0,0,0,0,0,0,0,1.71E+09,0, 2024-03-15 14:25:14.507
113,-64293.76475,-49272.67722,-51832.80132,-32778.27445,-42664.85335,-58116.03315,-29908.44457,-53597.38214,0.024,0.886,0.396,192,0,0,0,0,0,0,0,0,0,1.71E+09,0, 2024-03-15 14:25:14.507
114,-64416.02879,-49390.40385,-51961.79324,-32911.33438,-42781.32829,-58214.73845,-29961.84289,-53735.96296,0.024,0.886,0.396,192,0,0,0,0,0,0,0,0,0,1.71E+09,0, 2024-03-15 14:25:14.507
115,-64444.95194,-49425.04906,-52005.11092,-32954.42855,-42823.79661,-58258.59258,-30012.49194,-53798.83841,0.024,0.886,0.396,192,0,0,0,0,0,0,0,0,0,1.71E+09,0, 2024-03-15 14:25:14.507
116,-64351.40989,-49338.03372,-51911.52417,-32855.58913,-42737.58593,-58193.97368,-29987.56975,-53673.66864,0.026,0.886,0.394,192,0,208,27,176,12,80,0,0,0,1.71E+09,0, 2024-03-15 14:25:14.507
117,-64255.20799,-49244.49167,-51804.43696,-32744.948,-42639.23825,-58111.38399,-29928.89642,-53579.79132,0.026,0.886,0.394,192,0,0,0,0,0,0,0,0,0,1.71E+09,0, 2024-03-15 14:25:14.507
118,-64293.65299,-49276.9017,-51836.71288,-32777.71566,-42667.08853,-58118.42479,-29908.60103,-53606.83693,0.026,0.886,0.394,192,0,0,0,0,0,0,0,0,0,1.71E+09,0, 2024-03-15 14:25:14.507
119,-64403.10948,-49384.95003,-51954.216,-32897.92334,-42775.0251,-58196.54413,-29956.38906,-53689.1584,0.026,0.886,0.394,192,0,0,0,0,0,0,0,0,0,1.71E+09,0, 2024-03-15 14:25:14.507
120,-64433.75372,-49423.81971,-51999.50063,-32944.79495,-42820.39914,-58240.24179,-30005.42879,-53742.95905,0.026,0.886,0.394,192,0,0,0,0,0,0,0,0,0,1.71E+09,0, 2024-03-15 14:25:14.507
121,-64342.49155,-49339.77715,-51911.9712,-32852.86222,-42746.41487,-58182.84251,-29994.40938,-53674.3392,0.026,0.886,0.394,192,0,0,0,0,0,0,0,0,0,1.71E+09,0, 2024-03-15 14:25:14.507
122,-64250.8941,-49247.79972,-51810.159,-32744.88094,-42652.11286,-58103.91851,-29946.15197,-53598.16445,0.026,0.886,0.394,192,0,0,0,0,0,0,0,0,0,1.71E+09,0, 2024-03-15 14:25:14.507
123,-64291.95425,-49279.78507,-51841.76437,-32777.89447,-42678.42086,-58113.39564,-29924.15785,-53631.08857,0.026,0.886,0.394,192,0,0,0,0,0,0,0,0,0,1.71E+09,0, 2024-03-15 14:25:14.507
124,-64397.16392,-49379.71972,-51952.38315,-32891.6872,-42780.50128,-58189.25747,-29964.77097,-53729.99504,0.026,0.886,0.394,192,0,0,0,0,0,0,0,0,0,1.71E+09,0, 2024-03-15 14:25:14.507
125,-64430.9374,-49418.96938,-51999.18771,-32938.67057,-42825.80827,-58233.73744,-30014.86123,-53780.39822,0.026,0.886,0.394,192,0,0,0,0,0,0,0,0,0,1.71E+09,0, 2024-03-15 14:25:14.507
126,-64344.23498,-49338.59251,-51916.12863,-32851.85639,-42750.86287,-58183.69188,-30006.36756,-53712.06894,0.026,0.886,0.394,192,0,0,0,0,0,0,0,0,0,1.71E+09,0, 2024-03-15 14:25:14.507
127,-64248.90479,-49240.78128,-51808.68379,-32738.44364,-42648.73775,-58096.94476,-29943.15683,-53571.78939,0.026,0.888,0.394,192,0,208,27,192,12,80,0,0,0,1.71E+09,0, 2024-03-15 14:25:14.507
128,-64284.86875,-49268.69861,-51837.71871,-32768.90907,-42671.40242,-58102.30918,-29916.13357,-53576.93029,0.026,0.888,0.394,192,0,0,0,0,0,0,0,0,0,1.71E+09,0, 2024-03-15 14:25:14.507
129,-64408.11627,-49391.47674,-51966.93414,-32908.65218,-42788.81613,-58207.65295,-29969.75541,-53716.85221,0.026,0.888,0.394,192,0,0,0,0,0,0,0,0,0,1.71E+09,0, 2024-03-15 14:25:14.507
130,-64442.53796,-49436.85078,-52017.42673,-32966.25262,-42838.19113,-58268.69557,-30022.75139,-53810.61778,0.026,0.888,0.394,192,0,0,0,0,0,0,0,0,0,1.71E+09,0, 2024-03-15 14:25:14.507
131,-64353.55566,-49357.45738,-51933.40652,-32880.24311,-42765.41385,-58219.49938,-30010.27912,-53758.9629,0.026,0.888,0.394,192,0,0,0,0,0,0,0,0,0,1.71E+09,0, 2024-03-15 14:25:14.507
132,-64256.6385,-49261.65781,-51821.0443,-32765.57866,-42658.84073,-58133.46751,-29957.73017,-53621.2538,0.026,0.888,0.394,192,0,0,0,0,0,0,0,0,0,1.71E+09,0, 2024-03-15 14:25:14.507
133,-64296.11168,-49289.88806,-51846.68176,-32792.28899,-42678.84555,-58136.55205,-29926.66124,-53605.11584,0.026,0.888,0.394,192,0,0,0,0,0,0,0,0,0,1.71E+09,0, 2024-03-15 14:25:14.507
134,-64413.45834,-49403.79255,-51968.54347,-32919.35866,-42790.33605,-58228.95416,-29969.6213,-53725.85997,0.026,0.888,0.394,192,0,0,0,0,0,0,0,0,0,1.71E+09,0, 2024-03-15 14:25:14.507
135,-64442.35914,-49442.99751,-52007.74843,-32964.48683,-42829.02692,-58275.55755,-30014.12362,-53792.51287,0.026,0.888,0.394,192,0,0,0,0,0,0,0,0,0,1.71E+09,0, 2024-03-15 14:25:14.507
136,-64355.3438,-49366.88982,-51922.8118,-32878.07499,-42753.8133,-58225.84727,-30009.69797,-53724.92119,0.026,0.888,0.394,192,0,0,0,0,0,0,0,0,0,1.71E+09,0, 2024-03-15 14:25:14.507
137,-64255.52091,-49262.99891,-51810.31547,-32755.90035,-42650.32472,-58130.22651,-29950.42115,-53610.07793,0.026,0.888,0.402,192,0,208,27,192,12,144,0,0,0,1.71E+09,0, 2024-03-15 14:25:14.507
138,-64299.68796,-49295.92303,-51845.16184,-32786.81282,-42679.58315,-58134.92037,-29926.90711,-53617.87869,0.026,0.888,0.402,192,0,0,0,0,0,0,0,0,0,1.71E+09,0, 2024-03-15 14:25:14.507
139,-64414.06183,-49405.84891,-51962.01676,-32907.93692,-42782.44588,-58217.82299,-29963.98866,-53717.25455,0.026,0.888,0.402,192,0,0,0,0,0,0,0,0,0,1.71E+09,0, 2024-03-15 14:25:14.507
140,-64446.74008,-49445.5009,-52005.71442,-32954.27209,-42824.84714,-58261.76652,-30012.04491,-53770.16112,0.026,0.888,0.402,192,0,0,0,0,0,0,0,0,0,1.71E+09,0, 2024-03-15 14:25:14.507
141,-64353.60037,-49361.90538,-51917.53679,-32859.94772,-42745.27493,-58200.34393,-29991.86128,-53679.36834,0.026,0.888,0.402,192,0,0,0,0,0,0,0,0,0,1.71E+09,0, 2024-03-15 14:25:14.507
142,-64253.71042,-49260.49551,-51808.70614,-32741.88581,-42646.01083,-58110.98166,-29930.86337,-53577.0644,0.026,0.888,0.402,192,0,0,0,0,0,0,0,0,0,1.71E+09,0, 2024-03-15 14:25:14.507
143,-64296.82693,-49289.66454,-51841.16087,-32770.07136,-42672.07297,-58115.83198,-29914.09956,-53610.90495,0.026,0.888,0.402,192,0,0,0,0,0,0,0,0,0,1.71E+09,0, 2024-03-15 14:25:14.507
144,-64414.12889,-49399.9257,-51962.68731,-32895.15172,-42784.27872,-58203.62964,-29957.66311,-53748.63639,0.026,0.888,0.402,192,0,0,0,0,0,0,0,0,0,1.71E+09,0, 2024-03-15 14:25:14.507
145,-64452.97622,-49447.26669,-52016.86794,-32952.52865,-42837.34177,-58259.35254,-30014.63771,-53823.33592,0.026,0.888,0.402,192,0,0,0,0,0,0,0,0,0,1.71E+09,0, 2024-03-15 14:25:14.507
146,-64366.92201,-49369.72849,-51930.41139,-32863.76987,-42760.2953,-58202.57911,-30003.73006,-53732.38668,0.026,0.888,0.402,192,0,0,0,0,0,0,0,0,0,1.71E+09,0, 2024-03-15 14:25:14.507
147,-64264.9757,-49265.88229,-51813.33295,-32742.57871,-42653.11869,-58106.06427,-29941.92749,-53590.4084,0.028,0.888,0.396,192,0,224,27,192,12,96,0,0,0,1.71E+09,0, 2024-03-15 14:25:14.507
148,-64299.95618,-49290.26804,-51840.44562,-32768.14911,-42674.24109,-58107.69595,-29913.58547,-53598.07504,0.028,0.888,0.396,192,0,0,0,0,0,0,0,0,0,1.71E+09,0, 2024-03-15 14:25:14.507
149,-64413.77126,-49400.95388,-51961.59207,-32892.73773,-42786.29038,-58196.32062,-29958.84776,-53709.83377,0.028,0.888,0.396,192,0,0,0,0,0,0,0,0,0,1.71E+09,0, 2024-03-15 14:25:14.507
150,-64450.33872,-49442.97516,-52011.41411,-32941.86687,-42836.00066,-58242.36521,-30014.05657,-53726.35171,0.028,0.888,0.396,192,0,0,0,0,0,0,0,0,0,1.71E+09,0, 2024-03-15 14:25:14.507
151,-64360.68587,-49362.03949,-51927.72918,-32854.78447,-42762.1952,-58190.44211,-30008.82626,-53635.42481,0.028,0.888,0.396,192,0,0,0,0,0,0,0,0,0,1.71E+09,0, 2024-03-15 14:25:14.507
152,-64258.73956,-49261.23312,-51819.0997,-32742.98105,-42661.23237,-58113.10507,-29949.05769,-53568.43663,0.028,0.888,0.396,192,0,0,0,0,0,0,0,0,0,1.71E+09,0, 2024-03-15 14:25:14.507
153,-64287.68507,-49280.32151,-51841.60791,-32766.33862,-42678.9573,-58116.7037,-29920.13453,-53587.81559,0.028,0.888,0.396,192,0,0,0,0,0,0,0,0,0,1.71E+09,0, 2024-03-15 14:25:14.507
154,-64397.25332,-49388.10162,-51955.64651,-32889.45203,-42782.37883,-58203.49553,-29964.70391,-53696.42272,0.028,0.888,0.396,192,0,0,0,0,0,0,0,0,0,1.71E+09,0, 2024-03-15 14:25:14.507
155,-64437.03943,-49436.11317,-52006.56378,-32946.53838,-42834.19017,-58260.87245,-30020.87385,-53784.22037,0.028,0.888,0.396,192,0,0,0,0,0,0,0,0,0,1.71E+09,0, 2024-03-15 14:25:14.507
156,-64350.87345,-49358.3291,-51922.76709,-32860.84179,-42762.10579,-58211.81038,-30018.77278,-53723.1107,0.028,0.888,0.396,192,0,0,0,0,0,0,0,0,0,1.71E+09,0, 2024-03-15 14:25:14.507
157,-64252.25756,-49258.99795,-51812.90827,-32745.28328,-42660.74063,-58125.6444,-29962.98283,-53609.65325,0.024,0.886,0.396,192,0,192,27,176,12,96,0,0,0,1.71E+09,0, 2024-03-15 14:25:14.507
158,-64288.17681,-49284.52364,-51835.81881,-32768.95377,-42671.02244,-58126.40436,-29924.33666,-53618.90687,0.024,0.886,0.396,192,0,0,0,0,0,0,0,0,0,1.71E+09,0, 2024-03-15 14:25:14.507
159,-64406.81987,-49402.96553,-51957.09937,-32895.82227,-42777.99788,-58213.77733,-29964.77097,-53717.29925,0.024,0.886,0.396,192,0,0,0,0,0,0,0,0,0,1.71E+09,0, 2024-03-15 14:25:14.507
160,-64451.76923,-49454.10633,-52014.34219,-32952.97568,-42836.87238,-58267.51092,-30023.42195,-53785.04739,0.024,0.886,0.396,192,0,0,0,0,0,0,0,0,0,1.71E+09,0, 2024-03-15 14:25:14.507
161,-64361.44583,-49372.27659,-51929.8973,-32863.90398,-42764.11745,-58212.74915,-30015.37532,-53732.11846,0.024,0.886,0.396,192,0,0,0,0,0,0,0,0,0,1.71E+09,0, 2024-03-15 14:25:14.507
162,-64259.79009,-49273.28071,-51820.37375,-32750.15596,-42664.65219,-58130.53943,-29959.63007,-53642.75618,0.024,0.886,0.396,192,0,0,0,0,0,0,0,0,0,1.71E+09,0, 2024-03-15 14:25:14.507
163,-64293.76475,-49298.60524,-51843.3737,-32772.5524,-42682.93592,-58128.52778,-29925.76717,-53617.56577,0.024,0.886,0.396,192,0,0,0,0,0,0,0,0,0,1.71E+09,0, 2024-03-15 14:25:14.507
164,-64400.09199,-49396.7294,-51950.99735,-32881.87479,-42777.68496,-58195.04657,-29957.08197,-53675.23327,0.024,0.886,0.396,192,0,0,0,0,0,0,0,0,0,1.71E+09,0, 2024-03-15 14:25:14.507
165,-64438.04526,-49441.25407,-51999.45593,-32937.46357,-42822.63432,-58248.06491,-30004.9147,-53768.17182,0.024,0.886,0.396,192,0,0,0,0,0,0,0,0,0,1.71E+09,0, 2024-03-15 14:25:14.507
166,-64356.81902,-49368.76737,-51919.57079,-32857.93607,-42753.50037,-58201.81915,-30000.91374,-53723.33422,0.024,0.886,0.396,192,0,0,0,0,0,0,0,0,0,1.71E+09,0, 2024-03-15 14:25:14.507
167,-64257.39846,-49267.84924,-51808.48262,-32742.95869,-42653.07398,-58113.73092,-29944.76616,-53602.65715,0.026,0.892,0.392,192,0,208,27,224,12,64,0,0,0,1.71E+09,0, 2024-03-15 14:25:14.507
168,-64290.23317,-49289.44102,-51831.72844,-32767.50091,-42671.33536,-58113.79798,-29915.32891,-53619.01863,0.026,0.892,0.392,192,0,0,0,0,0,0,0,0,0,1.71E+09,0, 2024-03-15 14:25:14.507
169,-64411.53609,-49406.60887,-51957.38995,-32899.06328,-42777.70731,-58202.69086,-29964.05571,-53730.01739,0.026,0.892,0.392,192,0,0,0,0,0,0,0,0,0,1.71E+09,0, 2024-03-15 14:25:14.507
170,-64446.02483,-49447.4008,-52004.37331,-32947.23129,-42812.53133,-58243.43809,-30013.72129,-53749.66457,0.026,0.892,0.392,192,0,0,0,0,0,0,0,0,0,1.71E+09,0, 2024-03-15 14:25:14.507
171,-64355.12028,-49364.0735,-51916.44155,-32852.14697,-42729.02521,-58179.55681,-29997.13629,-53631.31209,0.026,0.892,0.392,192,0,0,0,0,0,0,0,0,0,1.71E+09,0, 2024-03-15 14:25:14.507
172,-64256.32557,-49265.85993,-51805.39808,-32737.28135,-42624.28494,-58095.5366,-29939.53585,-53550.59994,0.026,0.892,0.392,192,0,0,0,0,0,0,0,0,0,1.71E+09,0, 2024-03-15 14:25:14.507
173,-64295.70935,-49294.85015,-51834.00832,-32766.29392,-42648.42482,-58103.78439,-29914.43484,-53586.40743,0.026,0.892,0.392,192,0,0,0,0,0,0,0,0,0,1.71E+09,0, 2024-03-15 14:25:14.507
174,-64407.19985,-49400.70801,-51948.89628,-32884.46759,-42752.04751,-58183.64718,-29962.49109,-53683.99515,0.026,0.892,0.392,192,0,0,0,0,0,0,0,0,0,1.71E+09,0, 2024-03-15 14:25:14.507
175,-64442.40385,-49443.66806,-52000.64057,-32938.31294,-42803.25536,-58238.25249,-30023.04197,-53761.511,0.026,0.892,0.392,192,0,0,0,0,0,0,0,0,0,1.71E+09,0, 2024-03-15 14:25:14.507
176,-64355.27675,-49367.3145,-51919.99548,-32856.99729,-42731.14863,-58197.84054,-30012.53665,-53733.05723,0.026,0.892,0.392,192,0,0,0,0,0,0,0,0,0,1.71E+09,0, 2024-03-15 14:25:14.507
177,-64254.02334,-49267.73748,-51806.47097,-32738.77892,-42624.55316,-58112.09924,-29957.55136,-53599.3938,0.028,0.89,0.396,192,0,224,27,208,12,96,0,0,0,1.71E+09,0, 2024-03-15 14:25:14.507
178,-64287.79683,-49290.82683,-51825.13467,-32757.88966,-42632.48803,-58109.64055,-29923.08497,-53566.51438,0.028,0.89,0.396,192,0,0,0,0,0,0,0,0,0,1.71E+09,0, 2024-03-15 14:25:14.507
179,-64394.16878,-49392.03553,-51936.87104,-32872.28589,-42730.96981,-58186.19528,-29958.736,-53651.02633,0.028,0.89,0.396,192,0,0,0,0,0,0,0,0,0,1.71E+09,0, 2024-03-15 14:25:14.507
180,-64427.0482,-49432.26867,-51985.55314,-32924.16429,-42778.42257,-58238.49836,-30008.73685,-53735.33711,0.028,0.89,0.396,192,0,0,0,0,0,0,0,0,0,1.71E+09,0, 2024-03-15 14:25:14.507
181,-64346.20194,-49362.35241,-51911.88179,-32850.29177,-42715.07772,-58203.85315,-30013.67659,-53727.04461,0.028,0.89,0.396,192,0,0,0,0,0,0,0,0,0,1.71E+09,0, 2024-03-15 14:25:14.507
182,-64246.33434,-49262.95421,-51804.12403,-32737.28135,-42615.43365,-58123.0963,-29962.0217,-53652.81447,0.028,0.89,0.396,192,0,0,0,0,0,0,0,0,0,1.71E+09,0, 2024-03-15 14:25:14.507
183,-64279.83961,-49284.74716,-51826.36402,-32756.97324,-42631.95159,-58118.38008,-29930.34928,-53623.06429,0.028,0.89,0.396,192,0,0,0,0,0,0,0,0,0,1.71E+09,0, 2024-03-15 14:25:14.507
184,-64394.50406,-49394.74009,-51943.9789,-32877.6056,-42738.59176,-58197.95229,-29968.74958,-53680.08359,0.028,0.89,0.396,192,0,0,0,0,0,0,0,0,0,1.71E+09,0, 2024-03-15 14:25:14.507
185,-64427.40583,-49435.66614,-51988.66004,-32926.73474,-42777.90848,-58243.21458,-30007.99924,-53746.31181,0.028,0.89,0.396,192,0,0,0,0,0,0,0,0,0,1.71E+09,0, 2024-03-15 14:25:14.507
186,-64346.71603,-49366.82276,-51914.58636,-32849.4424,-42711.21087,-58200.05336,-30010.43558,-53701.67538,0.028,0.89,0.396,192,0,0,0,0,0,0,0,0,0,1.71E+09,0, 2024-03-15 14:25:14.507
187,-64256.6832,-49272.90073,-51806.11334,-32736.27552,-42609.93512,-58115.22849,-29951.42698,-53602.54539,0.03,0.892,0.396,192,0,240,27,224,12,96,0,0,0,1.71E+09,0, 2024-03-15 14:25:14.507
188,-64294.21178,-49295.34188,-51822.56422,-32754.00046,-42618.0488,-58107.80771,-29906.38821,-53584.37342,0.03,0.892,0.396,192,0,0,0,0,0,0,0,0,0,1.71E+09,0, 2024-03-15 14:25:14.507
189,-64410.03852,-49407.92762,-51942.6825,-32879.84078,-42724.28664,-58192.9455,-29946.35313,-53680.41887,0.03,0.892,0.396,192,0,0,0,0,0,0,0,0,0,1.71E+09,0, 2024-03-15 14:25:14.507
190,-64447.76826,-49454.82158,-51996.01376,-32938.35764,-42775.38273,-58247.05908,-29998.81268,-53751.40801,0.03,0.892,0.396,192,0,0,0,0,0,0,0,0,0,1.71E+09,0, 2024-03-15 14:25:14.507
191,-64366.47497,-49380.52438,-51918.47556,-32860.2383,-42706.87463,-58203.51788,-29995.70578,-53717.72393,0.03,0.892,0.396,192,0,0,0,0,0,0,0,0,0,1.71E+09,0, 2024-03-15 14:25:14.507
192,-64271.68122,-49279.65096,-51808.48262,-32743.20456,-42604.34718,-58116.36843,-29938.93235,-53609.56384,0.03,0.892,0.396,192,0,0,0,0,0,0,0,0,0,1.71E+09,0, 2024-03-15 14:25:14.507
193,-64310.08152,-49304.79667,-51834.65652,-32767.9703,-42624.30729,-58116.45783,-29912.02085,-53602.65715,0.03,0.892,0.396,192,0,0,0,0,0,0,0,0,0,1.71E+09,0, 2024-03-15 14:25:14.507
194,-64424.74597,-49414.16376,-51956.2053,-32890.30139,-42735.50722,-58197.92994,-29959.22774,-53701.00483,0.03,0.892,0.396,192,0,0,0,0,0,0,0,0,0,1.71E+09,0, 2024-03-15 14:25:14.507
195,-64458.94414,-49455.38037,-52007.05552,-32940.23519,-42785.50807,-58242.43227,-30011.59787,-53739.27101,0.03,0.892,0.396,192,0,0,0,0,0,0,0,0,0,1.71E+09,0, 2024-03-15 14:25:14.987
196,-64375.28156,-49380.27851,-51928.24327,-32857.98077,-42714.04954,-58195.09127,-30009.65327,-53670.80762,0.03,0.892,0.396,192,0,0,0,0,0,0,0,0,0,1.71E+09,0, 2024-03-15 14:25:14.988
197,-64266.89795,-49268.89977,-51806.24745,-32728.51947,-42603.34135,-58097.81648,-29945.3473,-53554.75736,0.022,0.886,0.392,192,0,176,27,176,12,64,0,0,0,1.71E+09,0, 2024-03-15 14:25:14.988
198,-64299.35268,-49291.34092,-51831.05789,-32754.38044,-42625.46958,-58106.64542,-29919.12871,-53604.73586,0.022,0.886,0.392,192,0,0,0,0,0,0,0,0,0,1.71E+09,0, 2024-03-15 14:25:14.988
199,-64413.95008,-49397.60112,-51949.03039,-32875.83981,-42736.37894,-58190.73268,-29971.70001,-53726.8658,0.022,0.886,0.392,192,0,0,0,0,0,0,0,0,0,1.71E+09,0, 2024-03-15 14:25:14.988
200,-64441.15215,-49430.59229,-51989.33059,-32918.66576,-42776.18739,-58231.18934,-30011.88845,-53773.84916,0.022,0.886,0.392,192,0,0,0,0,0,0,0,0,0,1.71E+09,0, 2024-03-15 14:25:14.988
201,-64357.66838,-49356.3845,-51906.20445,-32833.90794,-42703.20895,-58181.412,-30006.30051,-53681.17883,0.022,0.886,0.392,192,0,0,0,0,0,0,0,0,0,1.71E+09,0, 2024-03-15 14:25:14.988
202,-64253.4422,-49254.32643,-51791.29413,-32713.56615,-42598.93806,-58093.68141,-29956.2326,-53561.30642,0.022,0.886,0.392,192,0,0,0,0,0,0,0,0,0,1.71E+09,0, 2024-03-15 14:25:14.988
203,-64279.21376,-49271.04554,-51806.11334,-32728.54182,-42610.78448,-58089.43457,-29923.39789,-53570.47064,0.022,0.886,0.392,192,0,0,0,0,0,0,0,0,0,1.71E+09,0, 2024-03-15 14:25:14.988
204,-64390.39134,-49377.93158,-51920.28605,-32848.48128,-42714.38482,-58169.65499,-29959.40655,-53665.89024,0.022,0.886,0.392,192,0,0,0,0,0,0,0,0,0,1.71E+09,0, 2024-03-15 14:25:14.988
205,-64434.24546,-49429.3853,-51973.61731,-32907.73575,-42765.05622,-58224.01443,-30010.83791,-53734.75596,0.022,0.886,0.392,192,0,0,0,0,0,0,0,0,0,1.71E+09,0, 2024-03-15 14:25:14.988
206,-64353.93564,-49356.71977,-51899.52128,-32830.8234,-42701.57727,-58183.66953,-30009.00507,-53692.82409,0.022,0.886,0.392,192,0,0,0,0,0,0,0,0,0,1.71E+09,0, 2024-03-15 14:25:14.988
207,-64250.75999,-49249.31964,-51786.28734,-32708.91699,-42593.93127,-58093.50259,-29953.61745,-53581.82533,0.022,0.884,0.392,192,0,176,27,160,12,64,0,0,0,1.71E+09,0, 2024-03-15 14:25:14.988
208,-64277.44797,-49266.57519,-51807.14152,-32728.05008,-42610.73978,-58091.11096,-29924.53783,-53605.38406,0.022,0.884,0.392,192,0,0,0,0,0,0,0,0,0,1.71E+09,0, 2024-03-15 14:25:14.988
209,-64396.2922,-49378.49037,-51931.46192,-32855.32091,-42723.45963,-58178.7745,-29970.56007,-53729.23508,0.022,0.884,0.392,192,0,0,0,0,0,0,0,0,0,1.71E+09,0, 2024-03-15 14:25:14.988
210,-64444.12493,-49428.71474,-51988.07889,-32912.69784,-42778.1767,-58229.46825,-30025.83593,-53785.00268,0.022,0.884,0.392,192,0,0,0,0,0,0,0,0,0,1.71E+09,0, 2024-03-15 14:25:14.988
211,-64359.85885,-49352.60705,-51905.17627,-32831.04692,-42701.30905,-58179.95914,-30001.78546,-53712.69479,0.022,0.884,0.392,192,0,0,0,0,0,0,0,0,0,1.71E+09,0, 2024-03-15 14:25:14.988
212,-64259.72304,-49254.21467,-51792.65759,-32718.39413,-42595.74176,-58098.1294,-29942.7992,-53600.19846,0.022,0.884,0.392,192,0,0,0,0,0,0,0,0,0,1.71E+09,0, 2024-03-15 14:25:14.988
213,-64294.32354,-49279.80742,-51813.75764,-32742.15403,-42610.65037,-58099.31405,-29909.36099,-53590.29664,0.022,0.884,0.392,192,0,0,0,0,0,0,0,0,0,1.71E+09,0, 2024-03-15 14:25:14.988
214,-64415.38059,-49395.41064,-51935.30642,-32870.5201,-42719.01163,-58185.8153,-29949.7506,-53683.72693,0.022,0.884,0.392,192,0,0,0,0,0,0,0,0,0,1.71E+09,0, 2024-03-15 14:25:14.988
215,-64462.56512,-49448.92072,-51993.24214,-32934.08846,-42774.35455,-58240.19709,-30005.24998,-53737.70639,0.022,0.884,0.392,192,0,0,0,0,0,0,0,0,0,1.71E+09,0, 2024-03-15 14:25:14.988
216,-64380.75773,-49373.7518,-51914.25108,-32854.80682,-42702.60545,-58194.1525,-29992.50948,-53681.00002,0.022,0.884,0.392,192,0,0,0,0,0,0,0,0,0,1.71E+09,0, 2024-03-15 14:25:14.988
217,-64273.51406,-49265.18938,-51796.54679,-32729.92763,-42592.59016,-58098.97877,-29932.62916,-53535.26664,0.03,0.882,0.392,192,0,240,27,144,12,64,0,0,0,1.71E+09,0, 2024-03-15 14:25:14.988
218,-64298.48096,-49278.1981,-51810.31547,-32739.60593,-42599.85448,-58085.79124,-29901.82846,-53513.80897,0.03,0.882,0.392,192,0,0,0,0,0,0,0,0,0,1.71E+09,0, 2024-03-15 14:25:14.988
219,-64413.10071,-49388.05692,-51927.97505,-32862.16055,-42707.16521,-58170.90668,-29943.38035,-53639.58223,0.03,0.882,0.392,192,0,0,0,0,0,0,0,0,0,1.71E+09,0, 2024-03-15 14:25:14.988
220,-64455.74784,-49436.49315,-51985.50844,-32920.09627,-42764.51978,-58225.40024,-29998.23153,-53718.41684,0.03,0.882,0.392,192,0,0,0,0,0,0,0,0,0,1.71E+09,0, 2024-03-15 14:25:14.988
221,-64376.80148,-49363.02297,-51913.40171,-32842.22279,-42702.5831,-58182.39548,-30000.422,-53674.07098,0.03,0.882,0.392,192,0,0,0,0,0,0,0,0,0,1.71E+09,0, 2024-03-15 14:25:14.988
222,-64267.74731,-49255.28756,-51797.9773,-32718.90822,-42599.89918,-58092.27325,-29954.53387,-53573.8234,0.03,0.882,0.392,192,0,0,0,0,0,0,0,0,0,1.71E+09,0, 2024-03-15 14:25:14.988
223,-64289.2944,-49265.27879,-51808.10264,-32727.15601,-42609.44338,-58081.14208,-29918.94989,-53586.98858,0.03,0.882,0.392,192,0,0,0,0,0,0,0,0,0,1.71E+09,0, 2024-03-15 14:25:14.988
224,-64406.55165,-49376.2552,-51925.00227,-32851.18584,-42716.88822,-58165.3858,-29961.03823,-53686.54325,0.03,0.882,0.392,192,0,0,0,0,0,0,0,0,0,1.71E+09,0, 2024-03-15 14:25:14.988
225,-64444.14728,-49418.12002,-51975.49486,-32905.7241,-42764.81036,-58214.96197,-30002.72423,-53737.25936,0.03,0.882,0.392,192,0,0,0,0,0,0,0,0,0,1.71E+09,0, 2024-03-15 14:25:14.988
226,-64360.41765,-49341.36413,-51896.28028,-32824.56491,-42696.41402,-58169.2303,-30001.27137,-53679.88243,0.03,0.882,0.392,192,0,0,0,0,0,0,0,0,0,1.71E+09,0, 2024-03-15 14:25:14.988
227,-64254.7833,-49236.91442,-51782.44284,-32703.86549,-42594.31125,-58083.33255,-29951.29287,-53583.52406,0.034,0.886,0.398,192,1,16,27,176,12,112,0,0,0,1.71E+09,0, 2024-03-15 14:25:14.988
228,-64279.68315,-49251.86774,-51796.01035,-32715.95779,-42598.20045,-58077.52109,-29914.70306,-53581.69122,0.034,0.886,0.398,192,0,0,0,0,0,0,0,0,0,1.71E+09,0, 2024-03-15 14:25:14.988
229,-64396.22514,-49366.64395,-51915.99451,-32842.89334,-42705.89116,-58166.41398,-29955.11501,-53713.54416,0.034,0.886,0.398,192,0,0,0,0,0,0,0,0,0,1.71E+09,0, 2024-03-15 14:25:14.988
230,-64442.18033,-49419.37171,-51975.65132,-32905.70175,-42761.65876,-58224.03678,-30007.70867,-53790.74708,0.034,0.886,0.398,192,0,0,0,0,0,0,0,0,0,1.71E+09,0, 2024-03-15 14:25:14.988
231,-64363.45748,-49348.94137,-51902.69523,-32827.44829,-42696.27991,-58176.76284,-30007.64161,-53697.65207,0.034,0.886,0.398,192,0,0,0,0,0,0,0,0,0,1.71E+09,0, 2024-03-15 14:25:14.988
232,-64260.72887,-49245.34103,-51788.299,-32707.57588,-42589.90795,-58087.86995,-29949.97411,-53589.73784,0.034,0.886,0.398,192,0,0,0,0,0,0,0,0,0,1.71E+09,0, 2024-03-15 14:25:14.988
233,-64289.80849,-49265.18938,-51805.50984,-32725.94902,-42599.72037,-58084.0478,-29907.21523,-53603.35006,0.034,0.886,0.398,192,0,0,0,0,0,0,0,0,0,1.71E+09,0, 2024-03-15 14:25:14.988
234,-64409.83735,-49377.86453,-51925.80693,-32850.62705,-42707.50048,-58164.15646,-29945.66023,-53666.7396,0.034,0.886,0.398,192,0,0,0,0,0,0,0,0,0,1.71E+09,0, 2024-03-15 14:25:14.988
235,-64457.82655,-49430.83816,-51982.87093,-32911.35674,-42761.547,-58213.26324,-30001.38313,-53678.74249,0.034,0.886,0.398,192,0,0,0,0,0,0,0,0,0,1.71E+09,0, 2024-03-15 14:25:14.988
236,-64386.18921,-49369.54968,-51917.82736,-32847.65426,-42705.75705,-58184.07186,-30004.55707,-53665.3985,0.034,0.886,0.398,192,0,0,0,0,0,0,0,0,0,1.71E+09,0, 2024-03-15 14:25:14.988
237,-64285.33814,-49267.3128,-51809.35434,-32732.07339,-42605.57653,-58101.12454,-29953.55039,-53588.86613,0.028,0.888,0.398,192,0,224,27,192,12,112,0,0,0,1.71E+09,0, 2024-03-15 14:25:14.988
238,-64304.40418,-49275.13591,-51816.68571,-32736.72256,-42602.98373,-58084.94187,-29906.92465,-53590.05077,0.028,0.888,0.398,192,0,0,0,0,0,0,0,0,0,1.71E+09,0, 2024-03-15 14:25:14.988
239,-64420.43208,-49386.38054,-51939.91088,-32859.81361,-42714.60834,-58166.21282,-29950.4435,-53681.22353,0.028,0.888,0.398,192,0,0,0,0,0,0,0,0,0,1.71E+09,0, 2024-03-15 14:25:14.988
240,-64466.40962,-49435.42027,-51999.67945,-32917.10113,-42772.3876,-58213.53146,-30008.80391,-53698.99317,0.028,0.888,0.398,192,0,0,0,0,0,0,0,0,0,1.71E+09,0, 2024-03-15 14:25:14.988
241,-64384.06579,-49363.76057,-51927.37155,-32842.58042,-42710.13799,-58173.18656,-30011.352,-53662.69394,0.028,0.888,0.398,192,0,0,0,0,0,0,0,0,0,1.71E+09,0, 2024-03-15 14:25:14.988
242,-64280.66662,-49261.12136,-51814.13762,-32724.00441,-42606.80587,-58086.12652,-29959.40655,-53551.38225,0.028,0.888,0.398,192,0,0,0,0,0,0,0,0,0,1.71E+09,0, 2024-03-15 14:25:14.988
243,-64298.19039,-49270.88908,-51822.34071,-32733.77213,-42612.43851,-58076.93995,-29921.05096,-53530.32691,0.028,0.888,0.398,192,0,0,0,0,0,0,0,0,0,1.71E+09,0, 2024-03-15 14:25:14.988
244,-64404.96467,-49382.35723,-51947.89045,-32866.16151,-42728.39936,-58172.78423,-29969.55424,-53658.08948,0.028,0.888,0.398,192,0,0,0,0,0,0,0,0,0,1.71E+09,0, 2024-03-15 14:25:14.988
245,-64447.5671,-49434.32503,-52004.93211,-32929.23813,-42786.02216,-58232.48574,-30026.19356,-53745.23893,0.028,0.888,0.398,192,0,0,0,0,0,0,0,0,0,1.71E+09,0, 2024-03-15 14:25:14.988
246,-64376.91323,-49362.35241,-51921.24717,-32847.09547,-42715.70357,-58188.27399,-30022.37141,-53704.91638,0.028,0.888,0.398,192,0,0,0,0,0,0,0,0,0,1.71E+09,0, 2024-03-15 14:25:14.988
247,-64275.32456,-49251.9348,-51793.66342,-32716.1813,-42599.98859,-58092.83204,-29953.66215,-53566.15675,0.03,0.89,0.394,192,0,240,27,208,12,80,0,0,0,1.71E+09,0, 2024-03-15 14:25:14.988
248,-64293.7871,-49259.0203,-51798.71491,-32721.50102,-42599.69802,-58080.22566,-29918.83813,-53553.93035,0.03,0.89,0.394,192,0,0,0,0,0,0,0,0,0,1.71E+09,0, 2024-03-15 14:25:14.988
249,-64407.02103,-49367.38156,-51919.23552,-32847.00606,-42708.57337,-58168.91738,-29963.40751,-53697.74147,0.03,0.89,0.394,192,0,0,0,0,0,0,0,0,0,1.71E+09,0, 2024-03-15 14:25:14.988
250,-64454.94317,-49418.20942,-51977.57357,-32909.50154,-42761.70346,-58227.12132,-30007.4181,-53783.01338,0.03,0.89,0.394,192,0,0,0,0,0,0,0,0,0,1.71E+09,0, 2024-03-15 14:25:14.988
251,-64367.4808,-49337.94431,-51896.92848,-32820.98863,-42690.87078,-58171.1302,-30000.48906,-53687.03499,0.03,0.89,0.394,192,0,0,0,0,0,0,0,0,0,1.71E+09,0, 2024-03-15 14:25:14.988
252,-64257.59962,-49225.91737,-51778.46423,-32690.05211,-42580.27435,-58072.82723,-29939.62526,-53548.02949,0.03,0.89,0.394,192,0,0,0,0,0,0,0,0,0,1.71E+09,0, 2024-03-15 14:25:14.988
253,-64280.15253,-49232.44408,-51787.24847,-32693.56134,-42584.47648,-58057.96332,-29901.29201,-53540.11697,0.03,0.89,0.394,192,0,0,0,0,0,0,0,0,0,1.71E+09,0, 2024-03-15 14:25:14.988
254,-64401.90249,-49343.95693,-51910.96537,-32819.22285,-42697.4422,-58144.75514,-29949.08004,-53664.07975,0.03,0.89,0.394,192,0,0,0,0,0,0,0,0,0,1.71E+09,0, 2024-03-15 14:25:14.988
255,-64450.89751,-49398.96457,-51975.47251,-32885.83104,-42759.82592,-58205.686,-30008.69215,-53756.59362,0.03,0.89,0.394,192,0,0,0,0,0,0,0,0,0,1.71E+09,0, 2024-03-15 14:25:14.988
0,-64365.42444,-49324.51091,-51898.00136,-32806.70587,-42690.73667,-58159.06026,-29999.97497,-53707.79976,0.03,0.89,0.394,192,0,0,0,0,0,0,0,0,0,1.71E+09,0, 2024-03-15 14:25:14.988
1,-64264.70748,-49225.82796,-51787.40493,-32692.04142,-42590.89143,-58076.58232,-29946.86722,-53613.31893,0.03,0.89,0.394,192,0,0,0,0,0,0,0,0,0,1.71E+09,0, 2024-03-15 14:25:14.988
2,-64291.90955,-49241.0495,-51797.84319,-32701.69737,-42595.96528,-58061.24903,-29918.50286,-53567.54256,0.03,0.894,0.392,192,0,240,27,240,12,64,0,0,0,1.71E+09,0, 2024-03-15 14:25:14.988
3,-64408.78682,-49351.44476,-51915.52513,-32826.286,-42701.48786,-58139.56954,-29951.62814,-53648.36647,0.03,0.894,0.392,192,0,0,0,0,0,0,0,0,0,1.71E+09,0, 2024-03-15 14:25:14.988
4,-64462.11808,-49411.66036,-51978.69116,-32896.76105,-42761.61406,-58197.37115,-30005.11587,-53705.0952,0.03,0.894,0.392,192,0,0,0,0,0,0,0,0,0,1.71E+09,0, 2024-03-15 14:25:14.988
5,-64391.196,-49348.78491,-51909.93719,-32829.03526,-42699.00682,-58159.90963,-30002.85834,-53652.59095,0.03,0.894,0.392,192,0,0,0,0,0,0,0,0,0,1.71E+09,0, 2024-03-15 14:25:14.988
6,-64282.87945,-49238.97079,-51790.08714,-32705.18425,-42585.48231,-58069.11684,-29937.0101,-53545.92842,0.03,0.894,0.392,192,0,0,0,0,0,0,0,0,0,1.71E+09,0, 2024-03-15 14:25:14.988
7,-64309.2098,-49254.81817,-51807.23093,-32720.53989,-42596.74759,-58066.18876,-29905.76236,-53577.55614,0.03,0.894,0.392,192,0,0,0,0,0,0,0,0,0,1.71E+09,0, 2024-03-15 14:25:14.988
8,-64426.51176,-49365.99575,-51930.67961,-32843.6533,-42707.23226,-58147.07972,-29949.39297,-53692.68998,0.03,0.894,0.392,192,0,0,0,0,0,0,0,0,0,1.71E+09,0, 2024-03-15 14:25:14.988
9,-64469.24829,-49412.68854,-51984.3238,-32897.92334,-42757.79191,-58192.9008,-29998.34329,-53717.3216,0.03,0.894,0.392,192,0,0,0,0,0,0,0,0,0,1.71E+09,0, 2024-03-15 14:25:14.988
10,-64396.35925,-49346.01329,-51914.25108,-32823.91671,-42699.81148,-58151.10304,-30003.50654,-53642.82324,0.03,0.894,0.392,192,0,0,0,0,0,0,0,0,0,1.71E+09,0, 2024-03-15 14:25:14.988
11,-64299.75501,-49250.61604,-51801.7771,-32713.92378,-42596.79229,-58078.03519,-29956.38906,-53571.38706,0.03,0.894,0.392,192,0,0,0,0,0,0,0,0,0,1.71E+09,0, 2024-03-15 14:25:14.988
12,-64310.79677,-49254.5723,-51799.29606,-32717.94709,-42591.94196,-58064.04299,-29911.64087,-53557.61839,0.03,0.89,0.394,192,0,240,27,208,12,80,0,0,0,1.71E+09,0, 2024-03-15 14:25:14.988
13,-64421.77319,-49359.96078,-51914.09462,-32837.75244,-42696.81635,-58142.3188,-29948.47655,-53610.12263,0.03,0.89,0.394,192,0,0,0,0,0,0,0,0,0,1.71E+09,0, 2024-03-15 14:25:14.988
14,-64464.06269,-49410.00633,-51970.39866,-32899.62207,-42749.99115,-58201.59563,-29992.48713,-53693.58405,0.03,0.89,0.394,192,0,0,0,0,0,0,0,0,0,1.71E+09,0, 2024-03-15 14:25:14.988
15,-64388.20087,-49344.82865,-51899.05189,-32828.05178,-42687.898,-58167.73274,-29992.44243,-53659.76586,0.03,0.89,0.394,192,0,0,0,0,0,0,0,0,0,1.71E+09,0, 2024-03-15 14:25:14.988
16,-64281.6501,-49237.96496,-51780.63235,-32702.81496,-42581.21313,-58078.14694,-29939.5135,-53535.60192,0.03,0.89,0.394,192,0,0,0,0,0,0,0,0,0,1.71E+09,0, 2024-03-15 14:25:14.988
17,-64303.10777,-49246.86095,-51790.06479,-32709.0511,-42583.96239,-58066.41228,-29901.18026,-53533.92554,0.03,0.89,0.394,192,0,0,0,0,0,0,0,0,0,1.71E+09,0, 2024-03-15 14:25:14.988
18,-64423.15899,-49361.05601,-51913.2676,-32837.37246,-42692.65892,-58157.24977,-29940.09464,-53685.2245,0.03,0.89,0.394,192,0,0,0,0,0,0,0,0,0,1.71E+09,0, 2024-03-15 14:25:14.988
19,-64473.13749,-49412.91206,-51974.66784,-32899.39855,-42749.47706,-58213.08443,-29986.56392,-53770.63051,0.03,0.89,0.394,192,0,0,0,0,0,0,0,0,0,1.71E+09,0, 2024-03-15 14:25:14.988
20,-64398.75089,-49343.73341,-51902.02467,-32820.09456,-42685.84164,-58163.66472,-29984.37345,-53677.15552,0.03,0.89,0.394,192,0,0,0,0,0,0,0,0,0,1.71E+09,0, 2024-03-15 14:25:14.988
21,-64298.21274,-49242.27884,-51788.83544,-32699.52925,-42579.35793,-58076.20234,-29936.71953,-53573.75635,0.03,0.89,0.394,192,0,0,0,0,0,0,0,0,0,1.71E+09,0, 2024-03-15 14:25:14.988
22,-64313.32252,-49246.8386,-51791.62941,-32699.61866,-42576.80983,-58057.18101,-29895.79349,-53556.5455,0.028,0.89,0.396,192,0,224,27,208,12,96,0,0,0,1.71E+09,0, 2024-03-15 14:25:14.988
23,-64427.6964,-49356.89859,-51908.59609,-32821.94976,-42681.52776,-58137.96021,-29927.44356,-53642.35385,0.028,0.89,0.396,192,0,0,0,0,0,0,0,0,0,1.71E+09,0, 2024-03-15 14:25:14.988
24,-64477.11611,-49409.46989,-51974.42197,-32888.51325,-42745.07376,-58195.02422,-29986.36275,-53720.27203,0.028,0.89,0.396,192,0,0,0,0,0,0,0,0,0,1.71E+09,0, 2024-03-15 14:25:14.988
25,-64406.86457,-49349.05313,-51912.95468,-32825.01195,-42695.31878,-58163.88824,-29998.70092,-53695.75217,0.028,0.89,0.396,192,0,0,0,0,0,0,0,0,0,1.71E+09,0, 2024-03-15 14:25:14.988
26,-64296.73753,-49243.44113,-51794.0881,-32703.86549,-42587.85159,-58073.81071,-29944.6097,-53569.95655,0.028,0.89,0.396,192,0,0,0,0,0,0,0,0,0,1.71E+09,0, 2024-03-15 14:25:14.988
27,-64311.53438,-49250.19136,-51797.95495,-32711.97918,-42589.17035,-58062.90305,-29908.37752,-53575.58919,0.028,0.89,0.396,192,0,0,0,0,0,0,0,0,0,1.71E+09,0, 2024-03-15 14:25:14.988
28,-64432.94906,-49366.55454,-51922.07419,-32842.17809,-42703.276,-58149.71723,-29952.9469,-53695.70746,0.028,0.89,0.396,192,0,0,0,0,0,0,0,0,0,1.71E+09,0, 2024-03-15 14:25:14.988
29,-64486.48149,-49425.69726,-51987.94478,-32908.76393,-42766.21852,-58203.00379,-30005.02646,-53726.15054,0.028,0.89,0.396,192,0,0,0,0,0,0,0,0,0,1.71E+09,0, 2024-03-15 14:25:14.988
30,-64404.74116,-49354.79752,-51910.56304,-32828.05178,-42693.93297,-58152.10887,-29996.26458,-53627.44524,0.028,0.89,0.396,192,0,0,0,0,0,0,0,0,0,1.71E+09,0, 2024-03-15 14:25:14.988
31,-64294.65882,-49248.35852,-51789.43894,-32702.77026,-42578.37445,-58061.56195,-29937.74771,-53516.04414,0.028,0.89,0.396,192,0,0,0,0,0,0,0,0,0,1.71E+09,0, 2024-03-15 14:25:14.988
32,-64316.16119,-49257.63449,-51796.88207,-32706.90533,-42582.53188,-58048.1062,-29905.53885,-53501.62727,0.03,0.892,0.392,192,0,240,27,224,12,64,0,0,0,1.71E+09,0, 2024-03-15 14:25:14.988
33,-64435.94419,-49371.85191,-51918.14028,-32834.95847,-42689.01559,-58138.54136,-29941.56986,-53639.87281,0.03,0.892,0.392,192,0,0,0,0,0,0,0,0,0,1.71E+09,0, 2024-03-15 14:25:14.988
34,-64483.55341,-49426.189,-51977.35005,-32901.47727,-42744.73849,-58199.56162,-29989.69316,-53723.55774,0.03,0.892,0.392,192,0,0,0,0,0,0,0,0,0,1.71E+09,0, 2024-03-15 14:25:14.988
35,-64400.98606,-49358.50791,-51902.15879,-32831.76217,-42681.5054,-58166.72691,-29994.52114,-53688.08552,0.03,0.892,0.392,192,0,0,0,0,0,0,0,0,0,1.71E+09,0, 2024-03-15 14:25:14.988
36,-64293.31771,-49253.90175,-51781.9064,-32711.37568,-42573.34531,-58083.33255,-29945.16849,-53581.64651,0.03,0.892,0.392,192,0,0,0,0,0,0,0,0,0,1.71E+09,0, 2024-03-15 14:25:14.988
37,-64309.34391,-49259.75791,-51788.00843,-32717.92474,-42575.28991,-58072.31314,-29905.82942,-53556.05376,0.03,0.892,0.392,192,0,0,0,0,0,0,0,0,0,1.71E+09,0, 2024-03-15 14:25:14.988
38,-64417.43695,-49361.95008,-51900.54946,-32834.17616,-42675.85041,-58144.95631,-29935.40078,-53616.17996,0.03,0.892,0.392,192,0,0,0,0,0,0,0,0,0,1.71E+09,0, 2024-03-15 14:25:14.988
39,-64466.96841,-49416.44364,-51962.62025,-32902.03606,-42734.79196,-58205.0825,-29988.15089,-53707.93387,0.03,0.892,0.392,192,0,0,0,0,0,0,0,0,0,1.71E+09,0, 2024-03-15 14:25:14.988
40,-64393.67704,-49353.34466,-51899.07424,-32837.59598,-42677.25857,-58173.32067,-29993.53766,-53669.64533,0.03,0.892,0.392,192,0,0,0,0,0,0,0,0,0,1.71E+09,0, 2024-03-15 14:25:14.988
41,-64292.08836,-49253.8347,-51791.76352,-32725.09965,-42580.45317,-58095.62601,-29947.73894,-53589.69314,0.03,0.892,0.392,192,0,0,0,0,0,0,0,0,0,1.71E+09,0, 2024-03-15 14:25:14.988
42,-64304.44888,-49253.00768,-51794.28927,-32725.21141,-42580.2073,-58078.63868,-29908.13165,-53598.90206,0.03,0.888,0.394,192,0,240,27,192,12,80,0,0,0,1.71E+09,0, 2024-03-15 14:25:14.988
43,-64417.43695,-49358.91025,-51909.73603,-32846.02259,-42684.50054,-58155.90866,-29944.45323,-53698.18851,0.03,0.888,0.394,192,0,0,0,0,0,0,0,0,0,1.71E+09,0, 2024-03-15 14:25:14.988
44,-64470.20942,-49413.85083,-51974.15375,-32911.40144,-42744.67143,-58208.05528,-29995.68343,-53758.98525,0.03,0.888,0.394,192,0,0,0,0,0,0,0,0,0,1.71E+09,0, 2024-03-15 14:25:14.988
45,-64405.52347,-49355.75865,-51913.08879,-32847.14017,-42690.46845,-58173.6336,-30000.57846,-53706.61512,0.03,0.888,0.394,192,0,0,0,0,0,0,0,0,0,1.71E+09,0, 2024-03-15 14:25:14.988
46,-64295.44113,-49243.08351,-51793.79753,-32721.59043,-42579.02266,-58083.48901,-29938.79824,-53616.96227,0.03,0.888,0.394,192,0,0,0,0,0,0,0,0,0,1.71E+09,0, 2024-03-15 14:25:14.988
47,-64310.4615,-49247.41974,-51797.95495,-32723.75855,-42580.45317,-58067.9769,-29902.72253,-53612.96131,0.03,0.888,0.394,192,0,0,0,0,0,0,0,0,0,1.71E+09,0, 2024-03-15 14:25:14.988
48,-64429.14926,-49358.39616,-51917.93912,-32846.26846,-42689.39557,-58143.97283,-29942.1063,-53685.13509,0.03,0.888,0.394,192,0,0,0,0,0,0,0,0,0,1.71E+09,0, 2024-03-15 14:25:14.988
49,-64481.78762,-49414.99077,-51980.43459,-32912.13905,-42743.95618,-58196.00769,-29989.17907,-53736.90173,0.03,0.888,0.394,192,0,0,0,0,0,0,0,0,0,1.71E+09,0, 2024-03-15 14:25:14.988
50,-64406.17167,-49347.55556,-51908.55138,-32836.54545,-42681.93009,-58147.415,-29985.58044,-53659.40823,0.03,0.888,0.394,192,0,0,0,0,0,0,0,0,0,1.71E+09,0, 2024-03-15 14:25:14.988
51,-64291.8425,-49238.07672,-51786.26499,-32711.95682,-42572.22773,-58059.37148,-29933.38912,-53564.97211,0.03,0.888,0.394,192,0,0,0,0,0,0,0,0,0,1.71E+09,0, 2024-03-15 14:25:14.988
52,-64309.8133,-49249.02907,-51792.05409,-32722.37274,-42576.22869,-58055.90696,-29898.47569,-53597.96329,0.026,0.882,0.396,192,0,208,27,144,12,96,0,0,0,1.71E+09,0, 2024-03-15 14:25:14.988
53,-64427.24936,-49361.59246,-51909.71367,-32846.91666,-42685.2605,-58140.48596,-29941.27929,-53707.41978,0.026,0.882,0.396,192,0,0,0,0,0,0,0,0,0,1.71E+09,0, 2024-03-15 14:25:14.988
54,-64478.65838,-49419.75169,-51972.76795,-32913.03312,-42744.78319,-58196.43238,-29988.26265,-53742.40026,0.026,0.882,0.396,192,0,0,0,0,0,0,0,0,0,1.71E+09,0, 2024-03-15 14:25:14.988
55,-64400.94136,-49355.53513,-51902.91874,-32844.97206,-42683.27119,-58160.96016,-29989.73787,-53689.27016,0.026,0.882,0.396,192,0,0,0,0,0,0,0,0,0,1.71E+09,0, 2024-03-15 14:25:14.988
56,-64285.31579,-49242.48001,-51777.90544,-32716.56128,-42566.93036,-58068.80391,-29925.38719,-53558.75833,0.026,0.882,0.396,192,0,0,0,0,0,0,0,0,0,1.71E+09,0, 2024-03-15 14:25:14.988
57,-64300.33616,-49247.84443,-51781.39231,-32722.17157,-42567.33269,-58061.02551,-29890.11614,-53543.98382,0.026,0.882,0.396,192,0,0,0,0,0,0,0,0,0,1.71E+09,0, 2024-03-15 14:25:14.988
58,-64416.2076,-49357.59149,-51903.87987,-32848.16836,-42679.5608,-58148.39848,-29934.05967,-53659.43058,0.026,0.882,0.396,192,0,0,0,0,0,0,0,0,0,1.71E+09,0, 2024-03-15 14:25:14.988
59,-64465.29203,-49415.21429,-51972.54443,-32919.42572,-42746.75015,-58215.43136,-29992.10715,-53772.08337,0.026,0.882,0.396,192,0,0,0,0,0,0,0,0,0,1.71E+09,0, 2024-03-15 14:25:15.467
60,-64401.00842,-49362.46417,-51915.34631,-32863.21108,-42695.31878,-58197.77348,-30001.09255,-53776.71019,0.026,0.882,0.396,192,0,0,0,0,0,0,0,0,0,1.71E+09,0, 2024-03-15 14:25:15.467
61,-64291.90955,-49252.47124,-51793.3952,-32733.88389,-42582.73304,-58104.25378,-29940.2064,-53631.35679,0.026,0.882,0.396,192,0,0,0,0,0,0,0,0,0,1.71E+09,0, 2024-03-15 14:25:15.467
62,-64295.15055,-49244.3352,-51783.67219,-32720.15991,-42570.17136,-58074.72713,-29891.56901,-53584.44048,0.032,0.884,0.402,192,1,0,27,160,12,144,0,0,0,1.71E+09,0, 2024-03-15 14:25:15.467
63,-64409.88206,-49354.93164,-51901.80116,-32845.62026,-42676.87859,-58161.18367,-29928.6282,-53704.98344,0.032,0.884,0.402,192,0,0,0,0,0,0,0,0,0,1.71E+09,0, 2024-03-15 14:25:15.467
64,-64466.0967,-49419.39407,-51969.25872,-32921.99617,-42743.44209,-58229.89294,-29986.04983,-53807.39913,0.032,0.884,0.402,192,0,0,0,0,0,0,0,0,0,1.71E+09,0, 2024-03-15 14:25:15.467
65,-64394.83933,-49357.54679,-51900.99649,-32851.45406,-42685.48401,-58188.85513,-29989.98374,-53732.29727,0.032,0.884,0.402,192,0,0,0,0,0,0,0,0,0,1.71E+09,0, 2024-03-15 14:25:15.467
66,-64280.75603,-49241.87651,-51775.33499,-32715.39899,-42568.53969,-58087.62408,-29933.21031,-53587.2121,0.032,0.884,0.402,192,0,0,0,0,0,0,0,0,0,1.71E+09,0, 2024-03-15 14:25:15.467
67,-64296.78223,-49245.83277,-51779.93945,-32714.10259,-42569.07613,-58070.525,-29893.93829,-53575.56684,0.032,0.884,0.402,192,0,0,0,0,0,0,0,0,0,1.71E+09,0, 2024-03-15 14:25:15.467
68,-64407.60218,-49346.1027,-51895.54267,-32826.88949,-42672.58706,-58142.45291,-29924.58253,-53672.28284,0.032,0.884,0.402,192,0,0,0,0,0,0,0,0,0,1.71E+09,0, 2024-03-15 14:25:15.468
69,-64457.26776,-49397.467,-51959.49101,-32889.7873,-42729.62871,-58196.81236,-29975.76803,-53756.43715,0.032,0.884,0.402,192,0,0,0,0,0,0,0,0,0,1.71E+09,0, 2024-03-15 14:25:15.468
70,-64389.27375,-49337.47492,-51898.40369,-32825.41428,-42678.37616,-58166.39163,-29985.17811,-53752.27973,0.032,0.884,0.402,192,0,0,0,0,0,0,0,0,0,1.71E+09,0, 2024-03-15 14:25:15.468
71,-64284.44407,-49235.66273,-51785.7509,-32706.21243,-42576.31809,-58082.93022,-29940.56403,-53655.83195,0.032,0.884,0.402,192,0,0,0,0,0,0,0,0,0,1.71E+09,0, 2024-03-15 14:25:15.468
72,-64294.83763,-49237.13794,-51784.4545,-32700.1104,-42571.17719,-58056.35399,-29896.77696,-53596.26455,0.028,0.888,0.398,192,0,224,27,192,12,112,0,0,0,1.71E+09,0, 2024-03-15 14:25:15.468
73,-64408.20568,-49345.81212,-51896.01206,-32817.03237,-42669.90485,-58129.55596,-29920.9839,-53674.76388,0.028,0.888,0.398,192,0,0,0,0,0,0,0,0,0,1.71E+09,0, 2024-03-15 14:25:15.468
74,-64469.44946,-49413.22498,-51965.07895,-32893.98943,-42737.36241,-58195.76182,-29978.56199,-53767.99301,0.028,0.888,0.398,192,0,0,0,0,0,0,0,0,0,1.71E+09,0, 2024-03-15 14:25:15.468
75,-64408.29508,-49361.86068,-51901.39883,-32836.36663,-42688.12152,-58168.20212,-29989.89433,-53713.76767,0.028,0.888,0.398,192,0,0,0,0,0,0,0,0,0,1.71E+09,0, 2024-03-15 14:25:15.468
76,-64295.10585,-49250.0349,-51773.77036,-32705.60893,-42573.59118,-58070.12267,-29935.7584,-53581.08772,0.028,0.888,0.398,192,0,0,0,0,0,0,0,0,0,1.71E+09,0, 2024-03-15 14:25:15.468
77,-64302.32546,-49247.15152,-51768.92004,-32700.13275,-42566.05864,-58049.31319,-29894.60884,-53576.77383,0.028,0.888,0.398,192,0,0,0,0,0,0,0,0,0,1.71E+09,0, 2024-03-15 14:25:15.468
78,-64421.79554,-49357.65855,-51888.43481,-32824.20728,-42674.55401,-58131.61232,-29937.16656,-53669.13124,0.028,0.888,0.398,192,0,0,0,0,0,0,0,0,0,1.71E+09,0, 2024-03-15 14:25:15.468
79,-64476.84788,-49418.20942,-51958.79811,-32897.14103,-42741.11751,-58195.13597,-29987.90502,-53734.04071,0.028,0.888,0.398,192,0,0,0,0,0,0,0,0,0,1.71E+09,0, 2024-03-15 14:25:15.468
80,-64404.40588,-49359.17847,-51896.52615,-32836.34428,-42683.27119,-58168.22447,-29989.492,-53705.65399,0.028,0.888,0.398,192,0,0,0,0,0,0,0,0,0,1.71E+09,0, 2024-03-15 14:25:15.468
81,-64291.86485,-49250.48193,-51779.3136,-32712.02388,-42577.25687,-58082.50553,-29938.91,-53600.51138,0.028,0.888,0.398,192,0,0,0,0,0,0,0,0,0,1.71E+09,0, 2024-03-15 14:25:15.468
82,-64303.4654,-49252.44889,-51782.10757,-32710.45926,-42578.53092,-58070.18972,-29905.38238,-53593.82821,0.026,0.886,0.4,192,0,208,27,176,12,128,0,0,0,1.71E+09,0, 2024-03-15 14:25:15.468
83,-64407.57983,-49352.31648,-51889.68651,-32822.57561,-42675.26927,-58144.174,-29934.61847,-53694.07579,0.026,0.886,0.4,192,0,0,0,0,0,0,0,0,0,1.71E+09,0, 2024-03-15 14:25:15.468
84,-64464.08504,-49418.85762,-51960.09451,-32900.49379,-42741.47513,-58213.50911,-29990.31901,-53772.17278,0.026,0.886,0.4,192,0,0,0,0,0,0,0,0,0,1.71E+09,0, 2024-03-15 14:25:15.468
85,-64395.95692,-49363.31354,-51898.69426,-32840.79228,-42687.92035,-58186.21763,-29995.50462,-53748.7258,0.026,0.886,0.4,192,0,0,0,0,0,0,0,0,0,1.71E+09,0, 2024-03-15 14:25:15.468
86,-64286.45573,-49259.0203,-51777.14548,-32717.61182,-42578.66503,-58097.97294,-29942.24041,-53636.34123,0.026,0.886,0.4,192,0,0,0,0,0,0,0,0,0,1.71E+09,0, 2024-03-15 14:25:15.468
87,-64296.3799,-49260.49551,-51776.74315,-32714.03554,-42575.13345,-58079.86803,-29906.54467,-53613.85538,0.026,0.886,0.4,192,0,0,0,0,0,0,0,0,0,1.71E+09,0, 2024-03-15 14:25:15.468
88,-64404.51764,-49359.73726,-51886.02083,-32822.57561,-42670.95538,-58144.9116,-29933.32206,-53681.49175,0.026,0.886,0.4,192,0,0,0,0,0,0,0,0,0,1.71E+09,0, 2024-03-15 14:25:15.468
89,-64456.15017,-49414.92372,-51950.01387,-32885.80869,-42731.55096,-58196.52178,-29976.39388,-53730.39737,0.026,0.886,0.4,192,0,0,0,0,0,0,0,0,0,1.71E+09,0, 2024-03-15 14:25:15.468
90,-64385.13868,-49355.49043,-51885.90907,-32820.29573,-42674.75518,-58162.01069,-29984.32874,-53690.29834,0.026,0.886,0.4,192,0,0,0,0,0,0,0,0,0,1.71E+09,0, 2024-03-15 14:25:15.468
91,-64280.3984,-49253.56647,-51773.63625,-32702.85966,-42572.563,-58081.05267,-29940.94401,-53610.77083,0.026,0.886,0.4,192,0,0,0,0,0,0,0,0,0,1.71E+09,0, 2024-03-15 14:25:15.468
92,-64292.69186,-49253.34296,-51773.72566,-32698.38932,-42569.94785,-58064.0877,-29903.59424,-53622.30433,0.03,0.886,0.396,192,0,240,27,176,12,96,0,0,0,1.71E+09,0, 2024-03-15 14:25:15.468
93,-64408.58566,-49360.40781,-51890.89351,-32819.55812,-42675.93982,-58145.02336,-29943.78268,-53738.71222,0.03,0.886,0.396,192,0,0,0,0,0,0,0,0,0,1.71E+09,0, 2024-03-15 14:25:15.468
94,-64466.23081,-49422.18803,-51953.90307,-32890.52491,-42734.56845,-58201.2827,-29990.96721,-53764.90846,0.03,0.886,0.396,192,0,0,0,0,0,0,0,0,0,1.71E+09,0, 2024-03-15 14:25:15.468
95,-64400.27081,-49364.52053,-51885.84201,-32824.40845,-42673.63759,-58162.39067,-29982.42885,-53694.00873,0.03,0.886,0.396,192,0,0,0,0,0,0,0,0,0,1.71E+09,0, 2024-03-15 14:25:15.468
96,-64294.90468,-49258.81913,-51766.68486,-32701.54091,-42564.56108,-58074.19069,-29931.66803,-53595.6387,0.03,0.886,0.396,192,0,0,0,0,0,0,0,0,0,1.71E+09,0, 2024-03-15 14:25:15.468
97,-64307.10874,-49262.14954,-51766.95308,-32701.63032,-42560.00132,-58061.36078,-29889.42324,-53593.6047,0.03,0.886,0.396,192,0,0,0,0,0,0,0,0,0,1.71E+09,0, 2024-03-15 14:25:15.468
98,-64426.02002,-49374.62352,-51886.55727,-32825.01195,-42667.22264,-58142.94465,-29927.55531,-53679.81537,0.03,0.886,0.396,192,0,0,0,0,0,0,0,0,0,1.71E+09,0, 2024-03-15 14:25:15.468
99,-64481.02766,-49434.16857,-51952.3161,-32889.89906,-42730.38867,-58191.58205,-29977.04208,-53702.36828,0.03,0.886,0.396,192,0,0,0,0,0,0,0,0,0,1.71E+09,0, 2024-03-15 14:25:15.468
100,-64419.33685,-49380.90436,-51899.65539,-32832.6786,-42686.04281,-58166.65985,-29992.15186,-53698.76965,0.03,0.886,0.396,192,0,0,0,0,0,0,0,0,0,1.71E+09,0, 2024-03-15 14:25:15.468
101,-64306.25937,-49267.46926,-51780.23002,-32704.91602,-42577.77096,-58079.17512,-29945.72728,-53615.95644,0.03,0.886,0.396,192,0,0,0,0,0,0,0,0,0,1.71E+09,0, 2024-03-15 14:25:15.468
102,-64312.78608,-49263.69181,-51776.92196,-32698.36696,-42573.23355,-58059.93027,-29907.28228,-53595.32578,0.032,0.892,0.396,192,1,0,27,224,12,96,0,0,0,1.71E+09,0, 2024-03-15 14:25:15.468
103,-64421.05793,-49364.0288,-51884.70207,-32811.95853,-42669.30135,-58131.67937,-29928.80701,-53669.53357,0.032,0.892,0.396,192,0,0,0,0,0,0,0,0,0,1.71E+09,0, 2024-03-15 14:25:15.468
104,-64482.74874,-49429.31824,-51957.94874,-32891.24017,-42739.19526,-58198.37698,-29989.42494,-53743.27198,0.032,0.892,0.396,192,0,0,0,0,0,0,0,0,0,1.71E+09,0, 2024-03-15 14:25:15.468
105,-64418.12985,-49376.05403,-51900.4377,-32836.6125,-42690.17788,-58174.52767,-29998.81268,-53729.99504,0.032,0.892,0.396,192,0,0,0,0,0,0,0,0,0,1.71E+09,0, 2024-03-15 14:25:15.468
106,-64304.1136,-49266.68695,-51777.90544,-32713.05206,-42576.89924,-58089.54633,-29945.3026,-53625.79121,0.032,0.892,0.396,192,0,0,0,0,0,0,0,0,0,1.71E+09,0, 2024-03-15 14:25:15.468
107,-64313.16606,-49266.86576,-51777.23489,-32709.45343,-42573.79235,-58072.55901,-29907.28228,-53602.74656,0.032,0.892,0.396,192,0,0,0,0,0,0,0,0,0,1.71E+09,0, 2024-03-15 14:25:15.468
108,-64428.61282,-49373.55064,-51892.7487,-32829.05761,-42676.72213,-58150.76776,-29937.12186,-53713.90178,0.032,0.892,0.396,192,0,0,0,0,0,0,0,0,0,1.71E+09,0, 2024-03-15 14:25:15.468
109,-64487.39791,-49434.36974,-51961.23445,-32901.83489,-42738.81528,-58210.7822,-29982.63001,-53768.70826,0.032,0.892,0.396,192,0,0,0,0,0,0,0,0,0,1.71E+09,0, 2024-03-15 14:25:15.468
110,-64417.70517,-49374.93645,-51898.87308,-32837.93126,-42684.16526,-58177.25458,-29989.11202,-53714.32647,0.032,0.892,0.396,192,0,0,0,0,0,0,0,0,0,1.71E+09,0, 2024-03-15 14:25:15.468
111,-64305.52176,-49263.96004,-51779.73828,-32712.9403,-42577.30157,-58090.68627,-29941.01106,-53625.7018,0.032,0.892,0.396,192,0,0,0,0,0,0,0,0,0,1.71E+09,0, 2024-03-15 14:25:15.468
112,-64314.28365,-49262.77539,-51775.84908,-32709.38637,-42567.4668,-58075.88942,-29896.70991,-53632.54143,0.034,0.884,0.388,192,1,16,27,160,12,32,0,0,0,1.71E+09,0, 2024-03-15 14:25:15.468
113,-64428.50106,-49369.10264,-51886.49021,-32826.21894,-42662.86405,-58150.5666,-29922.1909,-53700.53544,0.034,0.884,0.388,192,0,0,0,0,0,0,0,0,0,1.71E+09,0, 2024-03-15 14:25:15.468
114,-64488.85077,-49436.62726,-51956.45117,-32902.05841,-42729.5393,-58213.48676,-29974.87396,-53750.06691,0.034,0.884,0.388,192,0,0,0,0,0,0,0,0,0,1.71E+09,0, 2024-03-15 14:25:15.468
115,-64423.8966,-49384.77121,-51895.74383,-32845.37439,-42679.33728,-58187.42462,-29985.02165,-53715.80168,0.034,0.884,0.388,192,0,0,0,0,0,0,0,0,0,1.71E+09,0, 2024-03-15 14:25:15.468
116,-64315.44594,-49278.57808,-51777.4137,-32721.90335,-42574.19468,-58099.15758,-29941.88278,-53596.13044,0.034,0.884,0.388,192,0,0,0,0,0,0,0,0,0,1.71E+09,0, 2024-03-15 14:25:15.468
117,-64312.96489,-49265.72582,-51760.76165,-32703.41846,-42555.39686,-58068.20042,-29885.44463,-53575.32097,0.034,0.884,0.388,192,0,0,0,0,0,0,0,0,0,1.71E+09,0, 2024-03-15 14:25:15.468
118,-64423.33781,-49369.14734,-51875.64962,-32820.56395,-42658.86309,-58144.57633,-29921.18507,-53689.67249,0.034,0.884,0.388,192,0,0,0,0,0,0,0,0,0,1.71E+09,0, 2024-03-15 14:25:15.468
119,-64482.18995,-49431.9781,-51946.16937,-32891.57544,-42724.08548,-58201.50622,-29974.06929,-53743.24962,0.034,0.884,0.388,192,0,0,0,0,0,0,0,0,0,1.71E+09,0, 2024-03-15 14:25:15.468
120,-64423.42722,-49381.95489,-51893.24044,-32835.3161,-42678.42086,-58175.37703,-29987.61445,-53700.42368,0.034,0.884,0.388,192,0,0,0,0,0,0,0,0,0,1.71E+09,0, 2024-03-15 14:25:15.468
121,-64305.74528,-49265.63642,-51768.89768,-32702.27852,-42566.66214,-58079.82332,-29936.09368,-53599.37145,0.034,0.884,0.388,192,0,0,0,0,0,0,0,0,0,1.71E+09,0, 2024-03-15 14:25:15.468
122,-64307.51107,-49258.30504,-51760.35932,-32690.63326,-42554.05576,-58055.50463,-29883.63414,-53582.7641,0.036,0.882,0.388,192,1,32,27,144,12,32,0,0,0,1.71E+09,0, 2024-03-15 14:25:15.468
123,-64427.80816,-49372.03072,-51881.97516,-32815.13248,-42665.00982,-58138.09432,-29926.37067,-53681.49175,0.036,0.882,0.388,192,0,0,0,0,0,0,0,0,0,1.71E+09,0, 2024-03-15 14:25:15.468
124,-64487.37556,-49438.84008,-51954.23835,-32892.91655,-42730.88041,-58204.45665,-29986.45216,-53770.42935,0.036,0.882,0.388,192,0,0,0,0,0,0,0,0,0,1.71E+09,0, 2024-03-15 14:25:15.468
125,-64417.54871,-49382.40193,-51892.7934,-32833.3268,-42679.11377,-58176.47227,-29988.26265,-53752.83852,0.036,0.882,0.388,192,0,0,0,0,0,0,0,0,0,1.71E+09,0, 2024-03-15 14:25:15.468
126,-64307.62283,-49277.34873,-51774.75384,-32714.1473,-42572.94298,-58097.57061,-29941.03342,-53676.19439,0.036,0.882,0.388,192,0,0,0,0,0,0,0,0,0,1.71E+09,0, 2024-03-15 14:25:15.468
127,-64310.26033,-49267.73748,-51761.70042,-32699.17163,-42557.54263,-58073.31897,-29896.82167,-53640.52101,0.036,0.882,0.388,192,0,0,0,0,0,0,0,0,0,1.71E+09,0, 2024-03-15 14:25:15.468
128,-64420.40973,-49366.12986,-51872.1851,-32807.1082,-42655.37621,-58137.69199,-29926.48243,-53694.43341,0.036,0.882,0.388,192,0,0,0,0,0,0,0,0,0,1.71E+09,0, 2024-03-15 14:25:15.468
129,-64480.29005,-49431.57577,-51949.70095,-32884.98168,-42726.67828,-58200.85802,-29982.4512,-53741.17091,0.036,0.882,0.388,192,0,0,0,0,0,0,0,0,0,1.71E+09,0, 2024-03-15 14:25:15.468
130,-64411.1114,-49370.33199,-51892.01109,-32821.27921,-42677.48209,-58166.70456,-29988.86615,-53664.1468,0.036,0.882,0.388,192,0,0,0,0,0,0,0,0,0,1.71E+09,0, 2024-03-15 14:25:15.468
131,-64292.20012,-49252.27007,-51767.93656,-32690.5215,-42562.34825,-58075.39768,-29926.32597,-53560.92644,0.036,0.882,0.388,192,0,0,0,0,0,0,0,0,0,1.71E+09,0, 2024-03-15 14:25:15.468
132,-64300.40321,-49250.54899,-51766.88603,-32688.68866,-42558.28024,-58063.30539,-29889.11031,-53576.90794,0.036,0.882,0.388,192,0,0,0,0,0,0,0,0,0,1.71E+09,0, 2024-03-15 14:25:15.468
133,-64418.30867,-49359.24552,-51885.7079,-32811.37738,-42666.61914,-58143.48109,-29926.84006,-53668.75126,0.028,0.88,0.39,192,0,224,27,128,12,48,0,0,0,1.71E+09,0, 2024-03-15 14:25:15.468
134,-64486.21327,-49433.29685,-51964.11782,-32894.68234,-42742.52567,-58211.13982,-29989.69316,-53740.12038,0.028,0.88,0.39,192,0,0,0,0,0,0,0,0,0,1.71E+09,0, 2024-03-15 14:25:15.468
135,-64424.09777,-49382.82661,-51908.50668,-32839.62999,-42697.39749,-58183.3566,-29996.17517,-53724.76473,0.028,0.88,0.39,192,0,0,0,0,0,0,0,0,0,1.71E+09,0, 2024-03-15 14:25:15.468
136,-64306.25937,-49271.29141,-51782.93458,-32713.14147,-42582.88951,-58093.68141,-29940.51933,-53643.96318,0.028,0.88,0.39,192,0,0,0,0,0,0,0,0,0,1.71E+09,0, 2024-03-15 14:25:15.468
137,-64308.40514,-49268.87742,-51772.20574,-32702.56909,-42573.1665,-58069.83209,-29896.93342,-53607.23926,0.028,0.88,0.39,192,0,0,0,0,0,0,0,0,0,1.71E+09,0, 2024-03-15 14:25:15.468
138,-64419.09098,-49373.46123,-51880.05291,-32816.29477,-42669.279,-58139.14485,-29920.49216,-53672.08167,0.028,0.88,0.39,192,0,0,0,0,0,0,0,0,0,1.71E+09,0, 2024-03-15 14:25:15.468
139,-64486.72736,-49446.21616,-51954.61833,-32898.61624,-42738.85998,-58207.38473,-29973.73402,-53751.51977,0.028,0.88,0.39,192,0,0,0,0,0,0,0,0,0,1.71E+09,0, 2024-03-15 14:25:15.468
140,-64424.52245,-49394.8295,-51898.04606,-32842.46866,-42691.16136,-58182.14961,-29984.3511,-53741.28267,0.028,0.88,0.39,192,0,0,0,0,0,0,0,0,0,1.71E+09,0, 2024-03-15 14:25:15.468
141,-64320.18451,-49293.84432,-51783.82865,-32726.53016,-42588.36568,-58106.35485,-29942.93331,-53677.40138,0.028,0.88,0.39,192,0,0,0,0,0,0,0,0,0,1.71E+09,0, 2024-03-15 14:25:15.468
