Sample Index, EXG Channel 0, EXG Channel 1, EXG Channel 2, EXG Channel 3, EXG Channel 4, EXG Channel 5, EXG Channel 6, EXG Channel 7, Accel Channel 0, Accel Channel 1, Accel Channel 2, Other, Other, Other, Other, Other, Other, Other, Analog Channel 0, Analog Channel 1, Analog Channel 2, Timestamp, Other, Timestamp (Formatted)
0,-66326.34298,-49082.218,-54096.47424,-35296.44433,-44192.86331,-58926.77563,-31694.46071,-54707.92856,0.038,0.892,0.402,192,1,48,27,224,12,144,0,0,0,1.71E+09,0, 2024-03-15 14:23:52.017
1,-66215.56773,-48976.42719,-53979.26169,-35182.22692,-44085.99962,-58849.90798,-31653.62408,-54613.13481,0.038,0.892,0.402,192,0,0,0,0,0,0,0,0,0,1.71E+09,0, 2024-03-15 14:23:52.017
2,-66157.36379,-48912.3671,-53912.00529,-35111.66246,-44020.66547,-58791.27935,-31588.69226,-54552.0475,0.038,0.892,0.402,192,0,0,0,0,0,0,0,0,0,1.71E+09,0, 2024-03-15 14:23:52.017
3,-66240.51228,-48981.5681,-53992.44922,-35188.82068,-44093.97919,-58831.28897,-31596.06833,-54595.18636,0.038,0.892,0.402,192,0,0,0,0,0,0,0,0,0,1.71E+09,0, 2024-03-15 14:23:52.017
4,-66346.37014,-49079.93812,-54103.60445,-35302.21108,-44196.5737,-58914.2363,-31662.63183,-54693.82461,0.038,0.892,0.402,192,0,0,0,0,0,0,0,0,0,1.71E+09,0, 2024-03-15 14:23:52.017
5,-66332.17678,-49073.8361,-54101.39163,-35301.98756,-44196.39488,-58925.8145,-31696.94176,-54717.15983,0.038,0.892,0.402,192,0,0,0,0,0,0,0,0,0,1.71E+09,0, 2024-03-15 14:23:52.017
6,-66220.64158,-48971.17453,-53988.49296,-35186.4514,-44093.55451,-58846.71168,-31655.72514,-54608.4186,0.038,0.892,0.402,192,0,0,0,0,0,0,0,0,0,1.71E+09,0, 2024-03-15 14:23:52.017
7,-66163.9352,-48910.5119,-53917.81675,-35114.747,-44026.36516,-58789.84884,-31591.46387,-54555.02028,0.038,0.892,0.402,192,0,0,0,0,0,0,0,0,0,1.71E+09,0, 2024-03-15 14:23:52.017
8,-66250.83879,-48993.8392,-54005.41323,-35206.76913,-44103.32222,-58850.57853,-31597.58825,-54651.401,0.038,0.892,0.402,192,0,0,0,0,0,0,0,0,0,1.71E+09,0, 2024-03-15 14:23:52.017
9,-66362.06107,-49101.73107,-54120.16709,-35329.63667,-44207.43665,-58941.34896,-31671.2596,-54745.05481,0.038,0.892,0.402,192,0,0,0,0,0,0,0,0,0,1.71E+09,0, 2024-03-15 14:23:52.017
10,-66354.48383,-49092.94684,-54116.16613,-35326.95446,-44207.25783,-58945.6852,-31704.36254,-54705.42517,0.04,0.882,0.4,192,1,64,27,144,12,128,0,0,0,1.71E+09,0, 2024-03-15 14:23:52.017
11,-66240.57934,-48984.09384,-53995.35495,-35203.21521,-44097.64488,-58858.04401,-31654.40639,-54579.56249,0.04,0.882,0.4,192,0,0,0,0,0,0,0,0,0,1.71E+09,0, 2024-03-15 14:23:52.017
12,-66169.79136,-48917.01626,-53913.97225,-35122.19013,-44021.89482,-58797.49314,-31591.03919,-54538.30117,0.04,0.882,0.4,192,0,0,0,0,0,0,0,0,0,1.71E+09,0, 2024-03-15 14:23:52.017
13,-66248.17893,-48985.01026,-53991.73397,-35198.6331,-44089.44179,-58842.59896,-31581.91968,-54617.62752,0.04,0.882,0.4,192,0,0,0,0,0,0,0,0,0,1.71E+09,0, 2024-03-15 14:23:52.017
14,-66362.64221,-49091.1587,-54109.30414,-35314.50454,-44198.02656,-58928.07203,-31654.16052,-54721.04904,0.04,0.882,0.4,192,0,0,0,0,0,0,0,0,0,1.71E+09,0, 2024-03-15 14:23:52.017
15,-66360.22822,-49085.23549,-54119.02715,-35318.52786,-44211.32585,-58945.28287,-31701.88149,-54744.2725,0.04,0.882,0.4,192,0,0,0,0,0,0,0,0,0,1.71E+09,0, 2024-03-15 14:23:52.017
16,-66239.41705,-48963.41848,-54000.20528,-35197.94019,-44105.71386,-58865.73301,-31661.71541,-54650.55164,0.04,0.882,0.4,192,0,0,0,0,0,0,0,0,0,1.71E+09,0, 2024-03-15 14:23:52.017
17,-66166.12567,-48899.69366,-53915.67098,-35114.56819,-44028.7121,-58799.30363,-31589.2287,-54575.94151,0.04,0.882,0.4,192,0,0,0,0,0,0,0,0,0,1.71E+09,0, 2024-03-15 14:23:52.017
18,-66250.83879,-48984.00444,-53993.92444,-35189.29007,-44095.78968,-58836.02754,-31594.28019,-54598.2709,0.04,0.882,0.4,192,0,0,0,0,0,0,0,0,0,1.71E+09,0, 2024-03-15 14:23:52.017
19,-66357.76953,-49087.33655,-54106.06314,-35302.68047,-44197.60188,-58919.69012,-31660.2849,-54698.94316,0.04,0.882,0.4,192,0,0,0,0,0,0,0,0,0,1.71E+09,0, 2024-03-15 14:23:52.017
20,-66357.70248,-49084.22966,-54109.63942,-35307.35198,-44206.22965,-58935.76103,-31696.98646,-54704.84402,0.038,0.876,0.4,192,1,48,27,96,12,128,0,0,0,1.71E+09,0, 2024-03-15 14:23:52.017
21,-66250.95055,-48977.00834,-54001.85931,-35195.01212,-44107.68081,-58861.62029,-31653.35586,-54613.26893,0.038,0.876,0.4,192,0,0,0,0,0,0,0,0,0,1.71E+09,0, 2024-03-15 14:23:52.017
22,-66178.19562,-48910.35544,-53923.13646,-35111.64011,-44030.90257,-58795.52618,-31590.07807,-54548.91825,0.038,0.876,0.4,192,0,0,0,0,0,0,0,0,0,1.71E+09,0, 2024-03-15 14:23:52.017
23,-66247.866,-48979.57879,-53977.65237,-35177.466,-44083.60798,-58831.02075,-31581.98674,-54606.94338,0.038,0.876,0.4,192,0,0,0,0,0,0,0,0,0,1.71E+09,0, 2024-03-15 14:23:52.017
24,-66353.74622,-49094.08678,-54102.21864,-35294.32092,-44200.61936,-58920.85241,-31655.94866,-54722.16662,0.038,0.876,0.4,192,0,0,0,0,0,0,0,0,0,1.71E+09,0, 2024-03-15 14:23:52.017
25,-66350.48286,-49100.00999,-54103.91737,-35304.46861,-44204.03918,-58943.38297,-31699.71337,-54752.05091,0.038,0.876,0.4,192,0,0,0,0,0,0,0,0,0,1.71E+09,0, 2024-03-15 14:23:52.017
26,-66241.67457,-48995.71675,-53996.98663,-35194.74389,-44106.9432,-58869.55516,-31660.3296,-54658.59826,0.038,0.876,0.4,192,0,0,0,0,0,0,0,0,0,1.71E+09,0, 2024-03-15 14:23:52.017
27,-66162.50469,-48913.30587,-53906.52912,-35104.66636,-44022.45361,-58795.61559,-31580.82444,-54558.41774,0.038,0.876,0.4,192,0,0,0,0,0,0,0,0,0,1.71E+09,0, 2024-03-15 14:23:52.017
28,-66240.66874,-48984.1609,-53978.6582,-35181.86929,-44082.95978,-58839.11208,-31582.54553,-54615.23588,0.038,0.876,0.4,192,0,0,0,0,0,0,0,0,0,1.71E+09,0, 2024-03-15 14:23:52.017
29,-66361.77049,-49099.76412,-54106.73369,-35312.55994,-44202.49691,-58938.37618,-31656.61921,-54734.16951,0.038,0.876,0.4,192,0,0,0,0,0,0,0,0,0,1.71E+09,0, 2024-03-15 14:23:52.017
30,-66364.49741,-49105.15089,-54117.35077,-35328.96612,-44216.98084,-58966.1147,-31701.72503,-54779.78942,0.044,0.88,0.392,192,1,96,27,128,12,64,0,0,0,1.71E+09,0, 2024-03-15 14:23:52.017
31,-66255.13032,-49002.8246,-54006.73199,-35219.66609,-44118.58846,-58895.0585,-31672.01956,-54708.55441,0.044,0.88,0.392,192,0,0,0,0,0,0,0,0,0,1.71E+09,0, 2024-03-15 14:23:52.017
32,-66186.84574,-48931.5896,-53927.20448,-35134.30478,-44041.5867,-58825.63398,-31602.0586,-54633.51961,0.044,0.88,0.392,192,0,0,0,0,0,0,0,0,0,1.71E+09,0, 2024-03-15 14:23:52.017
33,-66269.05546,-49002.71285,-54006.95551,-35206.83619,-44108.39607,-58863.90017,-31600.7175,-54681.62056,0.044,0.88,0.392,192,0,0,0,0,0,0,0,0,0,1.71E+09,0, 2024-03-15 14:23:52.017
34,-66372.36522,-49104.12271,-54107.58306,-35314.39278,-44201.78165,-58937.9515,-31653.84759,-54723.66419,0.044,0.88,0.392,192,0,0,0,0,0,0,0,0,0,1.71E+09,0, 2024-03-15 14:23:52.017
35,-66366.82199,-49105.41911,-54107.13602,-35316.65031,-44206.69904,-58951.36254,-31696.33826,-54722.74777,0.044,0.88,0.392,192,0,0,0,0,0,0,0,0,0,1.71E+09,0, 2024-03-15 14:23:52.017
36,-66254.75034,-49003.15988,-53993.05272,-35204.33279,-44111.19003,-58879.14406,-31670.96903,-54656.69836,0.044,0.88,0.392,192,0,0,0,0,0,0,0,0,0,1.71E+09,0, 2024-03-15 14:23:52.017
37,-66178.37443,-48931.6343,-53911.4465,-35117.63038,-44029.51676,-58807.75259,-31599.28699,-54559.133,0.044,0.88,0.392,192,0,0,0,0,0,0,0,0,0,1.71E+09,0, 2024-03-15 14:23:52.017
38,-66259.15364,-49005.23859,-53985.699,-35192.53107,-44087.85481,-58851.15967,-31589.63103,-54616.86756,0.044,0.88,0.392,192,0,0,0,0,0,0,0,0,0,1.71E+09,0, 2024-03-15 14:23:52.017
39,-66375.65093,-49116.37147,-54106.84545,-35318.68432,-44200.88758,-58949.26148,-31664.15175,-54767.96535,0.044,0.88,0.392,192,0,0,0,0,0,0,0,0,0,1.71E+09,0, 2024-03-15 14:23:52.017
40,-66366.19614,-49115.92443,-54109.92999,-35319.66779,-44208.82245,-58960.90674,-31702.23912,-54786.33848,0.042,0.89,0.396,192,1,80,27,208,12,96,0,0,0,1.71E+09,0, 2024-03-15 14:23:52.017
41,-66255.13032,-49009.91011,-53993.70092,-35204.24339,-44108.1949,-58882.2286,-31667.3704,-54676.43496,0.042,0.89,0.396,192,0,0,0,0,0,0,0,0,0,1.71E+09,0, 2024-03-15 14:23:52.017
42,-66179.98376,-48928.75092,-53908.18315,-35115.26109,-44027.77332,-58808.22197,-31595.39778,-54559.58004,0.042,0.89,0.396,192,0,0,0,0,0,0,0,0,0,1.71E+09,0, 2024-03-15 14:23:52.017
43,-66257.76783,-48998.46601,-53989.47644,-35185.33381,-44093.26394,-58844.16358,-31589.8322,-54586.55859,0.042,0.89,0.396,192,0,0,0,0,0,0,0,0,0,1.71E+09,0, 2024-03-15 14:23:52.017
44,-66367.6043,-49109.57654,-54110.30997,-35306.54732,-44205.08971,-58937.32565,-31661.6707,-54719.97615,0.042,0.89,0.396,192,0,0,0,0,0,0,0,0,0,1.71E+09,0, 2024-03-15 14:23:52.017
45,-66357.47896,-49107.47547,-54106.28666,-35309.4754,-44206.47552,-58952.0331,-31703.13319,-54756.70007,0.042,0.89,0.396,192,0,0,0,0,0,0,0,0,0,1.71E+09,0, 2024-03-15 14:23:52.017
46,-66248.71537,-49002.37757,-53994.34912,-35193.42514,-44107.45729,-58872.72911,-31671.84075,-54645.25427,0.042,0.89,0.396,192,0,0,0,0,0,0,0,0,0,1.71E+09,0, 2024-03-15 14:23:52.017
47,-66169.79136,-48921.37485,-53905.6574,-35102.27473,-44021.69365,-58798.2978,-31591.55328,-54555.9814,0.042,0.89,0.396,192,0,0,0,0,0,0,0,0,0,1.71E+09,0, 2024-03-15 14:23:52.017
48,-66245.16144,-48995.64969,-53983.48617,-35179.09767,-44088.74888,-58839.96145,-31590.14512,-54619.70623,0.042,0.89,0.396,192,0,0,0,0,0,0,0,0,0,1.71E+09,0, 2024-03-15 14:23:52.017
49,-66364.89974,-49112.01288,-54108.18656,-35304.91564,-44202.9663,-58933.4588,-31663.86118,-54728.73804,0.042,0.89,0.396,192,0,0,0,0,0,0,0,0,0,1.71E+09,0, 2024-03-15 14:23:52.017
50,-66360.89878,-49114.89625,-54114.37799,-35310.92826,-44209.56006,-58948.8368,-31696.33826,-54745.54655,0.042,0.882,0.392,192,1,80,27,144,12,64,0,0,0,1.71E+09,0, 2024-03-15 14:23:52.017
51,-66244.06621,-49013.88872,-53995.80198,-35200.33183,-44108.99956,-58879.34522,-31668.19741,-54684.32512,0.042,0.882,0.392,192,0,0,0,0,0,0,0,0,0,1.71E+09,0, 2024-03-15 14:23:52.017
52,-66164.40459,-48931.43313,-53902.17053,-35106.02982,-44025.42639,-58802.56698,-31602.21506,-54608.86563,0.042,0.882,0.392,192,0,0,0,0,0,0,0,0,0,1.71E+09,0, 2024-03-15 14:23:52.017
53,-66238.76884,-48995.91792,-53973.04791,-35172.4145,-44084.50205,-58834.86525,-31592.89439,-54632.11145,0.042,0.882,0.392,192,0,0,0,0,0,0,0,0,0,1.71E+09,0, 2024-03-15 14:23:52.017
54,-66350.46051,-49104.30152,-54091.42275,-35287.95067,-44192.55038,-58917.522,-31656.99919,-54706.74392,0.042,0.882,0.392,192,0,0,0,0,0,0,0,0,0,1.71E+09,0, 2024-03-15 14:23:52.017
55,-66346.01251,-49107.92251,-54100.13993,-35296.15376,-44205.35793,-58937.14683,-31702.06031,-54744.9207,0.042,0.882,0.392,192,0,0,0,0,0,0,0,0,0,1.71E+09,0, 2024-03-15 14:23:52.017
56,-66239.12647,-49004.74685,-53998.50655,-35190.20649,-44114.25222,-58870.27042,-31678.47922,-54678.84894,0.042,0.882,0.392,192,0,0,0,0,0,0,0,0,0,1.71E+09,0, 2024-03-15 14:23:52.017
57,-66164.494,-48927.11925,-53912.87701,-35104.71107,-44031.01433,-58804.39982,-31613.05566,-54592.75002,0.042,0.882,0.392,192,0,0,0,0,0,0,0,0,0,1.71E+09,0, 2024-03-15 14:23:52.017
58,-66232.17508,-48989.61472,-53977.3618,-35170.20168,-44082.69156,-58834.17235,-31602.37153,-54606.5634,0.042,0.882,0.392,192,0,0,0,0,0,0,0,0,0,1.71E+09,0, 2024-03-15 14:23:52.017
59,-66346.14662,-49091.33751,-54093.61322,-35291.07991,-44192.28216,-58924.83102,-31660.9331,-54726.3911,0.042,0.882,0.392,192,0,0,0,0,0,0,0,0,0,1.71E+09,0, 2024-03-15 14:23:52.017
60,-66344.24673,-49101.14993,-54097.39066,-35292.17515,-44198.65241,-58935.87279,-31698.95341,-54733.58837,0.042,0.89,0.398,192,1,80,27,208,12,112,0,0,0,1.71E+09,0, 2024-03-15 14:23:52.017
61,-66238.07594,-49009.95481,-53986.05662,-35179.96939,-44100.86353,-58858.75927,-31666.74455,-54621.33791,0.042,0.89,0.398,192,0,0,0,0,0,0,0,0,0,1.71E+09,0, 2024-03-15 14:23:52.017
62,-66158.81665,-48928.08037,-53891.66521,-35087.34376,-44010.16015,-58783.43389,-31591.70974,-54525.94066,0.042,0.89,0.398,192,0,0,0,0,0,0,0,0,0,1.71E+09,0, 2024-03-15 14:23:52.017
63,-66230.76692,-48990.46409,-53959.50275,-35156.70123,-44068.14057,-58819.88958,-31581.89733,-54579.07076,0.042,0.89,0.398,192,0,0,0,0,0,0,0,0,0,1.71E+09,0, 2024-03-15 14:23:52.017
64,-66340.40223,-49098.75829,-54074.92716,-35279.16643,-44172.36676,-58910.25769,-31645.44334,-54697.35619,0.042,0.89,0.398,192,0,0,0,0,0,0,0,0,0,1.71E+09,0, 2024-03-15 14:23:52.017
65,-66343.68793,-49106.55905,-54086.05833,-35295.17028,-44188.21415,-58932.67649,-31696.24885,-54724.02182,0.042,0.89,0.398,192,0,0,0,0,0,0,0,0,0,1.71E+09,0, 2024-03-15 14:23:52.017
66,-66229.15759,-49006.24442,-53977.11593,-35185.08794,-44089.97823,-58864.01193,-31652.77471,-54656.11722,0.042,0.89,0.398,192,0,0,0,0,0,0,0,0,0,1.71E+09,0, 2024-03-15 14:23:52.017
67,-66157.96729,-48939.30095,-53902.81873,-35107.48268,-44023.14651,-58809.76424,-31598.34821,-54652.27272,0.042,0.89,0.398,192,0,0,0,0,0,0,0,0,0,1.71E+09,0, 2024-03-15 14:23:52.017
68,-66237.11482,-49006.60205,-53974.36666,-35177.77892,-44086.08903,-58846.86814,-31597.40944,-54679.69831,0.042,0.89,0.398,192,0,0,0,0,0,0,0,0,0,1.71E+09,0, 2024-03-15 14:23:52.017
69,-66342.0339,-49105.26265,-54081.76679,-35282.98858,-44179.83224,-58912.31405,-31653.51232,-54686.87322,0.042,0.89,0.398,192,0,0,0,0,0,0,0,0,0,1.71E+09,0, 2024-03-15 14:23:52.017
70,-66336.42362,-49104.10036,-54085.72305,-35287.0119,-44190.62813,-58921.85824,-31688.35869,-54692.3494,0.046,0.888,0.396,192,1,112,27,192,12,96,0,0,0,1.71E+09,0, 2024-03-15 14:23:52.017
71,-66231.32571,-49002.89166,-53978.03235,-35180.14821,-44095.54381,-58851.33849,-31654.87577,-54612.39721,0.046,0.888,0.396,192,0,0,0,0,0,0,0,0,0,1.71E+09,0, 2024-03-15 14:23:52.017
72,-66165.20925,-48935.99289,-53897.07433,-35104.33109,-44016.66451,-58796.64377,-31589.80985,-54548.56063,0.046,0.888,0.396,192,0,0,0,0,0,0,0,0,0,1.71E+09,0, 2024-03-15 14:23:52.017
73,-66231.32571,-48994.97914,-53958.58633,-35167.45241,-44067.2465,-58831.33368,-31575.32592,-54587.56442,0.046,0.888,0.396,192,0,0,0,0,0,0,0,0,0,1.71E+09,0, 2024-03-15 14:23:52.017
74,-66346.41485,-49107.47547,-54081.8115,-35289.33648,-44178.98288,-58918.68429,-31641.0624,-54690.94124,0.046,0.888,0.396,192,0,0,0,0,0,0,0,0,0,1.71E+09,0, 2024-03-15 14:23:52.017
75,-66345.45372,-49108.14602,-54088.06999,-35298.27718,-44189.89053,-58935.87279,-31679.03801,-54715.72932,0.046,0.888,0.396,192,0,0,0,0,0,0,0,0,0,1.71E+09,0, 2024-03-15 14:23:52.017
76,-66236.86895,-49008.92663,-53976.24421,-35187.92661,-44089.59825,-58865.48714,-31647.79027,-54642.79558,0.046,0.888,0.396,192,0,0,0,0,0,0,0,0,0,1.71E+09,0, 2024-03-15 14:23:52.017
77,-66151.64174,-48929.24266,-53885.54083,-35093.49049,-44003.47698,-58792.10637,-31574.05187,-54567.5149,0.046,0.888,0.396,192,0,0,0,0,0,0,0,0,0,1.71E+09,0, 2024-03-15 14:23:52.017
78,-66223.63671,-48994.55446,-53953.35602,-35159.89753,-44064.20667,-58826.63981,-31575.1024,-54606.36224,0.046,0.888,0.396,192,0,0,0,0,0,0,0,0,0,1.71E+09,0, 2024-03-15 14:23:52.017
79,-66342.95033,-49109.733,-54078.0117,-35285.53668,-44177.15003,-58918.32667,-31644.43751,-54714.8129,0.046,0.888,0.396,192,0,0,0,0,0,0,0,0,0,1.71E+09,0, 2024-03-15 14:23:52.017
80,-66352.1816,-49117.91374,-54091.53451,-35297.87484,-44193.39975,-58938.75616,-31686.34703,-54732.85076,0.046,0.884,0.398,192,1,112,27,160,12,112,0,0,0,1.71E+09,0, 2024-03-15 14:23:52.017
81,-66239.99819,-49009.91011,-53980.84867,-35184.43974,-44096.32612,-58863.22962,-31653.2441,-54627.23877,0.046,0.884,0.398,192,0,0,0,0,0,0,0,0,0,1.71E+09,0, 2024-03-15 14:23:52.017
82,-66158.7943,-48935.4788,-53897.43196,-35098.92197,-44018.65381,-58801.80702,-31589.31811,-54592.54886,0.046,0.884,0.398,192,0,0,0,0,0,0,0,0,0,1.71E+09,0, 2024-03-15 14:23:52.017
83,-66229.62698,-48997.75076,-53965.98476,-35166.29012,-44075.69546,-58840.22967,-31583.03727,-54676.70318,0.046,0.884,0.398,192,0,0,0,0,0,0,0,0,0,1.71E+09,0, 2024-03-15 14:23:52.017
84,-66345.43137,-49104.56975,-54083.19731,-35279.83699,-44183.20735,-58918.23726,-31642.17998,-54725.60879,0.046,0.884,0.398,192,0,0,0,0,0,0,0,0,0,1.71E+09,0, 2024-03-15 14:23:52.017
85,-66342.34683,-49114.58333,-54087.35473,-35283.70384,-44190.7846,-58927.1109,-31677.58515,-54693.51169,0.046,0.884,0.398,192,0,0,0,0,0,0,0,0,0,1.71E+09,0, 2024-03-15 14:23:52.017
86,-66235.72901,-49011.49708,-53981.38511,-35176.10254,-44099.67889,-58859.38512,-31658.02737,-54620.71206,0.046,0.884,0.398,192,0,0,0,0,0,0,0,0,0,1.71E+09,0, 2024-03-15 14:23:52.017
87,-66148.98189,-48924.41469,-53889.51944,-35079.99004,-44016.48569,-58784.05974,-31592.87203,-54547.57715,0.046,0.884,0.398,192,0,0,0,0,0,0,0,0,0,1.71E+09,0, 2024-03-15 14:23:52.017
88,-66228.12941,-48995.22501,-53964.53189,-35155.51658,-44080.5905,-58831.15486,-31591.62034,-54608.99974,0.046,0.884,0.398,192,0,0,0,0,0,0,0,0,0,1.71E+09,0, 2024-03-15 14:23:52.017
89,-66341.20689,-49103.11688,-54082.99614,-35276.1266,-44186.47071,-58919.82423,-31646.11389,-54733.32014,0.046,0.884,0.398,192,0,0,0,0,0,0,0,0,0,1.71E+09,0, 2024-03-15 14:23:52.017
90,-66346.61601,-49114.65038,-54099.0894,-35290.14114,-44204.66503,-58939.44906,-31690.63856,-54767.3395,0.046,0.886,0.398,192,1,112,27,176,12,112,0,0,0,1.71E+09,0, 2024-03-15 14:23:52.496
91,-66237.18187,-49015.05101,-53976.1548,-35176.72839,-44095.16383,-58861.7544,-31654.51815,-54640.89568,0.046,0.886,0.398,192,0,0,0,0,0,0,0,0,0,1.71E+09,0, 2024-03-15 14:23:52.496
92,-66146.99258,-48925.75579,-53874.67788,-35071.54108,-44000.99593,-58774.71671,-31579.57275,-54515.70356,0.046,0.886,0.398,192,0,0,0,0,0,0,0,0,0,1.71E+09,0, 2024-03-15 14:23:52.496
93,-66212.25968,-48982.03748,-53936.34634,-35133.85774,-44051.42147,-58808.80312,-31563.92653,-54586.0892,0.046,0.886,0.398,192,0,0,0,0,0,0,0,0,0,1.71E+09,0, 2024-03-15 14:23:52.496
94,-66340.24576,-49103.00512,-54070.14389,-35268.19173,-44175.56306,-58911.17411,-31642.71642,-54736.15882,0.046,0.886,0.398,192,0,0,0,0,0,0,0,0,0,1.71E+09,0, 2024-03-15 14:23:52.496
95,-66356.94252,-49122.5182,-54093.59087,-35288.86709,-44203.30157,-58935.96219,-31698.32756,-54754.93428,0.046,0.886,0.398,192,0,0,0,0,0,0,0,0,0,1.71E+09,0, 2024-03-15 14:23:52.496
96,-66247.48602,-49025.35516,-53983.1509,-35179.20943,-44101.01999,-58860.21213,-31661.73776,-54652.58564,0.046,0.886,0.398,192,0,0,0,0,0,0,0,0,0,1.71E+09,0, 2024-03-15 14:23:52.496
97,-66149.45127,-48935.92583,-53876.33191,-35077.01726,-43999.54307,-58779.36587,-31576.06352,-54567.55961,0.046,0.886,0.398,192,0,0,0,0,0,0,0,0,0,1.71E+09,0, 2024-03-15 14:23:52.496
98,-66211.38796,-48985.68082,-53933.59708,-35133.79069,-44046.16881,-58803.90809,-31560.28319,-54582.78115,0.046,0.886,0.398,192,0,0,0,0,0,0,0,0,0,1.71E+09,0, 2024-03-15 14:23:52.496
99,-66333.20496,-49099.40649,-54061.40435,-35264.48134,-44164.00721,-58899.70766,-31632.79225,-54677.17256,0.046,0.886,0.398,192,0,0,0,0,0,0,0,0,0,1.71E+09,0, 2024-03-15 14:23:52.496
100,-66343.08444,-49120.35008,-54079.19634,-35281.53572,-44183.7438,-58922.46174,-31675.90877,-54682.62639,0.04,0.886,0.4,192,1,64,27,176,12,128,0,0,0,1.71E+09,0, 2024-03-15 14:23:52.496
101,-66241.74163,-49028.19383,-53974.70194,-35177.42129,-44087.09485,-58858.62516,-31642.06822,-54623.61778,0.04,0.886,0.4,192,0,0,0,0,0,0,0,0,0,1.71E+09,0, 2024-03-15 14:23:52.496
102,-66156.98381,-48943.79365,-53879.70702,-35081.37585,-44009.95898,-58789.71473,-31583.17138,-54562.53047,0.04,0.886,0.4,192,0,0,0,0,0,0,0,0,0,1.71E+09,0, 2024-03-15 14:23:52.496
103,-66216.08182,-48990.97818,-53930.89252,-35130.19206,-44049.49922,-58809.63013,-31570.76616,-54578.69078,0.04,0.886,0.4,192,0,0,0,0,0,0,0,0,0,1.71E+09,0, 2024-03-15 14:23:52.496
104,-66325.04658,-49094.3997,-54048.61916,-35247.56107,-44157.16757,-58895.03615,-31631.20528,-54693.84696,0.04,0.886,0.4,192,0,0,0,0,0,0,0,0,0,1.71E+09,0, 2024-03-15 14:23:52.496
105,-66349.56644,-49122.96523,-54081.29741,-35280.79811,-44193.77973,-58934.7552,-31693.6784,-54720.62435,0.04,0.886,0.4,192,0,0,0,0,0,0,0,0,0,1.71E+09,0, 2024-03-15 14:23:52.496
106,-66239.88643,-49019.18608,-53973.40554,-35171.63219,-44096.43788,-58862.02262,-31660.77663,-54624.60126,0.04,0.886,0.4,192,0,0,0,0,0,0,0,0,0,1.71E+09,0, 2024-03-15 14:23:52.496
107,-66153.87692,-48941.29025,-53881.58457,-35079.4536,-44011.23303,-58795.68264,-31589.29576,-54572.83462,0.04,0.886,0.4,192,0,0,0,0,0,0,0,0,0,1.71E+09,0, 2024-03-15 14:23:52.496
108,-66217.35587,-49002.42227,-53946.58344,-35140.58562,-44065.65953,-58829.25496,-31583.37254,-54617.13578,0.04,0.886,0.4,192,0,0,0,0,0,0,0,0,0,1.71E+09,0, 2024-03-15 14:23:52.496
109,-66338.1,-49112.2811,-54068.73573,-35261.46385,-44178.51349,-58909.60949,-31645.75626,-54672.67986,0.04,0.886,0.4,192,0,0,0,0,0,0,0,0,0,1.71E+09,0, 2024-03-15 14:23:52.496
110,-66349.7229,-49127.14501,-54092.29447,-35281.46866,-44204.28505,-58933.63761,-31686.92818,-54692.66232,0.042,0.88,0.402,192,1,80,27,128,12,144,0,0,0,1.71E+09,0, 2024-03-15 14:23:52.496
111,-66239.55116,-49027.50093,-53978.79231,-35174.20264,-44099.45537,-58866.51532,-31661.0225,-54620.98028,0.042,0.88,0.402,192,0,0,0,0,0,0,0,0,0,1.71E+09,0, 2024-03-15 14:23:52.496
112,-66144.80211,-48930.78493,-53871.86156,-35065.48376,-44000.5042,-58780.30464,-31592.71557,-54527.19236,0.042,0.88,0.402,192,0,0,0,0,0,0,0,0,0,1.71E+09,0, 2024-03-15 14:23:52.496
113,-66204.12364,-48975.1755,-53926.69039,-35117.47391,-44048.09106,-58804.91391,-31571.70493,-54575.94151,0.042,0.88,0.402,192,0,0,0,0,0,0,0,0,0,1.71E+09,0, 2024-03-15 14:23:52.496
114,-66314.83183,-49082.79915,-54047.79214,-35238.66507,-44160.58739,-58892.30924,-31635.80974,-54693.6905,0.042,0.88,0.402,192,0,0,0,0,0,0,0,0,0,1.71E+09,0, 2024-03-15 14:23:52.496
115,-66327.77349,-49098.91475,-54068.71338,-35261.82148,-44185.06255,-58920.31597,-31683.41895,-54731.17438,0.042,0.88,0.402,192,0,0,0,0,0,0,0,0,0,1.71E+09,0, 2024-03-15 14:23:52.496
116,-66233.91852,-49002.8246,-53970.65627,-35163.92084,-44095.29794,-58859.36276,-31660.95545,-54649.52345,0.042,0.88,0.402,192,0,0,0,0,0,0,0,0,0,1.71E+09,0, 2024-03-15 14:23:52.496
117,-66141.89638,-48914.98225,-53875.90723,-35061.43809,-44001.71119,-58779.74585,-31581.45029,-54561.45758,0.042,0.88,0.402,192,0,0,0,0,0,0,0,0,0,1.71E+09,0, 2024-03-15 14:23:52.496
118,-66204.1907,-48971.93449,-53928.92557,-35118.07741,-44054.3719,-58806.74676,-31574.09657,-54619.66152,0.042,0.88,0.402,192,0,0,0,0,0,0,0,0,0,1.71E+09,0, 2024-03-15 14:23:52.496
119,-66323.50431,-49082.218,-54048.35094,-35243.64951,-44165.01303,-58891.43752,-31628.9254,-54698.04909,0.042,0.88,0.402,192,0,0,0,0,0,0,0,0,0,1.71E+09,0, 2024-03-15 14:23:52.496
120,-66346.39249,-49107.92251,-54078.72696,-35275.34429,-44193.69032,-58922.0147,-31684.13421,-54709.33672,0.046,0.882,0.404,192,1,112,27,144,12,160,0,0,0,1.71E+09,0, 2024-03-15 14:23:52.496
121,-66253.94568,-49022.6506,-53985.7437,-35184.12682,-44108.75369,-58868.39287,-31669.40441,-54672.23283,0.046,0.882,0.404,192,0,0,0,0,0,0,0,0,0,1.71E+09,0, 2024-03-15 14:23:52.496
122,-66154.48042,-48932.41661,-53874.87905,-35073.82096,-44004.03577,-58782.65158,-31583.99839,-54571.40411,0.046,0.882,0.404,192,0,0,0,0,0,0,0,0,0,1.71E+09,0, 2024-03-15 14:23:52.496
123,-66212.6173,-48989.68178,-53932.68066,-35129.70032,-44050.23683,-58807.57377,-31565.71467,-54585.95509,0.046,0.882,0.404,192,0,0,0,0,0,0,0,0,0,1.71E+09,0, 2024-03-15 14:23:52.496
124,-66332.71323,-49104.07801,-54061.09143,-35253.19371,-44169.08105,-58892.4657,-31634.6698,-54642.50501,0.046,0.882,0.404,192,0,0,0,0,0,0,0,0,0,1.71E+09,0, 2024-03-15 14:23:52.496
125,-66350.30405,-49121.66883,-54084.87369,-35276.39482,-44198.83122,-58920.42773,-31685.56472,-54683.31929,0.046,0.882,0.404,192,0,0,0,0,0,0,0,0,0,1.71E+09,0, 2024-03-15 14:23:52.496
126,-66251.50934,-49028.50676,-53982.74857,-35175.78962,-44109.69247,-58860.63681,-31670.27613,-54645.96953,0.046,0.882,0.404,192,0,0,0,0,0,0,0,0,0,1.71E+09,0, 2024-03-15 14:23:52.496
127,-66161.43181,-48939.2786,-53878.47768,-35075.0056,-44011.09892,-58785.5126,-31597.00711,-54568.92306,0.046,0.882,0.404,192,0,0,0,0,0,0,0,0,0,1.71E+09,0, 2024-03-15 14:23:52.496
128,-66215.50068,-48986.46313,-53923.24822,-35117.96565,-44047.24169,-58795.41442,-31566.51933,-54579.42838,0.046,0.882,0.404,192,0,0,0,0,0,0,0,0,0,1.71E+09,0, 2024-03-15 14:23:52.496
129,-66327.14764,-49091.53868,-54042.42772,-35235.08879,-44155.33473,-58874.62901,-31626.13143,-54681.26293,0.046,0.882,0.404,192,0,0,0,0,0,0,0,0,0,1.71E+09,0, 2024-03-15 14:23:52.496
130,-66351.68986,-49120.52889,-54077.83289,-35274.2714,-44193.13153,-58918.41607,-31683.01662,-54754.64371,0.052,0.89,0.4,192,1,160,27,208,12,128,0,0,0,1.71E+09,0, 2024-03-15 14:23:52.496
131,-66250.72703,-49029.06555,-53975.41719,-35169.8664,-44102.71872,-58850.06444,-31660.77663,-54642.05797,0.052,0.89,0.4,192,0,0,0,0,0,0,0,0,0,1.71E+09,0, 2024-03-15 14:23:52.496
132,-66155.32978,-48934.56238,-53867.01123,-35056.69952,-44002.73937,-58758.35523,-31585.36185,-54471.38005,0.052,0.89,0.4,192,0,0,0,0,0,0,0,0,0,1.71E+09,0, 2024-03-15 14:23:52.496
133,-66206.87291,-48983.87033,-53918.33084,-35107.16976,-44044.22421,-58781.35518,-31562.98775,-54513.15546,0.052,0.89,0.4,192,0,0,0,0,0,0,0,0,0,1.71E+09,0, 2024-03-15 14:23:52.496
134,-66328.82402,-49101.17228,-54055.83877,-35242.8672,-44169.52809,-58882.20625,-31632.7252,-54658.21828,0.052,0.89,0.4,192,0,0,0,0,0,0,0,0,0,1.71E+09,0, 2024-03-15 14:23:52.496
135,-66352.58393,-49123.76989,-54090.88631,-35277.35594,-44211.90699,-58921.47826,-31692.58317,-54717.45041,0.052,0.89,0.4,192,0,0,0,0,0,0,0,0,0,1.71E+09,0, 2024-03-15 14:23:52.496
136,-66245.34026,-49024.77402,-53972.48912,-35169.48642,-44113.44756,-58852.23256,-31663.88353,-54638.90638,0.052,0.89,0.4,192,0,0,0,0,0,0,0,0,0,1.71E+09,0, 2024-03-15 14:23:52.496
137,-66145.80794,-48926.06871,-53870.69927,-35057.05715,-44018.43029,-58766.2901,-31595.10721,-54530.23219,0.052,0.89,0.4,192,0,0,0,0,0,0,0,0,0,1.71E+09,0, 2024-03-15 14:23:52.496
138,-66195.8535,-48971.28629,-53916.63211,-35100.21837,-44052.76257,-58781.7128,-31572.48724,-54547.04071,0.052,0.89,0.4,192,0,0,0,0,0,0,0,0,0,1.71E+09,0, 2024-03-15 14:23:52.496
139,-66322.29731,-49091.62809,-54043.94764,-35229.52321,-44166.62236,-58874.51725,-31631.54055,-54666.57784,0.052,0.89,0.4,192,0,0,0,0,0,0,0,0,0,1.71E+09,0, 2024-03-15 14:23:52.496
140,-66350.52757,-49125.96037,-54079.28575,-35267.63293,-44204.08388,-58915.06331,-31679.93208,-54711.34838,0.052,0.89,0.4,192,0,0,0,0,0,0,0,0,0,1.71E+09,0, 2024-03-15 14:23:52.496
141,-66245.80964,-49030.36195,-53975.75247,-35163.74203,-44112.93347,-58847.13636,-31658.04972,-54624.06482,0.04,0.886,0.398,192,1,64,27,176,12,112,0,0,0,1.71E+09,0, 2024-03-15 14:23:52.496
142,-66144.69035,-48931.23197,-53864.95487,-35052.25152,-44010.1825,-58762.08797,-31589.56398,-54526.11947,0.04,0.886,0.398,192,0,0,0,0,0,0,0,0,0,1.71E+09,0, 2024-03-15 14:23:52.496
143,-66194.40063,-48972.26977,-53910.7983,-35094.1834,-44046.16881,-58776.23663,-31567.63692,-54544.71613,0.04,0.886,0.398,192,0,0,0,0,0,0,0,0,0,1.71E+09,0, 2024-03-15 14:23:52.496
144,-66316.39645,-49091.02459,-54040.46077,-35223.17531,-44165.52713,-58867.27528,-31630.46767,-54664.99086,0.04,0.886,0.398,192,0,0,0,0,0,0,0,0,0,1.71E+09,0, 2024-03-15 14:23:52.496
145,-66345.76665,-49124.21693,-54077.65407,-35264.32488,-44206.54258,-58910.70472,-31688.15752,-54726.21229,0.04,0.886,0.398,192,0,0,0,0,0,0,0,0,0,1.71E+09,0, 2024-03-15 14:23:52.496
146,-66245.45202,-49030.92075,-53981.72039,-35170.26873,-44123.03646,-58854.91477,-31671.61723,-54672.45634,0.04,0.886,0.398,192,0,0,0,0,0,0,0,0,0,1.71E+09,0, 2024-03-15 14:23:52.496
147,-66144.69035,-48929.48853,-53874.9014,-35061.90748,-44022.74418,-58775.11904,-31604.89727,-54596.25925,0.04,0.886,0.398,192,0,0,0,0,0,0,0,0,0,1.71E+09,0, 2024-03-15 14:23:52.496
148,-66203.60955,-48978.4612,-53930.11021,-35115.41755,-44064.47489,-58802.1423,-31585.04892,-54635.95595,0.04,0.886,0.398,192,0,0,0,0,0,0,0,0,0,1.71E+09,0, 2024-03-15 14:23:52.496
149,-66327.50527,-49100.88171,-54057.24693,-35246.21996,-44182.38034,-58894.76793,-31653.19939,-54726.3464,0.04,0.886,0.398,192,0,0,0,0,0,0,0,0,0,1.71E+09,0, 2024-03-15 14:23:52.496
150,-66347.6889,-49127.03325,-54083.21966,-35271.29862,-44212.89047,-58919.44425,-31702.55204,-54726.56992,0.04,0.886,0.398,192,0,0,0,0,0,0,0,0,0,1.71E+09,0, 2024-03-15 14:23:52.496
151,-66249.47533,-49036.75455,-53982.10037,-35165.26194,-44122.43296,-58849.10331,-31675.7523,-54601.51191,0.04,0.888,0.396,192,1,64,27,192,12,96,0,0,0,1.71E+09,0, 2024-03-15 14:23:52.496
152,-66146.45614,-48934.58473,-53866.87712,-35045.68011,-44010.04839,-58754.66719,-31592.44735,-54474.82222,0.04,0.888,0.396,192,0,0,0,0,0,0,0,0,0,1.71E+09,0, 2024-03-15 14:23:52.496
153,-66196.45699,-48976.24838,-53913.16759,-35090.87534,-44048.18047,-58774.49319,-31563.39008,-54524.5772,0.04,0.888,0.396,192,0,0,0,0,0,0,0,0,0,1.71E+09,0, 2024-03-15 14:23:52.496
154,-66325.3595,-49098.37831,-54047.99331,-35229.9926,-44174.53488,-58878.78643,-31643.76696,-54669.21534,0.04,0.888,0.396,192,0,0,0,0,0,0,0,0,0,1.71E+09,0, 2024-03-15 14:23:52.496
155,-66345.72194,-49122.69701,-54069.00395,-35256.56882,-44199.36767,-58905.83204,-31689.20805,-54688.92958,0.04,0.888,0.396,192,0,0,0,0,0,0,0,0,0,1.71E+09,0, 2024-03-15 14:23:52.496
156,-66245.54142,-49032.50772,-53971.0139,-35154.62251,-44109.42425,-58839.3803,-31666.29752,-54592.10182,0.04,0.888,0.396,192,0,0,0,0,0,0,0,0,0,1.71E+09,0, 2024-03-15 14:23:52.496
157,-66147.32786,-48933.5789,-53862.80911,-35046.44007,-44005.84626,-58761.97621,-31595.37543,-54519.07867,0.04,0.888,0.396,192,0,0,0,0,0,0,0,0,0,1.71E+09,0, 2024-03-15 14:23:52.496
158,-66200.72618,-48977.63419,-53912.36292,-35096.97736,-44048.96278,-58788.91007,-31575.70589,-54579.24957,0.04,0.888,0.396,192,0,0,0,0,0,0,0,0,0,1.71E+09,0, 2024-03-15 14:23:52.496
159,-66329.94161,-49099.96529,-54049.46852,-35233.54652,-44174.82545,-58888.46474,-31647.03031,-54700.99952,0.04,0.888,0.396,192,0,0,0,0,0,0,0,0,0,1.71E+09,0, 2024-03-15 14:23:52.496
160,-66353.96974,-49123.36756,-54080.98448,-35262.71555,-44204.73208,-58915.91268,-31693.27607,-54712.24245,0.04,0.888,0.396,192,0,0,0,0,0,0,0,0,0,1.71E+09,0, 2024-03-15 14:23:52.496
161,-66249.78825,-49029.71375,-53976.51243,-35159.07051,-44111.23474,-58845.25881,-31664.1741,-54602.7189,0.038,0.886,0.392,192,1,48,27,176,12,64,0,0,0,1.71E+09,0, 2024-03-15 14:23:52.496
162,-66149.69714,-48932.48367,-53864.84311,-35047.58001,-44006.02508,-58762.98204,-31590.16747,-54521.20209,0.038,0.886,0.392,192,0,0,0,0,0,0,0,0,0,1.71E+09,0, 2024-03-15 14:23:52.496
163,-66198.64746,-48975.95781,-53905.63505,-35086.06971,-44039.21742,-58774.29202,-31565.17822,-54520.28567,0.038,0.886,0.392,192,0,0,0,0,0,0,0,0,0,1.71E+09,0, 2024-03-15 14:23:52.496
164,-66321.58206,-49093.43858,-54035.0293,-35214.97222,-44159.17923,-58864.05663,-31624.72327,-54620.75676,0.038,0.886,0.392,192,0,0,0,0,0,0,0,0,0,1.71E+09,0, 2024-03-15 14:23:52.497
165,-66342.01155,-49119.81364,-54067.01464,-35250.91383,-44194.38323,-58901.96519,-31680.96026,-54688.41549,0.038,0.886,0.392,192,0,0,0,0,0,0,0,0,0,1.71E+09,0, 2024-03-15 14:23:52.497
166,-66247.75425,-49034.7876,-53970.16453,-35158.31055,-44107.34553,-58847.47164,-31668.42093,-54639.53223,0.038,0.886,0.392,192,0,0,0,0,0,0,0,0,0,1.71E+09,0, 2024-03-15 14:23:52.497
167,-66157.60966,-48949.0016,-53871.61569,-35058.91234,-44014.0717,-58775.78959,-31609.41233,-54537.56357,0.038,0.886,0.392,192,0,0,0,0,0,0,0,0,0,1.71E+09,0, 2024-03-15 14:23:52.497
168,-66200.61442,-48982.93155,-53912.67585,-35096.26211,-44051.84615,-58787.21133,-31579.30453,-54553.09803,0.038,0.886,0.392,192,0,0,0,0,0,0,0,0,0,1.71E+09,0, 2024-03-15 14:23:52.497
169,-66318.11754,-49094.31029,-54040.46077,-35224.78464,-44171.38328,-58878.76408,-31641.21886,-54697.71382,0.038,0.886,0.392,192,0,0,0,0,0,0,0,0,0,1.71E+09,0, 2024-03-15 14:23:52.497
170,-66348.67237,-49124.70867,-54081.83385,-35265.95655,-44212.33168,-58919.57836,-31697.85818,-54750.53099,0.038,0.886,0.392,192,0,0,0,0,0,0,0,0,0,1.71E+09,0, 2024-03-15 14:23:52.497
171,-66246.59196,-49029.15496,-53976.803,-35162.04329,-44116.4874,-58849.21507,-31673.36067,-54625.1377,0.044,0.884,0.394,192,1,96,27,160,12,80,0,0,0,1.71E+09,0, 2024-03-15 14:23:52.497
172,-66141.80698,-48926.5828,-53860.03749,-35043.37788,-44006.74033,-58758.82462,-31596.47067,-54492.41304,0.044,0.884,0.394,192,0,0,0,0,0,0,0,0,0,1.71E+09,0, 2024-03-15 14:23:52.497
173,-66185.16936,-48959.73044,-53895.12973,-35076.302,-44033.853,-58765.50779,-31564.88765,-54511.7026,0.044,0.884,0.394,192,0,0,0,0,0,0,0,0,0,1.71E+09,0, 2024-03-15 14:23:52.497
174,-66309.48976,-49076.83123,-54021.75236,-35205.24921,-44149.03154,-58855.47356,-31620.87877,-54624.08717,0.044,0.884,0.394,192,0,0,0,0,0,0,0,0,0,1.71E+09,0, 2024-03-15 14:23:52.497
175,-66347.89006,-49122.92053,-54072.11084,-35260.39097,-44201.35697,-58911.66585,-31687.71049,-54705.35811,0.044,0.884,0.394,192,0,0,0,0,0,0,0,0,0,1.71E+09,0, 2024-03-15 14:23:52.497
176,-66250.57057,-49037.13453,-53977.02652,-35170.11227,-44116.55445,-58858.53575,-31679.03801,-54667.40485,0.044,0.884,0.394,192,0,0,0,0,0,0,0,0,0,1.71E+09,0, 2024-03-15 14:23:52.497
177,-66142.7234,-48932.48367,-53856.95295,-35048.02704,-44004.88514,-58765.77601,-31599.33169,-54544.71613,0.044,0.884,0.394,192,0,0,0,0,0,0,0,0,0,1.71E+09,0, 2024-03-15 14:23:52.497
178,-66190.66789,-48971.19689,-53897.45431,-35086.24853,-44035.93171,-58778.98589,-31569.53681,-54531.14862,0.044,0.884,0.394,192,0,0,0,0,0,0,0,0,0,1.71E+09,0, 2024-03-15 14:23:52.497
179,-66313.87071,-49086.86716,-54028.41318,-35214.704,-44154.91005,-58868.54933,-31628.59012,-54623.17075,0.044,0.884,0.394,192,0,0,0,0,0,0,0,0,0,1.71E+09,0, 2024-03-15 14:23:52.497
180,-66343.53147,-49120.10421,-54063.43836,-35248.85747,-44192.95272,-58899.03711,-31680.78145,-54632.31261,0.044,0.884,0.394,192,0,0,0,0,0,0,0,0,0,1.71E+09,0, 2024-03-15 14:23:52.497
181,-66248.73772,-49039.16854,-53969.35987,-35157.75176,-44108.46312,-58847.87397,-31671.43842,-54588.30203,0.044,0.886,0.396,192,1,96,27,176,12,96,0,0,0,1.71E+09,0, 2024-03-15 14:23:52.497
182,-66139.14712,-48931.52254,-53850.29213,-35038.41579,-43999.99011,-58763.20556,-31598.59408,-54506.0029,0.044,0.886,0.396,192,0,0,0,0,0,0,0,0,0,1.71E+09,0, 2024-03-15 14:23:52.497
183,-66177.2792,-48958.85872,-53881.9869,-35069.70824,-44027.10277,-58770.96161,-31566.34051,-54525.15835,0.044,0.886,0.396,192,0,0,0,0,0,0,0,0,0,1.71E+09,0, 2024-03-15 14:23:52.497
184,-66307.3887,-49080.16164,-54017.86316,-35204.22103,-44151.26671,-58862.06733,-31633.4628,-54626.88114,0.044,0.886,0.396,192,0,0,0,0,0,0,0,0,0,1.71E+09,0, 2024-03-15 14:23:52.497
185,-66344.20202,-49118.87486,-54060.37617,-35248.11986,-44189.19762,-58900.10999,-31684.46948,-54664.05209,0.044,0.886,0.396,192,0,0,0,0,0,0,0,0,0,1.71E+09,0, 2024-03-15 14:23:52.497
186,-66258.41603,-49043.66124,-53973.69611,-35163.13853,-44113.08993,-58850.55618,-31674.09827,-54609.22326,0.044,0.886,0.396,192,0,0,0,0,0,0,0,0,0,1.71E+09,0, 2024-03-15 14:23:52.497
187,-66146.27733,-48937.84808,-53853.66724,-35042.03678,-44001.1524,-58761.99857,-31596.3142,-54513.08841,0.044,0.886,0.396,192,0,0,0,0,0,0,0,0,0,1.71E+09,0, 2024-03-15 14:23:52.497
188,-66183.67179,-48968.2241,-53888.29009,-35074.73738,-44030.45553,-58771.56511,-31573.35896,-54548.67238,0.044,0.886,0.396,192,0,0,0,0,0,0,0,0,0,1.71E+09,0, 2024-03-15 14:23:52.497
189,-66308.57334,-49085.48136,-54017.66199,-35205.98682,-44146.95283,-58858.33458,-31622.26458,-54657.88301,0.044,0.886,0.396,192,0,0,0,0,0,0,0,0,0,1.71E+09,0, 2024-03-15 14:23:52.497
190,-66357.50131,-49136.30922,-54069.49569,-35264.36958,-44195.34435,-58911.1294,-31679.46269,-54707.05685,0.044,0.886,0.396,192,0,0,0,0,0,0,0,0,0,1.71E+09,0, 2024-03-15 14:23:52.497
191,-66267.58024,-49052.84781,-53982.45799,-35176.8625,-44123.17057,-58859.09454,-31676.46756,-54649.81403,0.036,0.884,0.396,192,1,32,27,160,12,96,0,0,0,1.71E+09,0, 2024-03-15 14:23:52.497
192,-66152.357,-48938.36217,-53858.45052,-35049.92694,-44011.76947,-58764.74783,-31602.7068,-54537.29535,0.036,0.884,0.396,192,0,0,0,0,0,0,0,0,0,1.71E+09,0, 2024-03-15 14:23:52.497
193,-66189.01386,-48961.92091,-53885.7867,-35076.10084,-44030.58964,-58768.43587,-31567.07812,-54551.55576,0.036,0.884,0.396,192,0,0,0,0,0,0,0,0,0,1.71E+09,0, 2024-03-15 14:23:52.497
194,-66315.23416,-49080.34045,-54019.67365,-35207.03735,-44152.56311,-58857.64168,-31626.84669,-54652.27272,0.036,0.884,0.396,192,0,0,0,0,0,0,0,0,0,1.71E+09,0, 2024-03-15 14:23:52.497
195,-66358.48479,-49127.7038,-54073.42959,-35258.37931,-44205.76027,-58902.47928,-31698.23816,-54688.57195,0.036,0.884,0.396,192,0,0,0,0,0,0,0,0,0,1.71E+09,0, 2024-03-15 14:23:52.497
196,-66262.21582,-49038.69915,-53978.43468,-35165.44076,-44120.48836,-58846.04112,-31669.44911,-54631.37384,0.036,0.884,0.396,192,0,0,0,0,0,0,0,0,0,1.71E+09,0, 2024-03-15 14:23:52.497
197,-66144.0198,-48923.54297,-53849.71098,-35039.73455,-44001.30886,-58753.63901,-31596.3142,-54518.96692,0.036,0.884,0.396,192,0,0,0,0,0,0,0,0,0,1.71E+09,0, 2024-03-15 14:23:52.497
198,-66176.31807,-48946.18528,-53877.18128,-35068.30008,-44021.1125,-58761.77505,-31559.8138,-54542.10097,0.036,0.884,0.396,192,0,0,0,0,0,0,0,0,0,1.71E+09,0, 2024-03-15 14:23:52.497
199,-66307.81338,-49071.82444,-54015.2033,-35209.47369,-44146.39403,-58863.49784,-31619.80589,-54654.30673,0.036,0.884,0.396,192,0,0,0,0,0,0,0,0,0,1.71E+09,0, 2024-03-15 14:23:52.497
200,-66356.1155,-49123.00993,-54070.85914,-35270.4269,-44201.28992,-58921.99235,-31684.7377,-54717.71863,0.036,0.884,0.396,192,0,0,0,0,0,0,0,0,0,1.71E+09,0, 2024-03-15 14:23:52.497
201,-66268.20609,-49042.32014,-53984.55906,-35182.18221,-44123.50585,-58869.4434,-31675.26056,-54631.17267,0.036,0.878,0.398,192,1,32,27,112,12,112,0,0,0,1.71E+09,0, 2024-03-15 14:23:52.497
202,-66157.94494,-48930.76258,-53860.90921,-35054.35259,-44009.64606,-58774.31438,-31601.4104,-54505.60057,0.036,0.878,0.398,192,0,0,0,0,0,0,0,0,0,1.71E+09,0, 2024-03-15 14:23:52.497
203,-66190.08675,-48955.84124,-53883.97621,-35079.92298,-44029.06973,-58780.03642,-31561.15491,-54546.41486,0.036,0.878,0.398,192,0,0,0,0,0,0,0,0,0,1.71E+09,0, 2024-03-15 14:23:52.497
204,-66308.17101,-49070.93037,-54013.37046,-35209.09371,-44146.0364,-58868.61639,-31620.54349,-54667.27074,0.036,0.878,0.398,192,0,0,0,0,0,0,0,0,0,1.71E+09,0, 2024-03-15 14:23:52.497
205,-66358.95417,-49125.64744,-54076.49178,-35271.54449,-44207.57076,-58926.26154,-31692.62787,-54737.49992,0.036,0.878,0.398,192,0,0,0,0,0,0,0,0,0,1.71E+09,0, 2024-03-15 14:23:52.497
206,-66267.26732,-49042.40954,-53989.47644,-35179.00827,-44128.93732,-58868.88461,-31681.40729,-54654.17262,0.036,0.878,0.398,192,0,0,0,0,0,0,0,0,0,1.71E+09,0, 2024-03-15 14:23:52.497
207,-66143.59512,-48919.00556,-53847.3417,-35035.59947,-44003.92401,-58758.80227,-31594.23549,-54492.74832,0.036,0.878,0.398,192,0,0,0,0,0,0,0,0,0,1.71E+09,0, 2024-03-15 14:23:52.497
208,-66180.36374,-48944.53126,-53874.45436,-35061.39339,-44025.85107,-58762.98204,-31562.09368,-54517.93874,0.036,0.878,0.398,192,0,0,0,0,0,0,0,0,0,1.71E+09,0, 2024-03-15 14:23:52.497
209,-66312.70842,-49074.93133,-54015.49387,-35202.54465,-44150.19383,-58862.78258,-31624.14213,-54654.01616,0.036,0.878,0.398,192,0,0,0,0,0,0,0,0,0,1.71E+09,0, 2024-03-15 14:23:52.497
210,-66363.1563,-49132.42002,-54082.37029,-35266.67181,-44214.61156,-58920.29362,-31694.3266,-54718.45623,0.036,0.878,0.398,192,0,0,0,0,0,0,0,0,0,1.71E+09,0, 2024-03-15 14:23:52.977
211,-66267.80376,-49044.51061,-53983.82145,-35170.60401,-44129.9655,-58859.38512,-31674.83588,-54647.62356,0.042,0.882,0.406,192,1,80,27,144,12,176,0,0,0,1.71E+09,0, 2024-03-15 14:23:52.977
212,-66149.54068,-48929.28737,-53851.56618,-35037.45467,-44003.18641,-58759.31636,-31592.87203,-54502.96307,0.042,0.882,0.406,192,0,0,0,0,0,0,0,0,0,1.71E+09,0, 2024-03-15 14:23:52.977
213,-66184.09648,-48954.38837,-53881.36105,-35065.75198,-44027.48275,-58766.82654,-31557.31041,-54525.65009,0.042,0.882,0.406,192,0,0,0,0,0,0,0,0,0,1.71E+09,0, 2024-03-15 14:23:52.977
214,-66314.96594,-49077.54649,-54012.47639,-35206.25504,-44147.31045,-58866.35886,-31620.09646,-54660.69933,0.042,0.882,0.406,192,0,0,0,0,0,0,0,0,0,1.71E+09,0, 2024-03-15 14:23:52.977
215,-66361.83755,-49128.37435,-54072.75904,-35266.82827,-44207.03431,-58921.43356,-31689.56568,-54730.12385,0.042,0.882,0.406,192,0,0,0,0,0,0,0,0,0,1.71E+09,0, 2024-03-15 14:23:52.977
216,-66264.31689,-49039.43676,-53976.24421,-35170.06757,-44122.54472,-58859.18395,-31674.59001,-54660.05113,0.042,0.882,0.406,192,0,0,0,0,0,0,0,0,0,1.71E+09,0, 2024-03-15 14:23:52.977
217,-66150.59121,-48928.84033,-53852.61671,-35044.78604,-44008.90845,-58767.51945,-31598.03529,-54542.05627,0.042,0.882,0.406,192,0,0,0,0,0,0,0,0,0,1.71E+09,0, 2024-03-15 14:23:52.977
218,-66189.34914,-48953.02492,-53887.776,-35076.54787,-44032.91423,-58776.01311,-31565.73702,-54551.55576,0.042,0.882,0.406,192,0,0,0,0,0,0,0,0,0,1.71E+09,0, 2024-03-15 14:23:52.977
219,-66319.12337,-49069.25399,-54019.22661,-35210.88185,-44153.99362,-58867.47645,-31619.80589,-54671.51757,0.042,0.882,0.406,192,0,0,0,0,0,0,0,0,0,1.71E+09,0, 2024-03-15 14:23:52.977
220,-66365.83851,-49120.68535,-54074.48013,-35266.71651,-44209.42595,-58915.42094,-31684.80476,-54712.19775,0.042,0.882,0.406,192,0,0,0,0,0,0,0,0,0,1.71E+09,0, 2024-03-15 14:23:52.977
221,-66274.41988,-49037.82744,-53983.97791,-35176.77309,-44124.8246,-58860.03332,-31672.95834,-54623.99776,0.042,0.892,0.4,192,1,80,27,224,12,128,0,0,0,1.71E+09,0, 2024-03-15 14:23:52.977
222,-66160.6942,-48931.23197,-53865.37956,-35056.69952,-44016.10571,-58774.56025,-31609.41233,-54517.22348,0.042,0.892,0.4,192,0,0,0,0,0,0,0,0,0,1.71E+09,0, 2024-03-15 14:23:52.977
223,-66184.20824,-48952.28731,-53888.69243,-35077.17372,-44036.13288,-58773.39796,-31571.81669,-54527.21471,0.042,0.892,0.4,192,0,0,0,0,0,0,0,0,0,1.71E+09,0, 2024-03-15 14:23:52.977
224,-66309.95915,-49071.9809,-54017.93021,-35207.19382,-44149.47857,-58860.72622,-31616.90016,-54626.14353,0.042,0.892,0.4,192,0,0,0,0,0,0,0,0,0,1.71E+09,0, 2024-03-15 14:23:52.977
225,-66368.05133,-49119.18779,-54077.89994,-35265.62128,-44207.74957,-58912.69403,-31680.06619,-54688.77312,0.042,0.892,0.4,192,0,0,0,0,0,0,0,0,0,1.71E+09,0, 2024-03-15 14:23:52.977
226,-66280.23133,-49040.91198,-53993.74562,-35181.73518,-44135.7993,-58865.71066,-31682.41312,-54641.38742,0.042,0.892,0.4,192,0,0,0,0,0,0,0,0,0,1.71E+09,0, 2024-03-15 14:23:52.977
227,-66160.58244,-48928.66152,-53863.47966,-35052.13977,-44013.69172,-58772.21331,-31609.12175,-54536.93772,0.042,0.892,0.4,192,0,0,0,0,0,0,0,0,0,1.71E+09,0, 2024-03-15 14:23:52.977
228,-66192.16546,-48956.28827,-53889.05005,-35073.39627,-44031.9531,-58772.12391,-31565.37939,-54548.02418,0.042,0.892,0.4,192,0,0,0,0,0,0,0,0,0,1.71E+09,0, 2024-03-15 14:23:52.977
229,-66322.69964,-49081.21217,-54025.97684,-35208.53492,-44157.01111,-58864.3472,-31623.56098,-54649.23288,0.042,0.892,0.4,192,0,0,0,0,0,0,0,0,0,1.71E+09,0, 2024-03-15 14:23:52.977
230,-66364.02802,-49123.14405,-54080.76097,-35260.01099,-44213.09164,-58909.7436,-31685.09533,-54714.38822,0.042,0.892,0.4,192,0,0,0,0,0,0,0,0,0,1.71E+09,0, 2024-03-15 14:23:52.977
231,-66273.41405,-49044.19768,-53994.0809,-35176.48252,-44137.74391,-58864.81659,-31680.71439,-54684.25807,0.048,0.892,0.394,192,1,128,27,224,12,80,0,0,0,1.71E+09,0, 2024-03-15 14:23:52.977
232,-66156.40267,-48933.13187,-53867.03358,-35052.74326,-44018.38559,-58776.39309,-31610.17228,-54567.85018,0.048,0.892,0.394,192,0,0,0,0,0,0,0,0,0,1.71E+09,0, 2024-03-15 14:23:52.977
233,-66184.00707,-48947.88402,-53886.61371,-35066.95897,-44027.61686,-58763.87611,-31562.65248,-54515.03301,0.048,0.892,0.394,192,0,0,0,0,0,0,0,0,0,1.71E+09,0, 2024-03-15 14:23:52.977
234,-66311.45672,-49066.81765,-54020.76888,-35199.75069,-44150.26088,-58851.49495,-31620.56585,-54607.14455,0.048,0.892,0.394,192,0,0,0,0,0,0,0,0,0,1.71E+09,0, 2024-03-15 14:23:52.977
235,-66362.91043,-49119.99245,-54081.92326,-35264.32488,-44210.78941,-58910.72707,-31688.4928,-54694.91985,0.048,0.892,0.394,192,0,0,0,0,0,0,0,0,0,1.71E+09,0, 2024-03-15 14:23:52.977
236,-66281.88536,-49045.91877,-53999.95941,-35183.2551,-44141.76722,-58865.84477,-31682.01079,-54635.35245,0.048,0.892,0.394,192,0,0,0,0,0,0,0,0,0,1.71E+09,0, 2024-03-15 14:23:52.977
237,-66156.805,-48928.79563,-53861.19978,-35048.49643,-44011.07657,-58770.04519,-31603.01973,-54516.95526,0.048,0.892,0.394,192,0,0,0,0,0,0,0,0,0,1.71E+09,0, 2024-03-15 14:23:52.977
238,-66182.15188,-48947.07935,-53877.85183,-35065.70727,-44017.75974,-58769.4864,-31557.1316,-54534.7249,0.048,0.892,0.394,192,0,0,0,0,0,0,0,0,0,1.71E+09,0, 2024-03-15 14:23:52.977
239,-66313.93776,-49074.41724,-54015.09154,-35200.46594,-44148.71861,-58862.22379,-31622.93513,-54631.66441,0.048,0.892,0.394,192,0,0,0,0,0,0,0,0,0,1.71E+09,0, 2024-03-15 14:23:52.977
240,-66364.49741,-49130.47542,-54078.48109,-35265.73304,-44214.87978,-58923.35581,-31693.0302,-54727.10636,0.048,0.892,0.394,192,0,0,0,0,0,0,0,0,0,1.71E+09,0, 2024-03-15 14:23:52.977
241,-66276.31978,-49052.26666,-53990.90695,-35178.36007,-44130.70311,-58870.78451,-31684.62595,-54664.81205,0.036,0.89,0.394,192,1,32,27,208,12,80,0,0,0,1.71E+09,0, 2024-03-15 14:23:52.977
242,-66159.91189,-48943.50308,-53860.84215,-35045.32248,-44012.0824,-58769.68757,-31610.37345,-54499.16327,0.036,0.89,0.394,192,0,0,0,0,0,0,0,0,0,1.71E+09,0, 2024-03-15 14:23:52.977
243,-66183.22476,-48961.92091,-53875.52725,-35060.78989,-44019.10085,-58766.17834,-31562.07133,-54499.78912,0.036,0.89,0.394,192,0,0,0,0,0,0,0,0,0,1.71E+09,0, 2024-03-15 14:23:52.977
244,-66306.60639,-49078.17234,-54009.79418,-35194.94506,-44142.50483,-58857.14994,-31619.09063,-54637.69938,0.036,0.89,0.394,192,0,0,0,0,0,0,0,0,0,1.71E+09,0, 2024-03-15 14:23:52.977
245,-66365.54794,-49147.01571,-54080.58215,-35273.48909,-44211.57172,-58926.59681,-31694.81834,-54715.52816,0.036,0.89,0.394,192,0,0,0,0,0,0,0,0,0,1.71E+09,0, 2024-03-15 14:23:52.977
246,-66277.52677,-49070.14806,-53996.78546,-35191.86052,-44138.23565,-58880.03813,-31686.92818,-54661.61575,0.036,0.89,0.394,192,0,0,0,0,0,0,0,0,0,1.71E+09,0, 2024-03-15 14:23:52.977
247,-66160.51539,-48956.71296,-53870.78868,-35065.90844,-44023.34768,-58790.09471,-31616.60959,-54566.33026,0.036,0.89,0.394,192,0,0,0,0,0,0,0,0,0,1.71E+09,0, 2024-03-15 14:23:52.977
248,-66179.38026,-48969.31934,-53883.2833,-35076.2573,-44029.3603,-58778.13652,-31568.7098,-54547.35363,0.036,0.89,0.394,192,0,0,0,0,0,0,0,0,0,1.71E+09,0, 2024-03-15 14:23:52.977
249,-66308.21571,-49090.89048,-54015.09154,-35208.82549,-44144.0024,-58866.73884,-31620.61055,-54630.34566,0.036,0.89,0.394,192,0,0,0,0,0,0,0,0,0,1.71E+09,0, 2024-03-15 14:23:52.977
250,-66369.61596,-49151.39665,-54080.67156,-35275.12077,-44210.99057,-58924.04871,-31692.02437,-54697.89263,0.036,0.89,0.394,192,0,0,0,0,0,0,0,0,0,1.71E+09,0, 2024-03-15 14:23:52.977
251,-66280.34309,-49069.14223,-53993.05272,-35186.65256,-44133.13945,-58871.3433,-31683.06132,-54648.31646,0.038,0.884,0.394,192,1,48,27,160,12,80,0,0,0,1.71E+09,0, 2024-03-15 14:23:52.977
252,-66162.5494,-48950.56623,-53863.59142,-35056.00662,-44013.11058,-58774.78376,-31611.37928,-54507.45577,0.038,0.884,0.394,192,0,0,0,0,0,0,0,0,0,1.71E+09,0, 2024-03-15 14:23:52.977
253,-66181.70484,-48961.96562,-53870.78868,-35068.92593,-44012.41768,-58768.61468,-31554.82937,-54515.03301,0.038,0.884,0.394,192,0,0,0,0,0,0,0,0,0,1.71E+09,0, 2024-03-15 14:23:52.977
254,-66313.80365,-49087.20244,-54009.21303,-35208.06553,-44139.39794,-58863.63195,-31612.9439,-54637.36411,0.038,0.884,0.394,192,0,0,0,0,0,0,0,0,0,1.71E+09,0, 2024-03-15 14:23:52.977
255,-66369.83947,-49145.92047,-54079.15164,-35275.88073,-44205.73791,-58918.50548,-31687.57638,-54677.10551,0.038,0.884,0.394,192,0,0,0,0,0,0,0,0,0,1.71E+09,0, 2024-03-15 14:23:52.977
0,-66279.62783,-49068.91871,-53992.56098,-35189.15596,-44131.10544,-58864.88365,-31678.9039,-54598.20385,0.038,0.884,0.394,192,0,0,0,0,0,0,0,0,0,1.71E+09,0, 2024-03-15 14:23:52.977
1,-66152.62522,-48943.19015,-53852.19203,-35048.94347,-44005.7345,-58763.98787,-31609.52408,-54500.32556,0.038,0.884,0.394,192,0,0,0,0,0,0,0,0,0,1.71E+09,0, 2024-03-15 14:23:52.977
2,-66168.69613,-48948.17459,-53861.49035,-35056.3866,-44012.90941,-58755.4048,-31558.91973,-54500.79495,0.038,0.884,0.394,192,0,0,0,0,0,0,0,0,0,1.71E+09,0, 2024-03-15 14:23:52.977
3,-66301.71136,-49073.56788,-54000.85348,-35196.35322,-44135.88871,-58855.16064,-31619.26944,-54612.73248,0.038,0.884,0.394,192,0,0,0,0,0,0,0,0,0,1.71E+09,0, 2024-03-15 14:23:52.977
4,-66356.7637,-49129.69311,-54067.1711,-35258.31226,-44200.77583,-58907.8884,-31689.94566,-54667.4272,0.038,0.884,0.394,192,0,0,0,0,0,0,0,0,0,1.71E+09,0, 2024-03-15 14:23:52.977
5,-66269.36838,-49047.30458,-53981.51922,-35168.65941,-44126.88096,-58852.67959,-31683.50836,-54616.59934,0.038,0.878,0.396,192,1,48,27,112,12,96,0,0,0,1.71E+09,0, 2024-03-15 14:23:52.977
6,-66143.90804,-48926.56045,-53846.62644,-35029.38569,-44004.16988,-58752.8567,-31607.37832,-54513.17781,0.038,0.878,0.396,192,0,0,0,0,0,0,0,0,0,1.71E+09,0, 2024-03-15 14:23:52.977
7,-66160.53774,-48939.368,-53856.95295,-35036.71706,-44010.74129,-58743.04429,-31566.69814,-54515.97178,0.038,0.878,0.396,192,0,0,0,0,0,0,0,0,0,1.71E+09,0, 2024-03-15 14:23:52.977
8,-66295.2517,-49066.54943,-53998.70771,-35175.70021,-44137.16276,-58837.65922,-31624.72327,-54626.94819,0.038,0.878,0.396,192,0,0,0,0,0,0,0,0,0,1.71E+09,0, 2024-03-15 14:23:52.977
9,-66354.84145,-49129.33548,-54072.33436,-35247.9634,-44206.98961,-58900.51233,-31690.4374,-54693.84696,0.038,0.878,0.396,192,0,0,0,0,0,0,0,0,0,1.71E+09,0, 2024-03-15 14:23:52.977
10,-66274.28577,-49058.56986,-53977.49591,-35169.39702,-44127.97619,-58858.26753,-31690.21388,-54657.52538,0.038,0.878,0.396,192,0,0,0,0,0,0,0,0,0,1.71E+09,0, 2024-03-15 14:23:52.977
11,-66153.47459,-48943.61483,-53846.09,-35039.62279,-44005.19806,-58766.55832,-31615.87198,-54564.54212,0.038,0.878,0.396,192,0,0,0,0,0,0,0,0,0,1.71E+09,0, 2024-03-15 14:23:52.977
12,-66177.14508,-48959.99866,-53863.9714,-35054.68786,-44016.50804,-58763.40673,-31574.23068,-54556.56255,0.038,0.878,0.396,192,0,0,0,0,0,0,0,0,0,1.71E+09,0, 2024-03-15 14:23:52.977
13,-66298.78328,-49072.45029,-53990.50462,-35177.60011,-44128.42323,-58841.12374,-31609.0547,-54630.70329,0.038,0.878,0.396,192,0,0,0,0,0,0,0,0,0,1.71E+09,0, 2024-03-15 14:23:52.977
14,-66356.00374,-49131.01186,-54056.95636,-35242.97896,-44192.59509,-58894.83498,-31674.52296,-54673.8645,0.038,0.878,0.396,192,0,0,0,0,0,0,0,0,0,1.71E+09,0, 2024-03-15 14:23:52.977
15,-66284.41111,-49065.87888,-53982.97208,-35172.52626,-44127.17153,-58855.42886,-31678.97095,-54616.06289,0.038,0.878,0.396,192,0,0,0,0,0,0,0,0,0,1.71E+09,0, 2024-03-15 14:23:52.977
16,-66171.37833,-48954.45543,-53859.5234,-35044.2049,-44011.18833,-58760.14337,-31612.251,-54515.74826,0.03,0.89,0.402,192,0,240,27,208,12,144,0,0,0,1.71E+09,0, 2024-03-15 14:23:52.977
17,-66180.31903,-48953.76253,-53856.68473,-35040.74038,-44003.92401,-58737.45635,-31557.10924,-54517.82698,0.03,0.89,0.402,192,0,0,0,0,0,0,0,0,0,1.71E+09,0, 2024-03-15 14:23:52.977
18,-66310.16032,-49078.23939,-53994.90791,-35177.53305,-44132.91593,-58829.90317,-31614.06149,-54650.48458,0.03,0.89,0.402,192,0,0,0,0,0,0,0,0,0,1.71E+09,0, 2024-03-15 14:23:52.977
19,-66376.16502,-49144.31115,-54067.99812,-35249.46097,-44198.4736,-58890.00701,-31686.45879,-54700.82071,0.03,0.89,0.402,192,0,0,0,0,0,0,0,0,0,1.71E+09,0, 2024-03-15 14:23:52.977
20,-66302.04663,-49077.18886,-53994.1256,-35173.57679,-44135.48638,-58845.97407,-31690.30329,-54623.72954,0.03,0.89,0.402,192,0,0,0,0,0,0,0,0,0,1.71E+09,0, 2024-03-15 14:23:52.977
21,-66172.42887,-48952.04144,-53849.10749,-35029.07277,-44002.18058,-58735.33293,-31608.58531,-54450.72704,0.03,0.89,0.402,192,0,0,0,0,0,0,0,0,0,1.71E+09,0, 2024-03-15 14:23:52.977
22,-66186.93515,-48959.08224,-53859.27753,-35033.43136,-44004.70632,-58722.81596,-31556.59515,-54440.15466,0.03,0.89,0.402,192,0,0,0,0,0,0,0,0,0,1.71E+09,0, 2024-03-15 14:23:52.977
23,-66313.28956,-49078.86524,-53993.03037,-35167.40771,-44125.45045,-58817.98969,-31613.30153,-54571.80644,0.03,0.89,0.402,192,0,0,0,0,0,0,0,0,0,1.71E+09,0, 2024-03-15 14:23:52.977
24,-66363.53628,-49134.58814,-54052.75423,-35234.88763,-44186.24719,-58880.88749,-31675.03705,-54661.74986,0.03,0.89,0.402,192,0,0,0,0,0,0,0,0,0,1.71E+09,0, 2024-03-15 14:23:52.977
25,-66274.82221,-49058.07812,-53968.77873,-35154.98014,-44114.38633,-58839.89439,-31671.79604,-54618.29807,0.03,0.89,0.402,192,0,0,0,0,0,0,0,0,0,1.71E+09,0, 2024-03-15 14:23:52.977
26,-66162.32588,-48951.23678,-53847.92284,-35034.99598,-44004.68397,-58761.64094,-31613.65916,-54530.76864,0.032,0.886,0.4,192,1,0,27,176,12,128,0,0,0,1.71E+09,0, 2024-03-15 14:23:52.977
27,-66177.99445,-48958.90343,-53854.27074,-35043.46729,-44009.51195,-58757.3494,-31572.04021,-54527.92997,0.032,0.886,0.4,192,0,0,0,0,0,0,0,0,0,1.71E+09,0, 2024-03-15 14:23:52.977
28,-66295.78814,-49065.90123,-53978.0994,-35166.60305,-44119.97427,-58840.18497,-31615.35789,-54628.91515,0.032,0.886,0.4,192,0,0,0,0,0,0,0,0,0,1.71E+09,0, 2024-03-15 14:23:52.977
29,-66346.14662,-49118.13725,-54040.14785,-35227.66801,-44180.14517,-58892.75627,-31676.15463,-54677.95487,0.032,0.886,0.4,192,0,0,0,0,0,0,0,0,0,1.71E+09,0, 2024-03-15 14:23:52.977
30,-66263.91456,-49042.78952,-53958.69809,-35144.63128,-44110.1395,-58844.20828,-31669.98555,-54601.55661,0.032,0.886,0.4,192,0,0,0,0,0,0,0,0,0,1.71E+09,0, 2024-03-15 14:23:52.977
31,-66141.94109,-48921.73248,-53828.99092,-35010.23024,-43990.58002,-58748.38635,-31603.06443,-54494.80468,0.032,0.886,0.4,192,0,0,0,0,0,0,0,0,0,1.71E+09,0, 2024-03-15 14:23:52.977
32,-66160.44833,-48928.01332,-53845.4865,-35020.82497,-43997.73258,-58743.11134,-31562.83129,-54507.79104,0.032,0.886,0.4,192,0,0,0,0,0,0,0,0,0,1.71E+09,0, 2024-03-15 14:23:52.977
33,-66291.47426,-49053.29484,-53982.01096,-35161.64096,-44123.46114,-58840.20732,-31616.22961,-54636.0677,0.032,0.886,0.4,192,0,0,0,0,0,0,0,0,0,1.71E+09,0, 2024-03-15 14:23:52.977
34,-66350.05818,-49114.94096,-54047.92625,-35233.77004,-44191.4328,-58900.40057,-31685.25179,-54717.11513,0.032,0.886,0.4,192,0,0,0,0,0,0,0,0,0,1.71E+09,0, 2024-03-15 14:23:52.977
35,-66278.48789,-49051.19378,-53976.69124,-35160.99276,-44127.97619,-58855.65237,-31687.1964,-54630.14449,0.032,0.886,0.4,192,0,0,0,0,0,0,0,0,0,1.71E+09,0, 2024-03-15 14:23:52.977
36,-66158.7943,-48937.53516,-53844.54773,-35026.09998,-44004.46045,-58757.01413,-31613.70386,-54497.44219,0.04,0.884,0.4,192,1,64,27,160,12,128,0,0,0,1.71E+09,0, 2024-03-15 14:23:52.977
37,-66173.27823,-48943.52543,-53849.75569,-35031.79968,-43999.56542,-58747.51464,-31559.7244,-54512.57432,0.04,0.884,0.4,192,0,0,0,0,0,0,0,0,0,1.71E+09,0, 2024-03-15 14:23:52.977
38,-66304.77355,-49068.00229,-53988.15769,-35172.10158,-44124.71284,-58843.96241,-31615.20143,-54657.72655,0.04,0.884,0.4,192,0,0,0,0,0,0,0,0,0,1.71E+09,0, 2024-03-15 14:23:52.977
39,-66372.85696,-49139.34906,-54067.19346,-35252.5008,-44201.04405,-58910.01182,-31683.19543,-54729.78857,0.04,0.884,0.4,192,0,0,0,0,0,0,0,0,0,1.71E+09,0, 2024-03-15 14:23:52.978
40,-66298.15743,-49075.51248,-53997.12074,-35180.46113,-44141.52135,-58864.68248,-31686.41409,-54635.21834,0.04,0.884,0.4,192,0,0,0,0,0,0,0,0,0,1.71E+09,0, 2024-03-15 14:23:52.978
41,-66168.45026,-48950.9015,-53856.43886,-35035.9571,-44009.89193,-58753.90723,-31612.49687,-54480.32075,0.04,0.884,0.4,192,0,0,0,0,0,0,0,0,0,1.71E+09,0, 2024-03-15 14:23:52.978
42,-66180.67666,-48952.91316,-53858.47287,-35031.12913,-44006.04743,-58731.15316,-31562.87599,-54443.77565,0.04,0.884,0.4,192,0,0,0,0,0,0,0,0,0,1.71E+09,0, 2024-03-15 14:23:52.978
43,-66311.68023,-49072.51734,-53993.36564,-35161.32804,-44126.97037,-58816.69328,-31613.5921,-54555.3332,0.04,0.884,0.4,192,0,0,0,0,0,0,0,0,0,1.71E+09,0, 2024-03-15 14:23:52.978
44,-66365.95027,-49129.0002,-54053.93887,-35226.1928,-44186.09073,-58869.93514,-31668.6668,-54622.32138,0.04,0.884,0.4,192,0,0,0,0,0,0,0,0,0,1.71E+09,0, 2024-03-15 14:23:52.978
45,-66287.80857,-49058.4581,-53980.28987,-35155.06955,-44124.44462,-58832.83124,-31674.32179,-54582.51292,0.04,0.884,0.4,192,0,0,0,0,0,0,0,0,0,1.71E+09,0, 2024-03-15 14:23:52.978
46,-66167.51148,-48944.10657,-53851.74499,-35029.18452,-44010.67424,-58749.95098,-31610.70873,-54499.74442,0.036,0.88,0.4,192,1,32,27,128,12,128,0,0,0,1.71E+09,0, 2024-03-15 14:23:52.978
47,-66181.74954,-48951.75087,-53855.47773,-35038.03581,-44006.9862,-58750.68858,-31565.42409,-54518.96692,0.036,0.88,0.4,192,0,0,0,0,0,0,0,0,0,1.71E+09,0, 2024-03-15 14:23:52.978
48,-66304.03594,-49069.27634,-53985.07315,-35169.1288,-44124.77989,-58841.61548,-31617.41425,-54603.14359,0.036,0.88,0.4,192,0,0,0,0,0,0,0,0,0,1.71E+09,0, 2024-03-15 14:23:52.978
49,-66365.27972,-49131.21302,-54062.47724,-35244.02949,-44199.39002,-58904.96032,-31687.79989,-54673.75275,0.036,0.88,0.4,192,0,0,0,0,0,0,0,0,0,1.71E+09,0, 2024-03-15 14:23:52.978
50,-66284.9252,-49059.01689,-53989.16352,-35171.78865,-44137.40863,-58867.61056,-31693.79016,-54641.32036,0.036,0.88,0.4,192,0,0,0,0,0,0,0,0,0,1.71E+09,0, 2024-03-15 14:23:52.978
51,-66153.69811,-48933.55655,-53842.31256,-35029.40804,-44008.05909,-58764.68077,-31619.91765,-54514.83184,0.036,0.88,0.4,192,0,0,0,0,0,0,0,0,0,1.71E+09,0, 2024-03-15 14:23:52.978
52,-66158.34727,-48927.52158,-53834.95883,-35020.06501,-43994.69274,-58739.93739,-31560.4173,-54473.68228,0.036,0.88,0.4,192,0,0,0,0,0,0,0,0,0,1.71E+09,0, 2024-03-15 14:23:52.978
53,-66290.69195,-49048.93625,-53972.57852,-35152.56615,-44121.69535,-58829.56789,-31620.81172,-54582.53528,0.036,0.88,0.4,192,0,0,0,0,0,0,0,0,0,1.71E+09,0, 2024-03-15 14:23:52.978
54,-66346.03487,-49108.61541,-54039.41024,-35220.85073,-44183.94496,-58886.69895,-31683.46365,-54675.49618,0.036,0.88,0.4,192,0,0,0,0,0,0,0,0,0,1.71E+09,0, 2024-03-15 14:23:52.978
55,-66267.42378,-49040.71081,-53966.99059,-35153.43787,-44122.43296,-58853.73012,-31679.68621,-54668.20951,0.036,0.88,0.4,192,0,0,0,0,0,0,0,0,0,1.71E+09,0, 2024-03-15 14:23:52.978
56,-66149.92066,-48926.20282,-53841.46319,-35026.50231,-44009.91428,-58767.29593,-31621.39286,-54567.35844,0.034,0.878,0.39,192,1,16,27,112,12,48,0,0,0,1.71E+09,0, 2024-03-15 14:23:52.978
57,-66159.12958,-48927.32041,-53842.60313,-35023.90951,-44000.5936,-58747.26877,-31571.68258,-54530.56747,0.034,0.878,0.39,192,0,0,0,0,0,0,0,0,0,1.71E+09,0, 2024-03-15 14:23:52.978
58,-66286.42276,-49049.67386,-53970.43275,-35154.95779,-44115.03453,-58829.43378,-31618.75535,-54597.95798,0.034,0.878,0.39,192,0,0,0,0,0,0,0,0,0,1.71E+09,0, 2024-03-15 14:23:52.978
59,-66352.53922,-49119.76893,-54046.5628,-35232.18307,-44187.43183,-58889.82819,-31682.34607,-54661.41458,0.034,0.878,0.39,192,0,0,0,0,0,0,0,0,0,1.71E+09,0, 2024-03-15 14:23:52.978
60,-66288.32266,-49062.07908,-53984.69317,-35167.83239,-44133.45237,-58852.50078,-31689.90096,-54611.0561,0.034,0.878,0.39,192,0,0,0,0,0,0,0,0,0,1.71E+09,0, 2024-03-15 14:23:52.978
61,-66170.37251,-48943.97246,-53859.29988,-35034.88422,-44017.49152,-58756.27652,-31622.13047,-54506.98638,0.034,0.878,0.39,192,0,0,0,0,0,0,0,0,0,1.71E+09,0, 2024-03-15 14:23:52.978
62,-66178.50854,-48945.67119,-53860.43982,-35032.91727,-44013.44586,-58737.74692,-31563.50184,-54493.57533,0.034,0.878,0.39,192,0,0,0,0,0,0,0,0,0,1.71E+09,0, 2024-03-15 14:23:52.978
63,-66301.55489,-49058.86043,-53983.68734,-35158.44466,-44117.62734,-58816.76034,-31603.60087,-54592.16888,0.034,0.878,0.39,192,0,0,0,0,0,0,0,0,0,1.71E+09,0, 2024-03-15 14:23:52.978
64,-66369.86183,-49127.12266,-54061.40435,-35235.42407,-44193.91384,-58879.47933,-31676.82519,-54675.69735,0.034,0.878,0.39,192,0,0,0,0,0,0,0,0,0,1.71E+09,0, 2024-03-15 14:23:52.978
65,-66303.56655,-49068.47168,-53995.53376,-35170.08992,-44138.12389,-58844.56591,-31680.8932,-54641.65564,0.034,0.878,0.39,192,0,0,0,0,0,0,0,0,0,1.71E+09,0, 2024-03-15 14:23:52.978
66,-66182.59891,-48950.40976,-53865.29015,-35035.21949,-44014.96577,-58748.63222,-31610.57462,-54520.95622,0.044,0.886,0.388,192,1,96,27,176,12,32,0,0,0,1.71E+09,0, 2024-03-15 14:23:52.978
67,-66180.43079,-48943.45837,-53861.60211,-35025.45178,-44014.47404,-58726.79457,-31563.03246,-54483.42764,0.044,0.886,0.388,192,0,0,0,0,0,0,0,0,0,1.71E+09,0, 2024-03-15 14:23:52.978
68,-66292.6589,-49053.22779,-53975.79717,-35147.08998,-44114.49809,-58807.08203,-31600.7622,-54562.44106,0.044,0.886,0.388,192,0,0,0,0,0,0,0,0,0,1.71E+09,0, 2024-03-15 14:23:52.978
69,-66358.44008,-49124.75337,-54055.27998,-35230.81961,-44192.43863,-58883.90498,-31672.95834,-54660.31935,0.044,0.886,0.388,192,0,0,0,0,0,0,0,0,0,1.71E+09,0, 2024-03-15 14:23:52.978
70,-66281.88536,-49060.13448,-53979.3958,-35159.65166,-44127.08212,-58846.46581,-31679.97678,-54578.48961,0.044,0.886,0.388,192,0,0,0,0,0,0,0,0,0,1.71E+09,0, 2024-03-15 14:23:52.978
71,-66144.42213,-48933.33303,-53832.45544,-35016.86871,-43992.18935,-58747.33582,-31614.21795,-54443.97681,0.044,0.886,0.388,192,0,0,0,0,0,0,0,0,0,1.71E+09,0, 2024-03-15 14:23:52.978
72,-66141.96344,-48923.2971,-53826.80044,-35009.44793,-43985.1262,-58733.92477,-31559.47853,-54462.68522,0.044,0.886,0.388,192,0,0,0,0,0,0,0,0,0,1.71E+09,0, 2024-03-15 14:23:52.978
73,-66265.85916,-49035.79343,-53954.58537,-35137.63519,-44102.74107,-58822.43768,-31611.44633,-54576.56736,0.044,0.886,0.388,192,0,0,0,0,0,0,0,0,0,1.71E+09,0, 2024-03-15 14:23:52.978
74,-66326.09711,-49096.2549,-54028.81551,-35209.40664,-44170.89154,-58884.50848,-31685.63177,-54657.21245,0.044,0.886,0.388,192,0,0,0,0,0,0,0,0,0,1.71E+09,0, 2024-03-15 14:23:53.458
75,-66258.39368,-49036.35222,-53965.44832,-35146.1512,-44115.86155,-58854.19951,-31693.36548,-54638.54875,0.044,0.886,0.388,192,0,0,0,0,0,0,0,0,0,1.71E+09,0, 2024-03-15 14:23:53.458
76,-66142.38812,-48922.60419,-53838.51276,-35017.60632,-43998.76076,-58764.56902,-31625.37147,-54520.71035,0.042,0.884,0.394,192,1,80,27,160,12,80,0,0,0,1.71E+09,0, 2024-03-15 14:23:53.458
77,-66140.8682,-48913.30587,-53827.76157,-35005.62579,-43984.96973,-58740.31737,-31567.48045,-54488.88147,0.042,0.884,0.394,192,0,0,0,0,0,0,0,0,0,1.71E+09,0, 2024-03-15 14:23:53.458
78,-66267.6473,-49028.14913,-53951.94786,-35135.31061,-44093.55451,-58825.8575,-31612.58627,-54602.27187,0.042,0.884,0.394,192,0,0,0,0,0,0,0,0,0,1.71E+09,0, 2024-03-15 14:23:53.458
79,-66343.48677,-49101.61932,-54038.82909,-35222.12478,-44172.23265,-58897.78541,-31684.51419,-54702.83237,0.042,0.884,0.394,192,0,0,0,0,0,0,0,0,0,1.71E+09,0, 2024-03-15 14:23:53.458
80,-66281.1254,-49046.45521,-53974.05374,-35161.55155,-44116.77797,-58863.0508,-31687.06229,-54640.76157,0.042,0.884,0.394,192,0,0,0,0,0,0,0,0,0,1.71E+09,0, 2024-03-15 14:23:53.458
81,-66157.02851,-48930.27084,-53840.2562,-35025.54119,-43991.85407,-58760.52335,-31617.41425,-54501.91253,0.042,0.884,0.394,192,0,0,0,0,0,0,0,0,0,1.71E+09,0, 2024-03-15 14:23:53.458
82,-66161.54357,-48928.46035,-53833.81889,-35019.46151,-43974.84439,-58732.42721,-31551.92364,-54490.66961,0.042,0.884,0.394,192,0,0,0,0,0,0,0,0,0,1.71E+09,0, 2024-03-15 14:23:53.458
83,-66298.09037,-49056.69231,-53978.0994,-35161.23863,-44102.13758,-58825.23165,-31596.33656,-54606.13872,0.042,0.884,0.394,192,0,0,0,0,0,0,0,0,0,1.71E+09,0, 2024-03-15 14:23:53.458
84,-66373.54986,-49132.53178,-54061.44906,-35245.03532,-44183.8332,-58891.01283,-31668.75621,-54677.03845,0.042,0.884,0.394,192,0,0,0,0,0,0,0,0,0,1.71E+09,0, 2024-03-15 14:23:53.458
85,-66299.92322,-49065.14127,-53987.28597,-35176.48252,-44116.4874,-58851.24908,-31667.70568,-54650.84221,0.042,0.884,0.394,192,0,0,0,0,0,0,0,0,0,1.71E+09,0, 2024-03-15 14:23:53.458
86,-66178.19562,-48949.78392,-53859.29988,-35043.75786,-43997.17379,-58752.11909,-31600.8069,-54495.13996,0.042,0.882,0.394,192,1,80,27,144,12,80,0,0,0,1.71E+09,0, 2024-03-15 14:23:53.458
87,-66180.20727,-48943.61483,-53847.74403,-35031.15148,-43980.16411,-58721.58661,-31544.18994,-54425.2237,0.042,0.882,0.394,192,0,0,0,0,0,0,0,0,0,1.71E+09,0, 2024-03-15 14:23:53.458
88,-66302.00193,-49053.83129,-53971.32682,-35157.37178,-44089.6653,-58802.47757,-31586.83706,-54519.23514,0.042,0.882,0.394,192,0,0,0,0,0,0,0,0,0,1.71E+09,0, 2024-03-15 14:23:53.458
89,-66367.67135,-49121.37826,-54045.04288,-35235.51348,-44157.90518,-58864.50367,-31647.72322,-54590.60426,0.042,0.882,0.394,192,0,0,0,0,0,0,0,0,0,1.71E+09,0, 2024-03-15 14:23:53.458
90,-66296.21283,-49065.92358,-53982.27918,-35173.39798,-44106.11619,-58833.74767,-31659.0779,-54565.12327,0.042,0.882,0.394,192,0,0,0,0,0,0,0,0,0,1.71E+09,0, 2024-03-15 14:23:53.458
91,-66172.16065,-48950.45447,-53850.80622,-35041.36622,-43987.02609,-58744.87713,-31598.75054,-54467.17792,0.042,0.882,0.394,192,0,0,0,0,0,0,0,0,0,1.71E+09,0, 2024-03-15 14:23:53.458
92,-66169.92547,-48941.73729,-53844.36892,-35032.35847,-43975.96198,-58728.56036,-31547.98973,-54472.07296,0.042,0.882,0.394,192,0,0,0,0,0,0,0,0,0,1.71E+09,0, 2024-03-15 14:23:53.458
93,-66290.53548,-49054.81476,-53978.76996,-35163.49616,-44096.0579,-58821.49891,-31598.66114,-54614.38651,0.042,0.882,0.394,192,0,0,0,0,0,0,0,0,0,1.71E+09,0, 2024-03-15 14:23:53.458
94,-66351.84632,-49120.32773,-54045.44521,-35237.25691,-44167.85171,-58884.8661,-31675.46173,-54668.05305,0.042,0.882,0.394,192,0,0,0,0,0,0,0,0,0,1.71E+09,0, 2024-03-15 14:23:53.458
95,-66270.95536,-49050.47852,-53974.52312,-35162.51268,-44112.86642,-58841.52607,-31686.30233,-54588.86082,0.042,0.882,0.394,192,0,0,0,0,0,0,0,0,0,1.71E+09,0, 2024-03-15 14:23:53.458
96,-66142.41047,-48931.12021,-53840.47971,-35031.88908,-43993.53045,-58755.89654,-31631.71937,-54511.50143,0.042,0.898,0.392,192,1,80,28,16,12,64,0,0,0,1.71E+09,0, 2024-03-15 14:23:53.458
97,-66135.77201,-48918.40207,-53826.35341,-35019.90855,-43974.75499,-58735.62351,-31578.52221,-54497.33043,0.042,0.898,0.392,192,0,0,0,0,0,0,0,0,0,1.71E+09,0, 2024-03-15 14:23:53.458
98,-66258.93012,-49030.74193,-53949.80209,-35145.88298,-44086.73723,-58818.52613,-31619.26944,-54582.87055,0.042,0.898,0.392,192,0,0,0,0,0,0,0,0,0,1.71E+09,0, 2024-03-15 14:23:53.458
99,-66328.57815,-49098.69124,-54029.77664,-35228.56208,-44159.76037,-58886.69895,-31682.83781,-54675.51853,0.042,0.898,0.392,192,0,0,0,0,0,0,0,0,0,1.71E+09,0, 2024-03-15 14:23:53.458
100,-66271.44709,-49051.57376,-53977.13828,-35183.2998,-44118.70022,-58872.19267,-31698.1264,-54664.96851,0.042,0.898,0.392,192,0,0,0,0,0,0,0,0,0,1.71E+09,0, 2024-03-15 14:23:53.458
101,-66154.18984,-48936.57403,-53847.76638,-35053.8385,-44002.06882,-58781.60105,-31636.0109,-54543.55383,0.042,0.898,0.392,192,0,0,0,0,0,0,0,0,0,1.71E+09,0, 2024-03-15 14:23:53.458
102,-66158.19081,-48926.60516,-53841.23967,-35039.55573,-43985.68499,-58753.77312,-31571.48142,-54517.4917,0.042,0.898,0.392,192,0,0,0,0,0,0,0,0,0,1.71E+09,0, 2024-03-15 14:23:53.458
103,-66288.18855,-49048.15394,-53971.63975,-35174.51557,-44098.53895,-58843.64949,-31611.62515,-54636.76061,0.042,0.898,0.392,192,0,0,0,0,0,0,0,0,0,1.71E+09,0, 2024-03-15 14:23:53.458
104,-66362.35164,-49125.40157,-54053.93887,-35262.29087,-44176.12185,-58912.80579,-31679.26153,-54715.43875,0.042,0.898,0.392,192,0,0,0,0,0,0,0,0,0,1.71E+09,0, 2024-03-15 14:23:53.458
105,-66301.13021,-49071.8915,-53998.08186,-35204.35515,-44127.50681,-58879.34522,-31682.12255,-54660.54286,0.042,0.898,0.392,192,0,0,0,0,0,0,0,0,0,1.71E+09,0, 2024-03-15 14:23:53.458
106,-66179.53672,-48955.93064,-53865.916,-35067.98715,-44003.7005,-58778.4718,-31616.7884,-54538.27882,0.042,0.886,0.394,192,1,80,27,176,12,80,0,0,0,1.71E+09,0, 2024-03-15 14:23:53.458
107,-66178.84382,-48943.03369,-53849.331,-35045.65776,-43982.6675,-58742.79842,-31560.81963,-54499.72206,0.042,0.886,0.394,192,0,0,0,0,0,0,0,0,0,1.71E+09,0, 2024-03-15 14:23:53.458
108,-66302.2925,-49054.77006,-53971.77386,-35165.35135,-44090.93935,-58817.43089,-31588.64755,-54586.44683,0.042,0.886,0.394,192,0,0,0,0,0,0,0,0,0,1.71E+09,0, 2024-03-15 14:23:53.458
109,-66379.85306,-49127.1003,-54055.39174,-35245.25884,-44170.19864,-58878.11588,-31660.17314,-54650.37282,0.042,0.886,0.394,192,0,0,0,0,0,0,0,0,0,1.71E+09,0, 2024-03-15 14:23:53.458
110,-66320.62093,-49074.23843,-53995.31025,-35182.29397,-44117.7838,-58840.36378,-31667.03512,-54595.52164,0.042,0.886,0.394,192,0,0,0,0,0,0,0,0,0,1.71E+09,0, 2024-03-15 14:23:53.458
111,-66196.45699,-48953.56136,-53857.71291,-35039.08635,-43988.76953,-58735.02001,-31589.63103,-54458.17017,0.042,0.886,0.394,192,0,0,0,0,0,0,0,0,0,1.71E+09,0, 2024-03-15 14:23:53.458
112,-66192.85836,-48943.79365,-53837.23871,-35024.4236,-43963.60147,-58714.70227,-31534.7128,-54456.29262,0.042,0.886,0.394,192,0,0,0,0,0,0,0,0,0,1.71E+09,0, 2024-03-15 14:23:53.458
113,-66321.60441,-49064.09074,-53970.14218,-35161.50685,-44082.78097,-58814.21224,-31583.35019,-54602.29422,0.042,0.886,0.394,192,0,0,0,0,0,0,0,0,0,1.71E+09,0, 2024-03-15 14:23:53.458
114,-66397.1086,-49140.46665,-54058.31981,-35254.78068,-44168.52226,-58896.71253,-31658.4297,-54698.07144,0.042,0.886,0.394,192,0,0,0,0,0,0,0,0,0,1.71E+09,0, 2024-03-15 14:23:53.458
115,-66327.66173,-49077.88176,-53992.91861,-35193.93923,-44122.58942,-58870.06925,-31676.57932,-54649.52345,0.042,0.886,0.394,192,0,0,0,0,0,0,0,0,0,1.71E+09,0, 2024-03-15 14:23:53.458
116,-66201.26262,-48956.26592,-53861.64681,-35062.26511,-44007.45559,-58784.55148,-31623.181,-54527.90761,0.042,0.882,0.396,192,1,80,27,144,12,96,0,0,0,1.71E+09,0, 2024-03-15 14:23:53.458
117,-66190.31026,-48937.06577,-53845.73237,-35044.51782,-43988.83659,-58763.94317,-31572.80017,-54515.43534,0.042,0.882,0.396,192,0,0,0,0,0,0,0,0,0,1.71E+09,0, 2024-03-15 14:23:53.458
118,-66306.91931,-49045.58349,-53964.95658,-35167.05008,-44098.74011,-58848.52217,-31613.16742,-54625.33887,0.042,0.882,0.396,192,0,0,0,0,0,0,0,0,0,1.71E+09,0, 2024-03-15 14:23:53.458
119,-66374.98038,-49118.94192,-54046.5628,-35248.6563,-44177.26179,-58917.83493,-31685.63177,-54724.98294,0.042,0.882,0.396,192,0,0,0,0,0,0,0,0,0,1.71E+09,0, 2024-03-15 14:23:53.458
120,-66309.66858,-49066.97411,-53990.61638,-35193.51455,-44128.98202,-58894.79028,-31700.85331,-54717.53981,0.042,0.882,0.396,192,0,0,0,0,0,0,0,0,0,1.71E+09,0, 2024-03-15 14:23:53.458
121,-66186.82339,-48949.96273,-53864.6196,-35061.41574,-44016.12807,-58805.00332,-31645.51039,-54623.70719,0.042,0.882,0.396,192,0,0,0,0,0,0,0,0,0,1.71E+09,0, 2024-03-15 14:23:53.458
122,-66186.48811,-48944.4195,-53846.53704,-35045.03191,-43992.50227,-58778.20358,-31584.736,-54573.95221,0.042,0.882,0.396,192,0,0,0,0,0,0,0,0,0,1.71E+09,0, 2024-03-15 14:23:53.458
123,-66313.24486,-49065.23068,-53972.75734,-35174.67203,-44102.58461,-58860.88268,-31622.55515,-54653.23384,0.042,0.882,0.396,192,0,0,0,0,0,0,0,0,0,1.71E+09,0, 2024-03-15 14:23:53.458
124,-66389.53136,-49144.55702,-54059.41505,-35264.43663,-44183.07324,-58929.43548,-31685.07298,-54732.64959,0.042,0.882,0.396,192,0,0,0,0,0,0,0,0,0,1.71E+09,0, 2024-03-15 14:23:53.458
125,-66334.27785,-49096.9925,-54005.97203,-35211.93239,-44136.4028,-58899.46179,-31696.1818,-54687.16379,0.042,0.882,0.396,192,0,0,0,0,0,0,0,0,0,1.71E+09,0, 2024-03-15 14:23:53.458
126,-66211.07503,-48977.67889,-53864.21727,-35068.74711,-44002.67231,-58791.9052,-31620.20822,-54533.20498,0.044,0.884,0.39,192,1,96,27,160,12,48,0,0,0,1.71E+09,0, 2024-03-15 14:23:53.458
127,-66199.58624,-48962.85969,-53841.93258,-35044.87545,-43974.68793,-58759.22695,-31553.89059,-54510.09327,0.044,0.884,0.39,192,0,0,0,0,0,0,0,0,0,1.71E+09,0, 2024-03-15 14:23:53.458
128,-66321.53735,-49077.52413,-53970.85744,-35171.7663,-44086.55841,-58839.31325,-31588.04406,-54620.57795,0.044,0.884,0.39,192,0,0,0,0,0,0,0,0,0,1.71E+09,0, 2024-03-15 14:23:53.458
129,-66415.10176,-49168.80866,-54073.13902,-35271.56684,-44180.05576,-58916.62793,-31662.90005,-54711.54955,0.044,0.884,0.39,192,0,0,0,0,0,0,0,0,0,1.71E+09,0, 2024-03-15 14:23:53.458
130,-66352.98626,-49114.98566,-54016.25383,-35214.63695,-44132.20067,-58884.8214,-31673.8077,-54666.04139,0.044,0.884,0.39,192,0,0,0,0,0,0,0,0,0,1.71E+09,0, 2024-03-15 14:23:53.458
131,-66219.09931,-48991.2464,-53873.33678,-35074.44681,-43998.62665,-58785.35614,-31610.84284,-54541.87745,0.044,0.884,0.39,192,0,0,0,0,0,0,0,0,0,1.71E+09,0, 2024-03-15 14:23:53.458
132,-66209.53276,-48973.45441,-53849.06278,-35049.21169,-43973.05625,-58752.45437,-31543.80996,-54511.54614,0.044,0.884,0.39,192,0,0,0,0,0,0,0,0,0,1.71E+09,0, 2024-03-15 14:23:53.458
133,-66326.70061,-49080.29575,-53966.70001,-35161.84213,-44077.4389,-58817.60971,-31574.02951,-54582.98231,0.044,0.884,0.39,192,0,0,0,0,0,0,0,0,0,1.71E+09,0, 2024-03-15 14:23:53.458
134,-66410.542,-49166.32762,-54058.58803,-35252.90313,-44164.18602,-58888.37533,-31648.52788,-54663.24743,0.044,0.884,0.39,192,0,0,0,0,0,0,0,0,0,1.71E+09,0, 2024-03-15 14:23:53.458
135,-66355.71317,-49122.69701,-54007.06726,-35204.19868,-44124.44462,-58868.1023,-31668.82326,-54647.69061,0.044,0.884,0.39,192,0,0,0,0,0,0,0,0,0,1.71E+09,0, 2024-03-15 14:23:53.458
136,-66233.22561,-49007.45142,-53876.8013,-35073.64214,-44007.90262,-58779.25411,-31613.79327,-54537.63062,0.04,0.888,0.388,192,1,64,27,192,12,32,0,0,0,1.71E+09,0, 2024-03-15 14:23:53.458
137,-66222.07209,-48992.76632,-53853.24256,-35053.74909,-43983.44981,-58754.22016,-31556.30458,-54505.22059,0.04,0.888,0.388,192,0,0,0,0,0,0,0,0,0,1.71E+09,0, 2024-03-15 14:23:53.458
138,-66341.92215,-49106.71551,-53979.41816,-35183.41156,-44097.60017,-58841.30255,-31598.66114,-54607.03279,0.04,0.888,0.388,192,0,0,0,0,0,0,0,0,0,1.71E+09,0, 2024-03-15 14:23:53.458
139,-66419.86268,-49183.94079,-54070.45681,-35276.41717,-44184.25789,-58918.1702,-31675.64054,-54681.66526,0.04,0.888,0.388,192,0,0,0,0,0,0,0,0,0,1.71E+09,0, 2024-03-15 14:23:53.458
140,-66355.55671,-49125.44627,-54017.34907,-35218.36969,-44143.28714,-58889.76114,-31686.57055,-54628.2893,0.04,0.888,0.388,192,0,0,0,0,0,0,0,0,0,1.71E+09,0, 2024-03-15 14:23:53.458
141,-66221.33448,-48994.28624,-53881.49516,-35076.27965,-44020.88899,-58795.61559,-31627.47254,-54537.72003,0.04,0.888,0.388,192,0,0,0,0,0,0,0,0,0,1.71E+09,0, 2024-03-15 14:23:53.458
142,-66197.86515,-48964.49136,-53855.99182,-35044.11549,-43992.8152,-58763.27261,-31574.23068,-54526.72297,0.04,0.888,0.388,192,0,0,0,0,0,0,0,0,0,1.71E+09,0, 2024-03-15 14:23:53.458
143,-66313.53543,-49068.40462,-53975.84188,-35158.82464,-44104.41746,-58838.06155,-31613.52505,-54627.12701,0.04,0.888,0.388,192,0,0,0,0,0,0,0,0,0,1.71E+09,0, 2024-03-15 14:23:53.458
144,-66392.16887,-49144.40055,-54061.91844,-35243.71657,-44190.04699,-58906.70376,-31688.47045,-54706.05102,0.04,0.888,0.388,192,0,0,0,0,0,0,0,0,0,1.71E+09,0, 2024-03-15 14:23:53.458
145,-66326.49944,-49085.59311,-53994.70675,-35181.55637,-44131.84305,-58873.13144,-31690.99619,-54648.53998,0.04,0.888,0.388,192,0,0,0,0,0,0,0,0,0,1.71E+09,0, 2024-03-15 14:23:53.458
146,-66201.21791,-48966.2795,-53863.52436,-35051.37981,-44013.82584,-58787.50191,-31638.49195,-54553.54506,0.04,0.888,0.388,192,0,0,0,0,0,0,0,0,0,1.71E+09,0, 2024-03-15 14:23:53.458
147,-66180.36374,-48939.63622,-53833.37186,-35022.63546,-43981.81814,-58757.12589,-31575.7953,-54542.86093,0.048,0.886,0.396,192,1,128,27,176,12,96,0,0,0,1.71E+09,0, 2024-03-15 14:23:53.458
148,-66299.0068,-49049.00331,-53949.31036,-35140.60797,-44086.3796,-58832.20539,-31605.70194,-54629.60805,0.048,0.886,0.396,192,0,0,0,0,0,0,0,0,0,1.71E+09,0, 2024-03-15 14:23:53.458
149,-66386.8715,-49135.19164,-54042.91946,-35233.12184,-44176.63594,-58903.93214,-31683.73188,-54701.11128,0.048,0.886,0.396,192,0,0,0,0,0,0,0,0,0,1.71E+09,0, 2024-03-15 14:23:53.458
150,-66329.22635,-49088.36473,-53992.85155,-35181.9587,-44130.0102,-58879.18876,-31693.99133,-54670.04236,0.048,0.886,0.396,192,0,0,0,0,0,0,0,0,0,1.71E+09,0, 2024-03-15 14:23:53.458
151,-66198.04397,-48964.69253,-53863.21144,-35044.2049,-44003.81225,-58781.89162,-31629.03716,-54573.1699,0.048,0.886,0.396,192,0,0,0,0,0,0,0,0,0,1.71E+09,0, 2024-03-15 14:23:53.458
152,-66184.38705,-48946.07353,-53834.33298,-35015.88524,-43983.36041,-58747.00054,-31577.44933,-54549.90173,0.048,0.886,0.396,192,0,0,0,0,0,0,0,0,0,1.71E+09,0, 2024-03-15 14:23:53.458
153,-66302.67248,-49056.28998,-53950.47265,-35132.74016,-44088.88299,-58815.86627,-31613.48034,-54630.45742,0.048,0.886,0.396,192,0,0,0,0,0,0,0,0,0,1.71E+09,0, 2024-03-15 14:23:53.458
154,-66386.67034,-49140.06432,-54048.12742,-35224.65053,-44175.98774,-58880.9769,-31677.49574,-54686.82852,0.048,0.886,0.396,192,0,0,0,0,0,0,0,0,0,1.71E+09,0, 2024-03-15 14:23:53.458
155,-66336.42362,-49099.42884,-54000.04882,-35177.5554,-44131.08309,-58854.0207,-31688.33634,-54636.71591,0.048,0.886,0.396,192,0,0,0,0,0,0,0,0,0,1.71E+09,0, 2024-03-15 14:23:53.458
156,-66211.83499,-48985.83728,-53860.99861,-35041.25447,-44003.05229,-58754.26486,-31623.53863,-54501.53255,0.048,0.886,0.396,192,0,0,0,0,0,0,0,0,0,1.71E+09,0, 2024-03-15 14:23:53.458
157,-66200.32384,-48973.36501,-53839.16096,-35021.16025,-43977.75012,-58725.07348,-31557.80215,-54473.3023,0.044,0.894,0.39,192,1,96,27,240,12,48,0,0,0,1.71E+09,0, 2024-03-15 14:23:53.458
158,-66320.77739,-49089.43761,-53966.20828,-35152.25323,-44088.16774,-58812.13353,-31595.28602,-54590.02311,0.044,0.894,0.39,192,0,0,0,0,0,0,0,0,0,1.71E+09,0, 2024-03-15 14:23:53.458
159,-66408.73151,-49177.41408,-54065.40532,-35257.73111,-44182.91678,-58900.04294,-31674.56766,-54700.0831,0.044,0.894,0.39,192,0,0,0,0,0,0,0,0,0,1.71E+09,0, 2024-03-15 14:23:53.458
160,-66353.07567,-49130.40836,-54017.99727,-35215.44161,-44147.01988,-58888.48709,-31694.79599,-54702.0277,0.044,0.894,0.39,192,0,0,0,0,0,0,0,0,0,1.71E+09,0, 2024-03-15 14:23:53.458
161,-66219.92632,-49004.12101,-53885.1832,-35080.43707,-44026.94631,-58796.62142,-31638.33548,-54572.5217,0.044,0.894,0.39,192,0,0,0,0,0,0,0,0,0,1.71E+09,0, 2024-03-15 14:23:53.458
162,-66188.11979,-48962.70322,-53852.25908,-35035.15244,-43991.6082,-58744.34069,-31569.80503,-54451.86698,0.044,0.894,0.39,192,0,0,0,0,0,0,0,0,0,1.71E+09,0, 2024-03-15 14:23:53.458
163,-66307.81338,-49071.84679,-53971.48329,-35158.9364,-44103.0987,-58827.33271,-31608.4065,-54549.87938,0.044,0.894,0.39,192,0,0,0,0,0,0,0,0,0,1.71E+09,0, 2024-03-15 14:23:53.458
164,-66391.07363,-49154.32473,-54069.11571,-35260.52508,-44195.90315,-58915.77857,-31690.72797,-54686.91792,0.044,0.894,0.39,192,0,0,0,0,0,0,0,0,0,1.71E+09,0, 2024-03-15 14:23:53.458
165,-66330.03102,-49097.61835,-54015.02448,-35208.42316,-44151.95962,-58896.15374,-31710.17399,-54692.52821,0.044,0.894,0.39,192,0,0,0,0,0,0,0,0,0,1.71E+09,0, 2024-03-15 14:23:53.458
166,-66198.13337,-48969.27464,-53876.68954,-35068.52359,-44031.19314,-58801.71762,-31654.96518,-54583.83168,0.044,0.894,0.39,192,0,0,0,0,0,0,0,0,0,1.71E+09,0, 2024-03-15 14:23:53.458
167,-66183.78355,-48949.58275,-53849.75569,-35041.34387,-44002.33704,-58770.06755,-31597.76707,-54527.79585,0.042,0.886,0.39,192,1,80,27,176,12,48,0,0,0,1.71E+09,0, 2024-03-15 14:23:53.458
168,-66301.95723,-49059.28511,-53970.07513,-35164.12201,-44106.33971,-58850.95851,-31628.21014,-54640.58276,0.042,0.886,0.39,192,0,0,0,0,0,0,0,0,0,1.71E+09,0, 2024-03-15 14:23:53.458
169,-66379.04839,-49137.73973,-54055.88347,-35252.4114,-44193.73503,-58919.89129,-31703.17789,-54743.51254,0.042,0.886,0.39,192,0,0,0,0,0,0,0,0,0,1.71E+09,0, 2024-03-15 14:23:53.458
170,-66325.51596,-49093.08095,-54004.60857,-35201.8294,-44148.13747,-58893.02449,-31711.78332,-54698.98787,0.042,0.886,0.39,192,0,0,0,0,0,0,0,0,0,1.71E+09,0, 2024-03-15 14:23:53.458
171,-66198.58041,-48974.03556,-53868.4641,-35063.29329,-44021.6713,-58794.76622,-31649.08667,-54565.92793,0.042,0.886,0.39,192,0,0,0,0,0,0,0,0,0,1.71E+09,0, 2024-03-15 14:23:53.458
172,-66182.08482,-48953.69547,-53837.39517,-35030.68209,-43984.63446,-58756.90237,-31578.54457,-54520.84446,0.042,0.886,0.39,192,0,0,0,0,0,0,0,0,0,1.71E+09,0, 2024-03-15 14:23:53.458
173,-66314.20598,-49076.85358,-53968.5105,-35160.881,-44096.46023,-58842.39779,-31605.27725,-54622.09786,0.042,0.886,0.39,192,0,0,0,0,0,0,0,0,0,1.71E+09,0, 2024-03-15 14:23:53.458
174,-66404.81995,-49168.38398,-54062.589,-35258.60283,-44185.42018,-58917.20908,-31678.43451,-54691.27651,0.042,0.886,0.39,192,0,0,0,0,0,0,0,0,0,1.71E+09,0, 2024-03-15 14:23:53.458
175,-66349.6335,-49122.24998,-54010.35297,-35208.55727,-44142.99657,-58892.13042,-31695.80182,-54669.12593,0.042,0.886,0.39,192,0,0,0,0,0,0,0,0,0,1.71E+09,0, 2024-03-15 14:23:53.458
176,-66220.03808,-48997.92957,-53873.605,-35068.30008,-44017.69269,-58793.67099,-31633.61926,-54562.53047,0.042,0.886,0.39,192,0,0,0,0,0,0,0,0,0,1.71E+09,0, 2024-03-15 14:23:53.458
177,-66207.02937,-48974.50494,-53848.21342,-35039.24281,-43986.02027,-58757.05883,-31569.53681,-54516.39646,0.048,0.888,0.394,192,1,128,27,192,12,80,0,0,0,1.71E+09,0, 2024-03-15 14:23:53.458
178,-66330.32159,-49086.75541,-53969.0693,-35160.05399,-44091.09582,-58828.98674,-31599.5105,-54596.57217,0.048,0.888,0.394,192,0,0,0,0,0,0,0,0,0,1.71E+09,0, 2024-03-15 14:23:53.458
179,-66422.65665,-49181.19153,-54064.17597,-35264.39193,-44181.77684,-58911.28587,-31676.75813,-54684.7498,0.048,0.888,0.394,192,0,0,0,0,0,0,0,0,0,1.71E+09,0, 2024-03-15 14:23:53.458
180,-66360.74231,-49130.45307,-54007.93898,-35213.4076,-44132.40184,-58886.27426,-31678.65803,-54640.44865,0.048,0.888,0.394,192,0,0,0,0,0,0,0,0,0,1.71E+09,0, 2024-03-15 14:23:53.458
181,-66225.29074,-48999.29303,-53867.2571,-35071.92106,-44003.38757,-58787.43485,-31612.96625,-54513.93777,0.048,0.888,0.394,192,0,0,0,0,0,0,0,0,0,1.71E+09,0, 2024-03-15 14:23:53.458
182,-66199.49683,-48967.10652,-53835.11529,-35038.14757,-43972.87744,-58753.75077,-31558.5174,-54494.96114,0.048,0.888,0.394,192,0,0,0,0,0,0,0,0,0,1.71E+09,0, 2024-03-15 14:23:53.458
183,-66310.5403,-49068.33757,-53951.92551,-35153.66139,-44077.77418,-58829.14321,-31590.77097,-54595.94632,0.048,0.888,0.394,192,0,0,0,0,0,0,0,0,0,1.71E+09,0, 2024-03-15 14:23:53.458
184,-66389.9784,-49143.86411,-54044.41703,-35242.219,-44169.48338,-58897.6513,-31666.85631,-54671.71874,0.048,0.888,0.394,192,0,0,0,0,0,0,0,0,0,1.71E+09,0, 2024-03-15 14:23:53.458
185,-66334.59077,-49094.51146,-54000.89818,-35195.92854,-44135.62049,-58879.41228,-31689.02924,-54667.94129,0.048,0.888,0.394,192,0,0,0,0,0,0,0,0,0,1.71E+09,0, 2024-03-15 14:23:53.458
186,-66199.92151,-48965.65365,-53865.13369,-35057.63829,-44007.88027,-58787.79248,-31633.95454,-54569.3701,0.048,0.888,0.394,192,0,0,0,0,0,0,0,0,0,1.71E+09,0, 2024-03-15 14:23:53.458
187,-66165.25396,-48924.5935,-53817.32331,-35007.90566,-43970.41875,-58737.65752,-31578.05283,-54506.27112,0.038,0.892,0.392,192,1,48,27,224,12,64,0,0,0,1.71E+09,0, 2024-03-15 14:23:53.458
188,-66279.80665,-49025.37752,-53938.15684,-35119.86555,-44078.84706,-58806.14326,-31616.05079,-54566.57613,0.038,0.892,0.392,192,0,0,0,0,0,0,0,0,0,1.71E+09,0, 2024-03-15 14:23:53.458
189,-66367.11256,-49109.53183,-54035.20811,-35217.18505,-44167.51643,-58884.48613,-31681.60846,-54657.52538,0.038,0.892,0.392,192,0,0,0,0,0,0,0,0,0,1.71E+09,0, 2024-03-15 14:23:53.458
190,-66314.80948,-49066.8847,-53992.35982,-35178.13655,-44133.2065,-58872.6397,-31703.28965,-54659.02295,0.038,0.892,0.392,192,0,0,0,0,0,0,0,0,0,1.71E+09,0, 2024-03-15 14:23:53.458
191,-66187.98568,-48947.77226,-53861.78093,-35046.7977,-44013.64702,-58785.35614,-31653.40056,-54565.54795,0.038,0.892,0.392,192,0,0,0,0,0,0,0,0,0,1.71E+09,0, 2024-03-15 14:23:53.458
192,-66164.31518,-48916.92685,-53825.41464,-35009.33617,-43977.86188,-58747.24641,-31591.64269,-54540.96103,0.038,0.892,0.392,192,0,0,0,0,0,0,0,0,0,1.71E+09,0, 2024-03-15 14:23:53.458
193,-66276.85622,-49018.7614,-53937.48628,-35120.04436,-44077.08127,-58814.18989,-31618.44243,-54631.99969,0.038,0.892,0.392,192,0,0,0,0,0,0,0,0,0,1.71E+09,0, 2024-03-15 14:23:53.458
194,-66368.07369,-49109.44243,-54039.522,-35218.74967,-44172.52322,-58887.74948,-31685.36355,-54696.8868,0.038,0.892,0.392,192,0,0,0,0,0,0,0,0,0,1.71E+09,0, 2024-03-15 14:23:53.940
195,-66329.09224,-49078.82054,-54006.15084,-35184.5962,-44141.58841,-58874.98663,-31708.4082,-54659.09,0.038,0.892,0.392,192,0,0,0,0,0,0,0,0,0,1.71E+09,0, 2024-03-15 14:23:53.940
196,-66196.41229,-48952.71199,-53855.79066,-35044.65193,-44008.37201,-58777.2201,-31643.85636,-54550.01349,0.038,0.892,0.392,192,0,0,0,0,0,0,0,0,0,1.71E+09,0, 2024-03-15 14:23:53.940
197,-66164.67281,-48912.4118,-53813.52351,-34998.60734,-43964.02615,-58729.72265,-31573.42602,-54518.02814,0.04,0.886,0.392,192,1,64,27,176,12,64,0,0,0,1.71E+09,0, 2024-03-15 14:23:53.940
198,-66287.98739,-49022.5612,-53935.85461,-35117.85389,-44071.18041,-58806.50089,-31605.8584,-54628.15519,0.04,0.886,0.392,192,0,0,0,0,0,0,0,0,0,1.71E+09,0, 2024-03-15 14:23:53.940
199,-66381.52944,-49111.85641,-54032.95058,-35213.92169,-44159.87213,-58877.19946,-31674.61236,-54712.06364,0.04,0.886,0.392,192,0,0,0,0,0,0,0,0,0,1.71E+09,0, 2024-03-15 14:23:53.940
200,-66333.40613,-49069.76808,-53981.51922,-35163.92084,-44112.21821,-58845.63879,-31679.17212,-54634.79366,0.04,0.886,0.392,192,0,0,0,0,0,0,0,0,0,1.71E+09,0, 2024-03-15 14:23:53.940
201,-66209.84569,-48950.58858,-53844.27951,-35026.43526,-43983.65098,-58746.10648,-31612.83214,-54484.43347,0.04,0.886,0.392,192,0,0,0,0,0,0,0,0,0,1.71E+09,0, 2024-03-15 14:23:53.940
202,-66187.67276,-48924.43704,-53812.04829,-34993.60055,-43948.6705,-58711.1707,-31551.81188,-54447.62015,0.04,0.886,0.392,192,0,0,0,0,0,0,0,0,0,1.71E+09,0, 2024-03-15 14:23:53.940
203,-66297.35277,-49030.09373,-53929.88669,-35112.48948,-44052.60611,-58788.08305,-31571.77199,-54537.45181,0.04,0.886,0.392,192,0,0,0,0,0,0,0,0,0,1.71E+09,0, 2024-03-15 14:23:53.940
204,-66389.73253,-49130.36366,-54036.77273,-35229.05382,-44155.67001,-58885.93899,-31657.80385,-54658.88884,0.04,0.886,0.392,192,0,0,0,0,0,0,0,0,0,1.71E+09,0, 2024-03-15 14:23:53.940
205,-66352.96391,-49105.75439,-54008.90011,-35207.70791,-44134.16763,-58892.93508,-31692.96315,-54659.22411,0.04,0.886,0.392,192,0,0,0,0,0,0,0,0,0,1.71E+09,0, 2024-03-15 14:23:53.940
206,-66213.1761,-48973.94615,-53870.00637,-35065.10378,-44009.44489,-58795.39207,-31626.80198,-54514.04953,0.04,0.886,0.392,192,0,0,0,0,0,0,0,0,0,1.71E+09,0, 2024-03-15 14:23:53.940
207,-66170.79719,-48923.9006,-53819.04439,-35013.87358,-43962.03684,-58748.87809,-31562.33955,-54471.69298,0.034,0.882,0.396,192,1,16,27,144,12,96,0,0,0,1.71E+09,0, 2024-03-15 14:23:53.940
208,-66280.34309,-49018.00144,-53935.0723,-35126.59343,-44065.14544,-58824.04701,-31598.10234,-54591.47597,0.034,0.882,0.396,192,0,0,0,0,0,0,0,0,0,1.71E+09,0, 2024-03-15 14:23:53.940
209,-66370.42062,-49103.96625,-54037.89032,-35229.36675,-44168.07522,-58907.70959,-31684.6483,-54718.03155,0.034,0.882,0.396,192,0,0,0,0,0,0,0,0,0,1.71E+09,0, 2024-03-15 14:23:53.940
210,-66325.58302,-49066.75059,-54001.92636,-35192.97811,-44146.01405,-58896.60077,-31718.89117,-54710.87899,0.034,0.882,0.396,192,0,0,0,0,0,0,0,0,0,1.71E+09,0, 2024-03-15 14:23:53.940
211,-66199.54153,-48945.02299,-53873.87322,-35061.14752,-44029.91909,-58806.97028,-31662.63183,-54604.79761,0.034,0.882,0.396,192,0,0,0,0,0,0,0,0,0,1.71E+09,0, 2024-03-15 14:23:53.940
212,-66163.39876,-48903.76167,-53826.39811,-35015.16998,-43978.7783,-58760.52335,-31592.51441,-54550.70639,0.034,0.882,0.396,192,0,0,0,0,0,0,0,0,0,1.71E+09,0, 2024-03-15 14:23:53.940
213,-66280.18663,-49008.74782,-53944.99647,-35131.66727,-44081.46221,-58833.5018,-31630.31121,-54627.37288,0.034,0.882,0.396,192,0,0,0,0,0,0,0,0,0,1.71E+09,0, 2024-03-15 14:23:53.940
214,-66364.408,-49087.62712,-54032.34709,-35222.46006,-44165.77299,-58899.68531,-31690.77268,-54706.31924,0.034,0.882,0.396,192,0,0,0,0,0,0,0,0,0,1.71E+09,0, 2024-03-15 14:23:53.940
215,-66318.20694,-49051.81963,-53992.8292,-35182.22692,-44134.90524,-58878.74173,-31710.75513,-54674.57976,0.034,0.882,0.396,192,0,0,0,0,0,0,0,0,0,1.71E+09,0, 2024-03-15 14:23:53.940
216,-66186.06343,-48928.86268,-53853.80135,-35041.54504,-44005.13101,-58776.99659,-31642.11293,-54537.94355,0.034,0.882,0.396,192,0,0,0,0,0,0,0,0,0,1.71E+09,0, 2024-03-15 14:23:53.940
217,-66159.08488,-48901.05711,-53817.85975,-35005.51403,-43966.86482,-58741.30085,-31581.78557,-54518.25166,0.032,0.884,0.394,192,1,0,27,160,12,80,0,0,0,1.71E+09,0, 2024-03-15 14:23:53.940
218,-66269.83777,-49004.0763,-53932.30068,-35117.74214,-44067.17945,-58810.36774,-31608.33944,-54610.98905,0.032,0.884,0.394,192,0,0,0,0,0,0,0,0,0,1.71E+09,0, 2024-03-15 14:23:53.940
219,-66367.96193,-49100.16645,-54036.23629,-35223.48824,-44164.23072,-58891.8175,-31680.44617,-54694.60692,0.032,0.884,0.394,192,0,0,0,0,0,0,0,0,0,1.71E+09,0, 2024-03-15 14:23:53.940
220,-66328.57815,-49069.83513,-54000.78642,-35189.67005,-44134.68172,-58878.49586,-31698.50638,-54670.10941,0.032,0.884,0.394,192,0,0,0,0,0,0,0,0,0,1.71E+09,0, 2024-03-15 14:23:53.940
221,-66202.939,-48951.57205,-53862.54088,-35048.49643,-44007.52264,-58775.05198,-31640.43655,-54525.20305,0.032,0.884,0.394,192,0,0,0,0,0,0,0,0,0,1.71E+09,0, 2024-03-15 14:23:53.940
222,-66178.0168,-48921.17368,-53822.48656,-35004.91053,-43963.69087,-58729.1415,-31578.63397,-54479.6502,0.032,0.884,0.394,192,0,0,0,0,0,0,0,0,0,1.71E+09,0, 2024-03-15 14:23:53.940
223,-66289.28379,-49021.84594,-53936.81573,-35113.33884,-44062.64205,-58790.51939,-31593.34142,-54548.15829,0.032,0.884,0.394,192,0,0,0,0,0,0,0,0,0,1.71E+09,0, 2024-03-15 14:23:53.940
224,-66379.33897,-49110.82823,-54034.04582,-35215.01693,-44151.6914,-58866.18005,-31656.50745,-54635.84419,0.032,0.884,0.394,192,0,0,0,0,0,0,0,0,0,1.71E+09,0, 2024-03-15 14:23:53.940
225,-66342.0339,-49085.28019,-54002.75338,-35186.29494,-44123.17057,-58858.73692,-31672.98069,-54633.16198,0.032,0.884,0.394,192,0,0,0,0,0,0,0,0,0,1.71E+09,0, 2024-03-15 14:23:53.940
226,-66220.2169,-48972.0239,-53874.45436,-35059.6276,-44007.81322,-58775.8343,-31625.17031,-54538.41293,0.032,0.884,0.394,192,0,0,0,0,0,0,0,0,0,1.71E+09,0, 2024-03-15 14:23:53.940
227,-66182.88948,-48932.52837,-53829.12503,-35014.99117,-43959.5111,-58735.62351,-31548.57088,-54492.4801,0.038,0.882,0.398,192,1,48,27,144,12,112,0,0,0,1.71E+09,0, 2024-03-15 14:23:53.940
228,-66291.3178,-49030.11608,-53934.64761,-35125.60995,-44051.71204,-58804.93627,-31565.44644,-54543.24091,0.038,0.882,0.398,192,0,0,0,0,0,0,0,0,0,1.71E+09,0, 2024-03-15 14:23:53.940
229,-66385.82097,-49119.29955,-54036.39275,-35229.56791,-44151.0879,-58886.0731,-31649.06432,-54602.92007,0.038,0.882,0.398,192,0,0,0,0,0,0,0,0,0,1.71E+09,0, 2024-03-15 14:23:53.940
230,-66334.32255,-49076.20538,-53996.0255,-35192.50872,-44123.50585,-58877.75825,-31676.3558,-54624.33304,0.038,0.882,0.398,192,0,0,0,0,0,0,0,0,0,1.71E+09,0, 2024-03-15 14:23:53.940
231,-66196.23347,-48947.14641,-53855.43303,-35053.235,-43998.42548,-58788.016,-31620.29763,-54551.08637,0.038,0.882,0.398,192,0,0,0,0,0,0,0,0,0,1.71E+09,0, 2024-03-15 14:23:53.940
232,-66152.69228,-48899.06781,-53801.58768,-35000.32842,-43947.15058,-58742.70901,-31555.61168,-54513.82601,0.038,0.882,0.398,192,0,0,0,0,0,0,0,0,0,1.71E+09,0, 2024-03-15 14:23:53.940
233,-66265.81446,-49003.02577,-53915.46982,-35112.53418,-44049.2757,-58814.83809,-31585.63007,-54582.91526,0.038,0.882,0.398,192,0,0,0,0,0,0,0,0,0,1.71E+09,0, 2024-03-15 14:23:53.940
234,-66366.93375,-49102.55809,-54026.17801,-35224.04703,-44153.92657,-58902.97102,-31668.08565,-54677.99958,0.038,0.882,0.398,192,0,0,0,0,0,0,0,0,0,1.71E+09,0, 2024-03-15 14:23:53.940
235,-66324.86776,-49067.37644,-53991.44339,-35188.50776,-44126.90331,-58889.67173,-31687.97871,-54673.59628,0.038,0.882,0.398,192,0,0,0,0,0,0,0,0,0,1.71E+09,0, 2024-03-15 14:23:53.940
236,-66200.86029,-48949.94038,-53861.69152,-35056.45365,-44011.56831,-58801.98584,-31642.87289,-54597.35448,0.038,0.882,0.398,192,0,0,0,0,0,0,0,0,0,1.71E+09,0, 2024-03-15 14:23:53.940
237,-66163.30936,-48907.89675,-53815.26694,-35004.30703,-43963.84733,-58750.50977,-31579.5951,-54528.84639,0.044,0.882,0.398,192,1,96,27,144,12,112,0,0,0,1.71E+09,0, 2024-03-15 14:23:53.940
238,-66274.0846,-49006.87027,-53927.78563,-35113.11532,-44060.45157,-58814.88279,-31595.04015,-54608.59741,0.044,0.882,0.398,192,0,0,0,0,0,0,0,0,0,1.71E+09,0, 2024-03-15 14:23:53.940
239,-66368.23015,-49103.13923,-54035.43163,-35218.16852,-44163.9178,-58891.68339,-31673.58418,-54696.57388,0.044,0.882,0.398,192,0,0,0,0,0,0,0,0,0,1.71E+09,0, 2024-03-15 14:23:53.940
240,-66330.52276,-49072.56205,-54001.92636,-35183.34451,-44136.69337,-58874.29373,-31693.74546,-54669.12593,0.044,0.882,0.398,192,0,0,0,0,0,0,0,0,0,1.71E+09,0, 2024-03-15 14:23:53.940
241,-66200.54736,-48949.73921,-53861.15508,-35041.32152,-44004.92984,-58772.88386,-31636.74851,-54526.79003,0.044,0.882,0.398,192,0,0,0,0,0,0,0,0,0,1.71E+09,0, 2024-03-15 14:23:53.940
242,-66163.66698,-48908.36613,-53809.16492,-34985.84449,-43951.66563,-58722.41363,-31566.72049,-54476.94564,0.044,0.882,0.398,192,0,0,0,0,0,0,0,0,0,1.71E+09,0, 2024-03-15 14:23:53.940
243,-66279.85135,-49013.30757,-53917.2356,-35094.07164,-44048.15811,-58790.69821,-31585.51831,-54568.78895,0.044,0.882,0.398,192,0,0,0,0,0,0,0,0,0,1.71E+09,0, 2024-03-15 14:23:53.940
244,-66378.4449,-49109.50948,-54021.86412,-35198.18606,-44145.07528,-58868.147,-31654.00406,-54653.68088,0.044,0.882,0.398,192,0,0,0,0,0,0,0,0,0,1.71E+09,0, 2024-03-15 14:23:53.940
245,-66333.27202,-49073.1879,-53982.21212,-35158.08703,-44111.77118,-58847.76221,-31669.71733,-54633.25138,0.044,0.882,0.398,192,0,0,0,0,0,0,0,0,0,1.71E+09,0, 2024-03-15 14:23:53.940
246,-66212.37143,-48961.1386,-53857.82467,-35029.96683,-43997.79963,-58760.00926,-31625.25971,-54518.63164,0.044,0.882,0.398,192,0,0,0,0,0,0,0,0,0,1.71E+09,0, 2024-03-15 14:23:53.940
247,-66173.07707,-48920.45843,-53807.84617,-34983.31874,-43948.73756,-58716.89275,-31561.53489,-54481.39363,0.048,0.886,0.4,192,1,128,27,176,12,128,0,0,0,1.71E+09,0, 2024-03-15 14:23:53.940
248,-66275.9398,-49012.61467,-53916.36388,-35090.4283,-44044.0901,-58780.10348,-31582.36671,-54554.55089,0.048,0.886,0.4,192,0,0,0,0,0,0,0,0,0,1.71E+09,0, 2024-03-15 14:23:53.940
249,-66368.74424,-49104.45799,-54017.93021,-35195.32504,-44137.52039,-58856.72526,-31645.6445,-54628.46811,0.048,0.886,0.4,192,0,0,0,0,0,0,0,0,0,1.71E+09,0, 2024-03-15 14:23:53.940
250,-66337.56355,-49081.72626,-53990.66108,-35173.17446,-44114.90042,-58854.46773,-31673.65124,-54623.57308,0.048,0.886,0.4,192,0,0,0,0,0,0,0,0,0,1.71E+09,0, 2024-03-15 14:23:53.940
251,-66216.23829,-48969.85578,-53862.25031,-35047.95999,-44001.2418,-58775.52137,-31629.93123,-54514.80949,0.048,0.886,0.4,192,0,0,0,0,0,0,0,0,0,1.71E+09,0, 2024-03-15 14:23:53.940
252,-66172.40652,-48920.41372,-53807.48854,-34992.46061,-43948.55874,-58728.98504,-31562.60777,-54448.17894,0.048,0.886,0.4,192,0,0,0,0,0,0,0,0,0,1.71E+09,0, 2024-03-15 14:23:53.940
253,-66283.94172,-49025.17635,-53921.50479,-35111.99774,-44048.11341,-58813.51934,-31588.69226,-54559.20006,0.048,0.886,0.4,192,0,0,0,0,0,0,0,0,0,1.71E+09,0, 2024-03-15 14:23:53.940
254,-66379.65189,-49123.36756,-54028.43553,-35225.72341,-44147.75749,-58907.03904,-31659.18966,-54676.9714,0.048,0.886,0.4,192,0,0,0,0,0,0,0,0,0,1.71E+09,0, 2024-03-15 14:23:53.940
255,-66333.22732,-49084.40847,-53987.91182,-35188.55246,-44115.97331,-58891.9069,-31680.8932,-54663.35918,0.048,0.886,0.4,192,0,0,0,0,0,0,0,0,0,1.71E+09,0, 2024-03-15 14:23:53.940
0,-66201.88847,-48959.21635,-53853.39902,-35050.95512,-43995.51976,-58797.67195,-31630.08769,-54555.08733,0.048,0.886,0.4,192,0,0,0,0,0,0,0,0,0,1.71E+09,0, 2024-03-15 14:23:53.940
1,-66164.69516,-48919.54201,-53804.404,-35003.07769,-43948.89402,-58754.0637,-31566.74285,-54508.10397,0.038,0.896,0.402,192,1,48,28,0,12,144,0,0,0,1.71E+09,0, 2024-03-15 14:23:53.940
2,-66273.54816,-49019.11903,-53910.1054,-35113.07062,-44037.71985,-58821.54361,-31584.53483,-54591.09599,0.038,0.896,0.402,192,0,0,0,0,0,0,0,0,0,1.71E+09,0, 2024-03-15 14:23:53.940
3,-66378.78017,-49120.08186,-54026.75915,-35230.46198,-44150.39499,-58910.74942,-31673.24891,-54712.04128,0.038,0.896,0.402,192,0,0,0,0,0,0,0,0,0,1.71E+09,0, 2024-03-15 14:23:53.940
4,-66339.10583,-49091.53868,-53995.80198,-35200.95768,-44123.72936,-58897.98658,-31688.51515,-54683.364,0.038,0.896,0.402,192,0,0,0,0,0,0,0,0,0,1.71E+09,0, 2024-03-15 14:23:53.940
5,-66218.62992,-48976.22603,-53865.60307,-35068.41184,-44005.6451,-58802.52228,-31641.50943,-54560.63057,0.038,0.896,0.402,192,0,0,0,0,0,0,0,0,0,1.71E+09,0, 2024-03-15 14:23:53.940
6,-66180.07316,-48929.30972,-53817.16684,-35014.47708,-43958.61703,-58749.30277,-31580.04213,-54514.80949,0.038,0.896,0.402,192,0,0,0,0,0,0,0,0,0,1.71E+09,0, 2024-03-15 14:23:53.940
7,-66288.79205,-49021.75653,-53924.36581,-35116.13281,-44051.04149,-58804.60099,-31591.53093,-54579.02605,0.038,0.896,0.402,192,0,0,0,0,0,0,0,0,0,1.71E+09,0, 2024-03-15 14:23:53.940
8,-66387.00561,-49113.91277,-54026.0886,-35218.90613,-44142.72835,-58876.03717,-31657.98267,-54651.60217,0.038,0.896,0.402,192,0,0,0,0,0,0,0,0,0,1.71E+09,0, 2024-03-15 14:23:53.940
9,-66350.84049,-49086.26367,-53992.06924,-35190.16179,-44111.32414,-58865.91183,-31674.81353,-54667.96364,0.038,0.896,0.402,192,0,0,0,0,0,0,0,0,0,1.71E+09,0, 2024-03-15 14:23:53.940
10,-66230.5434,-48973.00738,-53867.27945,-35062.37686,-43996.97262,-58779.99172,-31627.89722,-54563.60335,0.038,0.896,0.402,192,0,0,0,0,0,0,0,0,0,1.71E+09,0, 2024-03-15 14:23:53.940
11,-66182.48715,-48917.66446,-53804.35929,-34993.35468,-43940.26624,-58712.31064,-31559.32207,-54451.19643,0.04,0.894,0.4,192,1,64,27,240,12,128,0,0,0,1.71E+09,0, 2024-03-15 14:23:53.940
12,-66294.13412,-49020.41543,-53918.95669,-35106.99095,-44040.51382,-58785.95964,-31582.21025,-54573.97456,0.04,0.894,0.4,192,0,0,0,0,0,0,0,0,0,1.71E+09,0, 2024-03-15 14:23:53.940
13,-66396.84038,-49124.06047,-54027.36265,-35223.13061,-44140.98491,-58877.19946,-31649.42195,-54682.62639,0.04,0.894,0.4,192,0,0,0,0,0,0,0,0,0,1.71E+09,0, 2024-03-15 14:23:53.940
14,-66364.18448,-49096.43371,-53996.42783,-35190.89939,-44113.73813,-58862.42495,-31665.13522,-54630.14449,0.04,0.894,0.4,192,0,0,0,0,0,0,0,0,0,1.71E+09,0, 2024-03-15 14:23:53.940
15,-66246.74842,-48988.78771,-53871.34747,-35067.51777,-43997.06203,-58782.20454,-31611.53574,-54522.14086,0.04,0.894,0.4,192,0,0,0,0,0,0,0,0,0,1.71E+09,0, 2024-03-15 14:23:53.940
16,-66197.01579,-48939.74798,-53815.84809,-35011.83957,-43941.20502,-58734.59533,-31539.00433,-54473.45876,0.04,0.894,0.4,192,0,0,0,0,0,0,0,0,0,1.71E+09,0, 2024-03-15 14:23:53.940
17,-66295.2517,-49028.9985,-53913.90519,-35109.24847,-44029.94144,-58790.85467,-31555.85755,-54515.05536,0.04,0.894,0.4,192,0,0,0,0,0,0,0,0,0,1.71E+09,0, 2024-03-15 14:23:53.940
18,-66397.51093,-49128.93315,-54027.3403,-35221.7001,-44136.46986,-58877.71355,-31627.74076,-54608.4186,0.04,0.894,0.4,192,0,0,0,0,0,0,0,0,0,1.71E+09,0, 2024-03-15 14:23:53.940
19,-66370.86765,-49114.62803,-54009.28009,-35207.43969,-44120.10838,-58886.58719,-31654.33933,-54620.77911,0.04,0.894,0.4,192,0,0,0,0,0,0,0,0,0,1.71E+09,0, 2024-03-15 14:23:53.940
20,-66248.76007,-49002.1764,-53888.06658,-35087.47787,-44012.35062,-58814.23459,-31612.16159,-54549.23118,0.04,0.894,0.4,192,0,0,0,0,0,0,0,0,0,1.71E+09,0, 2024-03-15 14:23:53.940
21,-66205.64356,-48956.19887,-53835.04824,-35037.56643,-43963.22149,-58776.68366,-31551.67777,-54514.85419,0.04,0.894,0.4,192,0,0,0,0,0,0,0,0,0,1.71E+09,0, 2024-03-15 14:23:53.940
22,-66304.48297,-49048.60098,-53937.44158,-35142.39611,-44054.46131,-58845.23646,-31576.62232,-54600.52843,0.036,0.888,0.4,192,1,32,27,192,12,128,0,0,0,1.71E+09,0, 2024-03-15 14:23:53.940
23,-66393.35351,-49137.9409,-54040.66194,-35246.0635,-44156.02763,-58927.15561,-31651.76888,-54719.08208,0.036,0.888,0.4,192,0,0,0,0,0,0,0,0,0,1.71E+09,0, 2024-03-15 14:23:53.940
24,-66357.23309,-49111.38703,-54015.13624,-35219.12965,-44141.5437,-58923.13229,-31690.4374,-54727.37458,0.036,0.888,0.4,192,0,0,0,0,0,0,0,0,0,1.71E+09,0, 2024-03-15 14:23:53.940
25,-66223.21203,-48987.02192,-53881.294,-35079.65476,-44020.82193,-58828.96439,-31642.4482,-54611.39138,0.036,0.888,0.4,192,0,0,0,0,0,0,0,0,0,1.71E+09,0, 2024-03-15 14:23:53.940
26,-66167.80206,-48929.51088,-53812.94236,-35010.09613,-43957.43238,-58768.01118,-31562.04898,-54548.38181,0.036,0.888,0.4,192,0,0,0,0,0,0,0,0,0,1.71E+09,0, 2024-03-15 14:23:53.940
27,-66273.63757,-49027.7915,-53917.39207,-35117.20569,-44049.61098,-58831.17721,-31587.82054,-54627.93167,0.036,0.888,0.4,192,0,0,0,0,0,0,0,0,0,1.71E+09,0, 2024-03-15 14:23:53.940
28,-66370.30886,-49125.04394,-54020.12068,-35223.42118,-44144.24826,-58908.04486,-31660.62017,-54724.82648,0.036,0.888,0.4,192,0,0,0,0,0,0,0,0,0,1.71E+09,0, 2024-03-15 14:23:53.940
29,-66344.64906,-49105.46382,-53999.60178,-35201.65058,-44128.28912,-58904.28977,-31690.54916,-54721.92076,0.036,0.888,0.4,192,0,0,0,0,0,0,0,0,0,1.71E+09,0, 2024-03-15 14:23:53.940
30,-66213.8243,-48981.81397,-53861.08802,-35058.01827,-44006.60622,-58800.42121,-31640.21303,-54588.92788,0.036,0.888,0.4,192,0,0,0,0,0,0,0,0,0,1.71E+09,0, 2024-03-15 14:23:53.940
31,-66152.26759,-48915.78691,-53783.81804,-34972.00876,-43934.76772,-58716.04338,-31561.15491,-54473.57052,0.036,0.888,0.4,192,0,0,0,0,0,0,0,0,0,1.71E+09,0, 2024-03-15 14:23:53.940
32,-66262.32758,-49012.81583,-53892.78279,-35075.31852,-44028.7121,-58775.78959,-31582.92551,-54570.13006,0.036,0.884,0.404,192,1,32,27,160,12,160,0,0,0,1.71E+09,0, 2024-03-15 14:23:53.940
33,-66363.44688,-49113.66691,-54002.52986,-35187.0996,-44130.85957,-58860.01096,-31658.29559,-54692.3941,0.036,0.884,0.404,192,0,0,0,0,0,0,0,0,0,1.71E+09,0, 2024-03-15 14:23:53.940
34,-66339.57521,-49097.79717,-53983.68734,-35166.31248,-44115.191,-58854.78066,-31687.10699,-54665.21438,0.036,0.884,0.404,192,0,0,0,0,0,0,0,0,0,1.71E+09,0, 2024-03-15 14:23:53.940
35,-66214.53955,-48980.76343,-53850.42624,-35029.45274,-43994.33511,-58757.97525,-31627.83016,-54536.51303,0.036,0.884,0.404,192,0,0,0,0,0,0,0,0,0,1.71E+09,0, 2024-03-15 14:23:53.940
36,-66164.04696,-48930.85199,-53789.45068,-34968.11956,-43938.05342,-58704.04049,-31560.73023,-54485.77457,0.036,0.884,0.404,192,0,0,0,0,0,0,0,0,0,1.71E+09,0, 2024-03-15 14:23:53.940
37,-66263.57928,-49020.88481,-53888.62537,-35067.22719,-44019.74905,-58761.46212,-31566.63109,-54554.81911,0.036,0.884,0.404,192,0,0,0,0,0,0,0,0,0,1.71E+09,0, 2024-03-15 14:23:53.940
38,-66374.57804,-49129.91662,-54006.93315,-35190.74293,-44128.82556,-58857.70874,-31638.91663,-54650.43988,0.036,0.884,0.404,192,0,0,0,0,0,0,0,0,0,1.71E+09,0, 2024-03-15 14:23:53.940
39,-66345.05139,-49109.21891,-53986.03427,-35176.19195,-44112.30762,-58863.74371,-31665.13522,-54653.68088,0.036,0.884,0.404,192,0,0,0,0,0,0,0,0,0,1.71E+09,0, 2024-03-15 14:23:53.940
40,-66219.63575,-48991.98401,-53858.69638,-35051.2457,-43997.28554,-58783.38918,-31618.93417,-54549.45469,0.036,0.884,0.404,192,0,0,0,0,0,0,0,0,0,1.71E+09,0, 2024-03-15 14:23:53.940
41,-66170.68543,-48937.78103,-53800.96183,-34989.80075,-43942.21085,-58730.59436,-31549.46495,-54476.83388,0.036,0.884,0.404,192,0,0,0,0,0,0,0,0,0,1.71E+09,0, 2024-03-15 14:23:53.940
42,-66278.55495,-49032.46302,-53907.22202,-35094.09399,-44035.43997,-58795.83911,-31569.42505,-54544.93964,0.04,0.882,0.398,192,1,64,27,144,12,112,0,0,0,1.71E+09,0, 2024-03-15 14:23:53.940
43,-66384.16694,-49134.99047,-54025.86508,-35210.88185,-44146.0364,-58885.87193,-31650.89716,-54658.77708,0.04,0.882,0.398,192,0,0,0,0,0,0,0,0,0,1.71E+09,0, 2024-03-15 14:23:53.940
44,-66343.26325,-49100.05469,-53995.13143,-35184.37269,-44124.57873,-58880.66398,-31671.39371,-54673.1716,0.04,0.882,0.398,192,0,0,0,0,0,0,0,0,0,1.71E+09,0, 2024-03-15 14:23:53.940
45,-66227.03418,-48990.91113,-53870.56516,-35065.86374,-44012.57414,-58807.46201,-31633.12753,-54593.01824,0.04,0.882,0.398,192,0,0,0,0,0,0,0,0,0,1.71E+09,0, 2024-03-15 14:23:53.940
46,-66175.35695,-48937.40105,-53810.30486,-35003.39061,-43955.95717,-58754.82366,-31573.53778,-54536.26717,0.04,0.882,0.398,192,0,0,0,0,0,0,0,0,0,1.71E+09,0, 2024-03-15 14:23:53.940
47,-66269.5919,-49022.20357,-53908.65253,-35096.19505,-44040.2456,-58808.22197,-31586.77001,-54600.10375,0.04,0.882,0.398,192,0,0,0,0,0,0,0,0,0,1.71E+09,0, 2024-03-15 14:23:53.940
48,-66370.30886,-49119.65717,-54018.89134,-35205.58449,-44148.42804,-58890.69991,-31666.29752,-54692.19294,0.04,0.882,0.398,192,0,0,0,0,0,0,0,0,0,1.71E+09,0, 2024-03-15 14:23:53.940
49,-66329.24871,-49083.00031,-53982.68151,-35166.08896,-44121.5836,-58867.76702,-31687.37521,-54652.0492,0.04,0.882,0.398,192,0,0,0,0,0,0,0,0,0,1.71E+09,0, 2024-03-15 14:23:53.940
50,-66211.58912,-48971.88979,-53853.46608,-35038.4605,-44005.98037,-58782.58452,-31641.86706,-54565.34679,0.04,0.882,0.398,192,0,0,0,0,0,0,0,0,0,1.71E+09,0, 2024-03-15 14:23:53.940
51,-66166.4386,-48922.76066,-53796.29031,-34979.00486,-43948.0223,-58732.13663,-31577.38228,-54526.4771,0.04,0.882,0.398,192,0,0,0,0,0,0,0,0,0,1.71E+09,0, 2024-03-15 14:23:53.940
52,-66263.17695,-49008.81487,-53892.55928,-35073.28452,-44031.28255,-58784.19385,-31586.18886,-54600.21551,0.042,0.886,0.396,192,1,80,27,176,12,96,0,0,0,1.71E+09,0, 2024-03-15 14:23:53.940
53,-66360.33998,-49105.91085,-54000.87583,-35182.49514,-44132.31243,-58866.38121,-31653.17704,-54711.72836,0.042,0.886,0.396,192,0,0,0,0,0,0,0,0,0,1.71E+09,0, 2024-03-15 14:23:53.940
54,-66325.15834,-49078.14998,-53974.8584,-35150.77801,-44113.20169,-58850.62323,-31679.19447,-54685.55447,0.042,0.886,0.396,192,0,0,0,0,0,0,0,0,0,1.71E+09,0, 2024-03-15 14:23:53.940
55,-66210.33743,-48973.49912,-53855.34362,-35025.65295,-44002.06882,-58762.75852,-31640.48125,-54554.37208,0.042,0.886,0.396,192,0,0,0,0,0,0,0,0,0,1.71E+09,0, 2024-03-15 14:23:53.940
56,-66155.82152,-48916.59157,-53785.20385,-34956.83193,-43933.00193,-58702.85585,-31562.80894,-54494.73762,0.042,0.886,0.396,192,0,0,0,0,0,0,0,0,0,1.71E+09,0, 2024-03-15 14:23:53.940
57,-66248.29069,-49000.38826,-53876.06369,-35047.26708,-44011.85888,-58753.5049,-31569.69328,-54560.58586,0.042,0.886,0.396,192,0,0,0,0,0,0,0,0,0,1.71E+09,0, 2024-03-15 14:23:53.940
58,-66351.91337,-49102.02165,-53990.77284,-35160.85865,-44120.01897,-58837.01102,-31647.72322,-54646.52832,0.042,0.886,0.396,192,0,0,0,0,0,0,0,0,0,1.71E+09,0, 2024-03-15 14:23:53.940
59,-66331.57329,-49093.86326,-53979.3064,-35155.67305,-44115.50392,-58851.60671,-31682.39077,-54679.47479,0.042,0.886,0.396,192,0,0,0,0,0,0,0,0,0,1.71E+09,0, 2024-03-15 14:23:54.420
60,-66216.17123,-48993.16865,-53866.07246,-35042.59557,-44013.08823,-58780.57287,-31641.42002,-54595.34283,0.042,0.886,0.396,192,0,0,0,0,0,0,0,0,0,1.71E+09,0, 2024-03-15 14:23:54.420
61,-66154.50277,-48931.90252,-53791.73056,-34971.49467,-43938.3887,-58716.37866,-31555.72344,-54501.33139,0.042,0.886,0.396,192,0,0,0,0,0,0,0,0,0,1.71E+09,0, 2024-03-15 14:23:54.420
62,-66251.17406,-49019.96839,-53886.4349,-35068.34478,-44017.78209,-58771.16278,-31570.07326,-54529.91927,0.042,0.892,0.396,192,1,80,27,224,12,96,0,0,0,1.71E+09,0, 2024-03-15 14:23:54.420
63,-66352.40511,-49117.60081,-54001.56873,-35179.56706,-44126.14335,-58850.64558,-31644.37045,-54586.60329,0.042,0.892,0.396,192,0,0,0,0,0,0,0,0,0,1.71E+09,0, 2024-03-15 14:23:54.420
64,-66330.63451,-49104.30152,-53990.07994,-35168.70411,-44117.58263,-58856.74761,-31679.46269,-54614.49827,0.042,0.892,0.396,192,0,0,0,0,0,0,0,0,0,1.71E+09,0, 2024-03-15 14:23:54.420
65,-66219.38988,-49000.54473,-53871.90627,-35055.60429,-44012.32827,-58787.81483,-31643.92342,-54558.28363,0.042,0.892,0.396,192,0,0,0,0,0,0,0,0,0,1.71E+09,0, 2024-03-15 14:23:54.420
66,-66162.48234,-48937.26694,-53806.28154,-34986.04566,-43949.16224,-58726.68281,-31569.84974,-54480.52192,0.042,0.892,0.396,192,0,0,0,0,0,0,0,0,0,1.71E+09,0, 2024-03-15 14:23:54.420
67,-66257.74548,-49024.5505,-53903.64574,-35083.56632,-44033.51772,-58785.66906,-31578.9916,-54561.70345,0.042,0.892,0.396,192,0,0,0,0,0,0,0,0,0,1.71E+09,0, 2024-03-15 14:23:54.420
68,-66366.39731,-49131.86123,-54021.79706,-35207.03735,-44140.94021,-58886.96717,-31655.41222,-54713.29298,0.042,0.892,0.396,192,0,0,0,0,0,0,0,0,0,1.71E+09,0, 2024-03-15 14:23:54.420
69,-66341.69863,-49115.25388,-54001.00994,-35193.64866,-44127.48446,-58892.35394,-31678.9486,-54713.69531,0.042,0.892,0.396,192,0,0,0,0,0,0,0,0,0,1.71E+09,0, 2024-03-15 14:23:54.420
70,-66218.18289,-49001.12587,-53866.63125,-35060.54402,-44006.04743,-58796.64377,-31624.4774,-54556.56255,0.042,0.892,0.396,192,0,0,0,0,0,0,0,0,0,1.71E+09,0, 2024-03-15 14:23:54.420
71,-66169.52314,-48952.01909,-53807.55559,-35002.69771,-43945.4742,-58748.92279,-31557.26571,-54527.50528,0.042,0.892,0.396,192,0,0,0,0,0,0,0,0,0,1.71E+09,0, 2024-03-15 14:23:54.420
72,-66267.60259,-49039.74969,-53904.04807,-35100.24072,-44030.90257,-58809.63013,-31572.57665,-54633.85488,0.042,0.888,0.388,192,1,80,27,192,12,32,0,0,0,1.71E+09,0, 2024-03-15 14:23:54.420
73,-66368.74424,-49136.53274,-54011.11293,-35206.23269,-44133.56413,-58887.70478,-31644.16929,-54706.49805,0.042,0.888,0.388,192,0,0,0,0,0,0,0,0,0,1.71E+09,0, 2024-03-15 14:23:54.420
74,-66343.71028,-49114.20335,-53985.94487,-35178.49418,-44111.68177,-58871.74563,-31671.52782,-54650.48458,0.042,0.888,0.388,192,0,0,0,0,0,0,0,0,0,1.71E+09,0, 2024-03-15 14:23:54.420
75,-66229.91755,-49005.17154,-53868.91113,-35056.90069,-44008.8861,-58788.23951,-31639.74364,-54561.97167,0.042,0.888,0.388,192,0,0,0,0,0,0,0,0,0,1.71E+09,0, 2024-03-15 14:23:54.420
76,-66179.872,-48952.26496,-53810.68484,-34995.63456,-43952.80557,-58733.88007,-31573.8507,-54504.50534,0.042,0.888,0.388,192,0,0,0,0,0,0,0,0,0,1.71E+09,0, 2024-03-15 14:23:54.420
77,-66268.18374,-49030.58547,-53897.70018,-35079.65476,-44025.24758,-58777.93536,-31576.77878,-54557.85895,0.042,0.888,0.388,192,0,0,0,0,0,0,0,0,0,1.71E+09,0, 2024-03-15 14:23:54.420
78,-66361.65874,-49120.68535,-54004.20624,-35179.4553,-44124.2211,-58851.74082,-31642.20233,-54656.69836,0.042,0.888,0.388,192,0,0,0,0,0,0,0,0,0,1.71E+09,0, 2024-03-15 14:23:54.420
79,-66332.3109,-49097.81952,-53982.83797,-35157.57294,-44109.4913,-58848.74569,-31669.42676,-54677.19491,0.042,0.888,0.388,192,0,0,0,0,0,0,0,0,0,1.71E+09,0, 2024-03-15 14:23:54.420
80,-66224.44138,-48996.49906,-53863.34555,-35042.81909,-44005.55569,-58773.95675,-31627.76311,-54581.66356,0.042,0.888,0.388,192,0,0,0,0,0,0,0,0,0,1.71E+09,0, 2024-03-15 14:23:54.420
81,-66171.28893,-48939.45741,-53801.09594,-34974.04277,-43944.06604,-58711.37186,-31556.99748,-54504.86296,0.042,0.888,0.388,192,0,0,0,0,0,0,0,0,0,1.71E+09,0, 2024-03-15 14:23:54.420
82,-66257.18668,-49018.98492,-53890.61468,-35058.91234,-44019.68199,-58757.72938,-31561.7137,-54547.17482,0.042,0.888,0.388,192,1,80,27,192,12,32,0,0,0,1.71E+09,0, 2024-03-15 14:23:54.420
83,-66354.52853,-49116.48323,-53999.62413,-35169.15115,-44122.94705,-58843.44832,-31636.97203,-54646.57302,0.042,0.888,0.388,192,0,0,0,0,0,0,0,0,0,1.71E+09,0, 2024-03-15 14:23:54.420
84,-66329.1146,-49098.66889,-53978.16646,-35156.81298,-44108.2396,-58850.08679,-31669.65028,-54639.06284,0.042,0.888,0.388,192,0,0,0,0,0,0,0,0,0,1.71E+09,0, 2024-03-15 14:23:54.420
85,-66215.79125,-48988.31832,-53860.1269,-35040.69567,-44000.79477,-58773.50971,-31624.25388,-54536.40128,0.042,0.888,0.388,192,0,0,0,0,0,0,0,0,0,1.71E+09,0, 2024-03-15 14:23:54.420
86,-66164.27048,-48938.16101,-53803.30876,-34985.71038,-43943.46254,-58732.15899,-31556.01401,-54512.64137,0.042,0.888,0.388,192,0,0,0,0,0,0,0,0,0,1.71E+09,0, 2024-03-15 14:23:54.420
87,-66261.27705,-49027.94797,-53901.94701,-35085.80149,-44029.78498,-58797.11316,-31573.42602,-54594.60522,0.042,0.888,0.388,192,0,0,0,0,0,0,0,0,0,1.71E+09,0, 2024-03-15 14:23:54.420
88,-66360.22822,-49124.90983,-54008.02839,-35194.34156,-44129.56317,-58879.0323,-31637.08379,-54679.43009,0.042,0.888,0.388,192,0,0,0,0,0,0,0,0,0,1.71E+09,0, 2024-03-15 14:23:54.420
89,-66334.09903,-49106.98373,-53990.07994,-35177.66716,-44118.76728,-58876.64066,-31670.09731,-54663.78387,0.042,0.888,0.388,192,0,0,0,0,0,0,0,0,0,1.71E+09,0, 2024-03-15 14:23:54.420
90,-66211.61147,-48994.77798,-53865.11133,-35055.55958,-44008.52847,-58795.77205,-31632.79225,-54544.55966,0.042,0.888,0.388,192,0,0,0,0,0,0,0,0,0,1.71E+09,0, 2024-03-15 14:23:54.420
91,-66156.76029,-48935.99289,-53798.41373,-34988.05731,-43944.66954,-58738.64099,-31567.97219,-54472.51999,0.042,0.888,0.388,192,0,0,0,0,0,0,0,0,0,1.71E+09,0, 2024-03-15 14:23:54.420
92,-66247.46367,-49018.78375,-53891.73226,-35081.66642,-44025.13582,-58797.53784,-31577.0023,-54571.60527,0.038,0.888,0.39,192,1,48,27,192,12,48,0,0,0,1.71E+09,0, 2024-03-15 14:23:54.420
93,-66342.41388,-49118.89721,-54000.33939,-35192.57578,-44122.74589,-58882.38506,-31636.54734,-54671.71874,0.038,0.888,0.39,192,0,0,0,0,0,0,0,0,0,1.71E+09,0, 2024-03-15 14:23:54.420
94,-66320.44212,-49104.65915,-53986.68247,-35177.64481,-44119.81781,-58882.58623,-31675.43938,-54656.92188,0.038,0.888,0.39,192,0,0,0,0,0,0,0,0,0,1.71E+09,0, 2024-03-15 14:23:54.420
95,-66209.13043,-49002.087,-53872.93445,-35064.58969,-44017.268,-58809.29486,-31646.38211,-54585.88804,0.038,0.888,0.39,192,0,0,0,0,0,0,0,0,0,1.71E+09,0, 2024-03-15 14:23:54.420
96,-66160.89537,-48949.69451,-53815.334,-35002.02715,-43959.28758,-58755.74008,-31577.0023,-54547.46539,0.038,0.888,0.39,192,0,0,0,0,0,0,0,0,0,1.71E+09,0, 2024-03-15 14:23:54.420
97,-66257.76783,-49035.3911,-53911.29004,-35095.5692,-44042.25725,-58813.51934,-31590.79332,-54630.05509,0.038,0.888,0.39,192,0,0,0,0,0,0,0,0,0,1.71E+09,0, 2024-03-15 14:23:54.420
98,-66355.26614,-49129.26842,-54006.2626,-35197.94019,-44133.07239,-58888.48709,-31655.92631,-54717.20454,0.038,0.888,0.39,192,0,0,0,0,0,0,0,0,0,1.71E+09,0, 2024-03-15 14:23:54.420
99,-66334.63548,-49112.34815,-53982.5027,-35176.92955,-44111.83823,-58878.87584,-31679.66386,-54674.40095,0.038,0.888,0.39,192,0,0,0,0,0,0,0,0,0,1.71E+09,0, 2024-03-15 14:23:54.420
100,-66218.09348,-49001.08117,-53858.85285,-35049.45756,-43998.82781,-58787.16663,-31629.93123,-54553.05333,0.038,0.888,0.39,192,0,0,0,0,0,0,0,0,0,1.71E+09,0, 2024-03-15 14:23:54.420
101,-66162.70586,-48941.2232,-53791.10471,-34976.59087,-43932.62195,-58721.76543,-31557.80215,-54494.08942,0.038,0.888,0.39,192,0,0,0,0,0,0,0,0,0,1.71E+09,0, 2024-03-15 14:23:54.420
102,-66246.74842,-49018.78375,-53879.3941,-35059.87347,-44010.29426,-58766.55832,-31567.63692,-54571.94055,0.04,0.888,0.392,192,1,64,27,192,12,64,0,0,0,1.71E+09,0, 2024-03-15 14:23:54.420
103,-66353.79092,-49122.45114,-53996.80781,-35172.63802,-44119.6837,-58850.2209,-31643.11876,-54664.47677,0.04,0.888,0.392,192,0,0,0,0,0,0,0,0,0,1.71E+09,0, 2024-03-15 14:23:54.420
104,-66334.09903,-49104.34623,-53984.17908,-35154.55546,-44114.45339,-58845.81761,-31676.57932,-54639.04049,0.04,0.888,0.392,192,0,0,0,0,0,0,0,0,0,1.71E+09,0, 2024-03-15 14:23:54.420
105,-66216.86413,-48988.27362,-53861.80328,-35030.90561,-44004.52751,-58761.68564,-31629.75241,-54563.6704,0.04,0.888,0.392,192,0,0,0,0,0,0,0,0,0,1.71E+09,0, 2024-03-15 14:23:54.420
106,-66162.5941,-48930.44966,-53794.36806,-34963.98449,-43938.90279,-58705.56041,-31562.3172,-54495.38583,0.04,0.888,0.392,192,0,0,0,0,0,0,0,0,0,1.71E+09,0, 2024-03-15 14:23:54.420
107,-66250.10118,-49012.45821,-53883.2833,-35053.10089,-44017.64798,-58759.09284,-31569.64857,-54547.51009,0.04,0.888,0.392,192,0,0,0,0,0,0,0,0,0,1.71E+09,0, 2024-03-15 14:23:54.420
108,-66351.19812,-49110.96234,-53992.69509,-35164.50198,-44118.00732,-58841.74959,-31640.77182,-54645.70131,0.04,0.888,0.392,192,0,0,0,0,0,0,0,0,0,1.71E+09,0, 2024-03-15 14:23:54.420
109,-66341.56452,-49104.54739,-53992.7398,-35161.01511,-44120.91304,-58848.25395,-31678.79214,-54623.64013,0.04,0.888,0.392,192,0,0,0,0,0,0,0,0,0,1.71E+09,0, 2024-03-15 14:23:54.420
110,-66226.58714,-48998.01898,-53874.02968,-35046.17185,-44016.46334,-58771.02867,-31638.559,-54524.71131,0.04,0.888,0.392,192,0,0,0,0,0,0,0,0,0,1.71E+09,0, 2024-03-15 14:23:54.420
111,-66170.35015,-48939.34565,-53810.50602,-34983.87754,-43954.68312,-58720.24551,-31573.94011,-54477.21386,0.04,0.888,0.392,192,0,0,0,0,0,0,0,0,0,1.71E+09,0, 2024-03-15 14:23:54.420
112,-66261.9029,-49024.86342,-53900.02476,-35079.02891,-44030.83551,-58779.45528,-31580.69033,-54523.81724,0.036,0.888,0.396,192,1,32,27,192,12,96,0,0,0,1.71E+09,0, 2024-03-15 14:23:54.420
113,-66368.36426,-49130.05073,-54011.80583,-35196.6885,-44134.81583,-58871.23154,-31652.99823,-54609.20091,0.036,0.888,0.396,192,0,0,0,0,0,0,0,0,0,1.71E+09,0, 2024-03-15 14:23:54.420
114,-66354.90851,-49122.89818,-54004.25094,-35195.97324,-44133.05004,-58890.67756,-31687.41991,-54647.19887,0.036,0.888,0.396,192,0,0,0,0,0,0,0,0,0,1.71E+09,0, 2024-03-15 14:23:54.420
115,-66235.37138,-49010.93829,-53879.9976,-35075.89967,-44028.48858,-58814.90514,-31647.92438,-54578.3555,0.036,0.888,0.396,192,0,0,0,0,0,0,0,0,0,1.71E+09,0, 2024-03-15 14:23:54.420
116,-66168.29379,-48942.65371,-53802.59351,-34999.12143,-43952.02326,-58753.77312,-31573.53778,-54536.1107,0.036,0.888,0.396,192,0,0,0,0,0,0,0,0,0,1.71E+09,0, 2024-03-15 14:23:54.420
117,-66256.69494,-49023.16469,-53887.75365,-35088.34959,-44027.43805,-58810.92653,-31583.3949,-54609.35737,0.036,0.888,0.396,192,0,0,0,0,0,0,0,0,0,1.71E+09,0, 2024-03-15 14:23:54.420
118,-66360.96583,-49125.78155,-53997.70188,-35198.0296,-44127.95384,-58892.44335,-31647.65616,-54665.75082,0.036,0.888,0.396,192,0,0,0,0,0,0,0,0,0,1.71E+09,0, 2024-03-15 14:23:54.420
119,-66339.77638,-49108.4366,-53980.13341,-35180.97522,-44116.71092,-58889.69408,-31674.16533,-54679.49714,0.036,0.888,0.396,192,0,0,0,0,0,0,0,0,0,1.71E+09,0, 2024-03-15 14:23:54.420
120,-66224.30727,-48997.28137,-53866.07246,-35061.03576,-44012.52943,-58810.4795,-31634.37922,-54608.15038,0.036,0.888,0.396,192,0,0,0,0,0,0,0,0,0,1.71E+09,0, 2024-03-15 14:23:54.420
121,-66160.53774,-48930.31555,-53786.5673,-34982.62584,-43936.51115,-58743.98306,-31554.71761,-54529.58399,0.036,0.888,0.396,192,0,0,0,0,0,0,0,0,0,1.71E+09,0, 2024-03-15 14:23:54.420
122,-66257.3655,-49012.45821,-53874.47672,-35070.80347,-44008.70729,-58790.67585,-31560.26084,-54561.12231,0.038,0.884,0.396,192,1,48,27,160,12,96,0,0,0,1.71E+09,0, 2024-03-15 14:23:54.420
123,-66363.42452,-49113.08576,-53989.72231,-35181.3552,-44113.84989,-58868.7952,-31628.52307,-54636.35828,0.038,0.884,0.396,192,0,0,0,0,0,0,0,0,0,1.71E+09,0, 2024-03-15 14:23:54.420
124,-66345.81135,-49101.61932,-53981.60863,-35169.8217,-44112.6429,-58869.66692,-31667.70568,-54647.71296,0.038,0.884,0.396,192,0,0,0,0,0,0,0,0,0,1.71E+09,0, 2024-03-15 14:23:54.420
125,-66226.43068,-48989.70413,-53856.10358,-35041.25447,-43996.30207,-58777.33186,-31617.25779,-54544.64907,0.038,0.884,0.396,192,0,0,0,0,0,0,0,0,0,1.71E+09,0, 2024-03-15 14:23:54.420
126,-66168.3385,-48932.46131,-53787.14845,-34966.08555,-43931.41495,-58710.47779,-31547.90032,-54480.83484,0.038,0.884,0.396,192,0,0,0,0,0,0,0,0,0,1.71E+09,0, 2024-03-15 14:23:54.420
127,-66261.92525,-49018.85081,-53882.05396,-35055.71604,-44018.09502,-58761.52918,-31564.44062,-54561.99402,0.038,0.884,0.396,192,0,0,0,0,0,0,0,0,0,1.71E+09,0, 2024-03-15 14:23:54.420
128,-66366.9561,-49120.81946,-53999.53473,-35170.91694,-44130.41253,-58846.48816,-31642.67172,-54667.82953,0.038,0.884,0.396,192,0,0,0,0,0,0,0,0,0,1.71E+09,0, 2024-03-15 14:23:54.420
129,-66345.72194,-49105.97791,-53989.6329,-35160.36691,-44121.65065,-58849.77387,-31657.84856,-54673.19395,0.038,0.884,0.396,192,0,0,0,0,0,0,0,0,0,1.71E+09,0, 2024-03-15 14:23:54.420
130,-66234.85729,-48999.56125,-53880.91402,-35045.18837,-44028.93561,-58771.90039,-31636.23442,-54565.25738,0.038,0.884,0.396,192,0,0,0,0,0,0,0,0,0,1.71E+09,0, 2024-03-15 14:23:54.420
131,-66158.57079,-48922.42538,-53787.55078,-34957.79305,-43942.38966,-58696.21738,-31556.30458,-54468.25081,0.038,0.884,0.396,192,0,0,0,0,0,0,0,0,0,1.71E+09,0, 2024-03-15 14:23:54.420
132,-66243.3286,-49002.31051,-53876.39897,-35044.60723,-44018.49735,-58746.55351,-31564.93235,-54515.81532,0.034,0.884,0.396,192,1,16,27,160,12,96,0,0,0,1.71E+09,0, 2024-03-15 14:23:54.420
133,-66347.26421,-49103.11688,-53985.83311,-35159.09286,-44117.67204,-58831.95953,-31631.4735,-54604.35058,0.034,0.884,0.396,192,0,0,0,0,0,0,0,0,0,1.71E+09,0, 2024-03-15 14:23:54.420
134,-66331.86386,-49098.28891,-53980.17812,-35158.73523,-44121.47184,-58844.96824,-31677.80866,-54613.40304,0.034,0.884,0.396,192,0,0,0,0,0,0,0,0,0,1.71E+09,0, 2024-03-15 14:23:54.420
135,-66219.34518,-49001.66231,-53867.77119,-35051.3351,-44020.84428,-58777.91301,-31645.86802,-54530.05338,0.034,0.884,0.396,192,0,0,0,0,0,0,0,0,0,1.71E+09,0, 2024-03-15 14:23:54.420
136,-66171.04306,-48954.92482,-53808.15909,-34993.95817,-43962.48388,-58736.56228,-31584.22191,-54495.54229,0.034,0.884,0.396,192,0,0,0,0,0,0,0,0,0,1.71E+09,0, 2024-03-15 14:23:54.420
137,-66256.1585,-49031.01015,-53887.95482,-35074.37975,-44031.39431,-58783.27743,-31581.5397,-54558.41774,0.034,0.884,0.396,192,0,0,0,0,0,0,0,0,0,1.71E+09,0, 2024-03-15 14:23:54.420
138,-66357.56837,-49127.61439,-53996.11491,-35181.66812,-44132.78182,-58865.42009,-31648.1032,-54650.21636,0.034,0.884,0.396,192,0,0,0,0,0,0,0,0,0,1.71E+09,0, 2024-03-15 14:23:54.420
139,-66343.79969,-49118.49488,-53990.72814,-35174.20264,-44132.44654,-58874.04786,-31682.56959,-54637.49822,0.034,0.884,0.396,192,0,0,0,0,0,0,0,0,0,1.71E+09,0, 2024-03-15 14:23:54.420
140,-66224.1061,-49004.6798,-53865.89365,-35049.88224,-44019.32436,-58793.29101,-31631.5629,-54559.35652,0.034,0.884,0.396,192,0,0,0,0,0,0,0,0,0,1.71E+09,0, 2024-03-15 14:23:54.420
141,-66163.08584,-48941.29025,-53797.4079,-34976.27794,-43954.81723,-58736.15995,-31561.60194,-54495.13996,0.034,0.884,0.396,192,0,0,0,0,0,0,0,0,0,1.71E+09,0, 2024-03-15 14:23:54.420
142,-66253.29748,-49023.27645,-53889.6759,-35063.04742,-44030.6567,-58786.87606,-31573.04604,-54548.76179,0.032,0.886,0.396,192,1,0,27,176,12,96,0,0,0,1.71E+09,0, 2024-03-15 14:23:54.420
