Sample Index, EXG Channel 0, EXG Channel 1, EXG Channel 2, EXG Channel 3, EXG Channel 4, EXG Channel 5, EXG Channel 6, EXG Channel 7, Accel Channel 0, Accel Channel 1, Accel Channel 2, Other, Other, Other, Other, Other, Other, Other, Analog Channel 0, Analog Channel 1, Analog Channel 2, Timestamp, Other, Timestamp (Formatted)
0,-67671.85094,-29219.78733,1930.54252,12349.69644,-7937.707953,-32866.09445,-48960.82568,-41993.96574,0.182,0.824,0.488,192,5,176,25,192,15,64,0,0,0,1.71E+09,0, 2024-03-05 15:26:28.350
1,-67667.60411,-29217.28393,1927.234462,12351.23871,-7944.949918,-32865.93799,-48956.78001,-41999.59838,0.182,0.824,0.488,192,0,0,0,0,0,0,0,0,0,1.71E+09,0, 2024-03-05 15:26:28.350
2,-67653.27664,-29206.75626,1947.57455,12363.55452,-7932.164721,-32857.66785,-48966.2348,-42013.59058,0.182,0.824,0.488,192,0,0,0,0,0,0,0,0,0,1.71E+09,0, 2024-03-05 15:26:28.350
3,-67644.42535,-29201.23538,1969.702777,12376.51853,-7917.233755,-32847.94484,-48967.88883,-42030.08616,0.182,0.824,0.488,192,0,0,0,0,0,0,0,0,0,1.71E+09,0, 2024-03-05 15:26:28.350
4,-67645.83351,-29203.80583,1966.79705,12380.43009,-7920.273593,-32840.63582,-48968.42527,-42020.51962,0.182,0.824,0.488,192,0,0,0,0,0,0,0,0,0,1.71E+09,0, 2024-03-05 15:26:28.350
5,-67645.02885,-29205.3481,1951.93314,12379.98305,-7934.668116,-32839.27236,-48964.31255,-42020.22904,0.182,0.824,0.488,192,0,0,0,0,0,0,0,0,0,1.71E+09,0, 2024-03-05 15:26:28.350
6,-67640.98318,-29202.62119,1950.502628,12383.02289,-7942.111247,-32839.27236,-48953.36019,-42025.21348,0.182,0.824,0.488,192,0,0,0,0,0,0,0,0,0,1.71E+09,0, 2024-03-05 15:26:28.350
7,-67629.24852,-29192.94288,1969.926294,12394.91402,-7930.756561,-32833.63972,-48941.89375,-42019.53614,0.182,0.824,0.488,192,0,0,0,0,0,0,0,0,0,1.71E+09,0, 2024-03-05 15:26:28.350
8,-67621.11248,-29187.91374,1988.612352,12403.65355,-7913.590421,-32827.51534,-48946.90054,-42014.21642,0.182,0.824,0.488,192,0,0,0,0,0,0,0,0,0,1.71E+09,0, 2024-03-05 15:26:28.350
9,-67627.1251,-29197.41323,1983.091472,12399.51848,-7920.362999,-32829.99639,-48945.60414,-42033.93066,0.182,0.824,0.488,192,0,0,0,0,0,0,0,0,0,1.71E+09,0, 2024-03-05 15:26:28.350
10,-67643.82185,-29213.6853,1958.392794,12382.84408,-7947.185093,-32845.66496,-48950.00743,-42062.27268,0.176,0.818,0.482,192,5,128,25,144,15,16,0,0,0,1.71E+09,0, 2024-03-05 15:26:28.350
11,-67646.52641,-29217.61921,1948.580378,12378.26197,-7960.663195,-32852.43754,-48948.12989,-42073.94029,0.176,0.818,0.482,192,0,0,0,0,0,0,0,0,0,1.71E+09,0, 2024-03-05 15:26:28.350
12,-67634.67999,-29207.9856,1965.031262,12387.94027,-7952.66127,-32846.98371,-48942.5643,-42083.19391,0.176,0.818,0.482,192,0,0,0,0,0,0,0,0,0,1.71E+09,0, 2024-03-05 15:26:28.350
13,-67630.12023,-29207.18094,1983.180879,12394.15406,-7940.703087,-32841.12756,-48939.34565,-42059.18813,0.176,0.818,0.482,192,0,0,0,0,0,0,0,0,0,1.71E+09,0, 2024-03-05 15:26:28.350
14,-67638.99388,-29217.03806,1977.995274,12389.21432,-7946.402782,-32841.0158,-48938.0716,-42033.55068,0.176,0.818,0.482,192,0,0,0,0,0,0,0,0,0,1.71E+09,0, 2024-03-05 15:26:28.350
15,-67654.46128,-29227.36457,1959.219808,12377.01027,-7966.631111,-32849.57651,-48941.37966,-42047.1629,0.176,0.818,0.482,192,0,0,0,0,0,0,0,0,0,1.71E+09,0, 2024-03-05 15:26:28.350
16,-67653.09783,-29230.02442,1951.441401,12370.90824,-7979.572771,-32855.7456,-48944.21833,-42064.10552,0.176,0.818,0.482,192,0,0,0,0,0,0,0,0,0,1.71E+09,0, 2024-03-05 15:26:28.350
17,-67637.65277,-29220.70375,1968.495782,12380.43009,-7969.581541,-32847.98954,-48937.73632,-42070.43106,0.176,0.818,0.482,192,0,0,0,0,0,0,0,0,0,1.71E+09,0, 2024-03-05 15:26:28.350
18,-67639.66443,-29220.48023,1976.54241,12378.15021,-7964.865323,-32852.10226,-48941.55847,-42074.7226,0.176,0.818,0.482,192,0,0,0,0,0,0,0,0,0,1.71E+09,0, 2024-03-05 15:26:28.350
19,-67643.1066,-29223.07303,1967.668768,12376.78675,-7971.570846,-32848.25776,-48944.39714,-42039.25038,0.176,0.818,0.482,192,0,0,0,0,0,0,0,0,0,1.71E+09,0, 2024-03-05 15:26:28.350
20,-67654.39423,-29234.2042,1939.706736,12362.5934,-7997.11889,-32858.56192,-48953.69547,-42065.22311,0.174,0.824,0.486,192,5,112,25,192,15,48,0,0,0,1.71E+09,0, 2024-03-05 15:26:28.350
21,-67658.43989,-29237.95929,1925.468674,12352.98215,-8015.492024,-32869.2684,-48960.02101,-42098.95189,0.174,0.824,0.486,192,0,0,0,0,0,0,0,0,0,1.71E+09,0, 2024-03-05 15:26:28.350
22,-67653.94719,-29237.24404,1934.834055,12351.52928,-8010.731102,-32873.40347,-48961.07155,-42101.38823,0.174,0.824,0.486,192,0,0,0,0,0,0,0,0,0,1.71E+09,0, 2024-03-05 15:26:28.350
23,-67646.54877,-29234.62888,1952.737803,12358.52538,-7992.961465,-32865.49096,-48951.81792,-42055.79067,0.174,0.824,0.486,192,0,0,0,0,0,0,0,0,0,1.71E+09,0, 2024-03-05 15:26:28.350
24,-67644.87238,-29234.58418,1956.716413,12361.9899,-7987.552343,-32858.49486,-48945.49238,-42014.39524,0.174,0.824,0.486,192,0,0,0,0,0,0,0,0,0,1.71E+09,0, 2024-03-05 15:26:28.350
25,-67651.71202,-29238.16046,1944.24414,12359.59826,-8000.561059,-32856.30439,-48950.70034,-41980.91233,0.174,0.824,0.486,192,0,0,0,0,0,0,0,0,0,1.71E+09,0, 2024-03-05 15:26:28.350
26,-67650.95206,-29238.29457,1936.890416,12352.75863,-8009.792329,-32869.62603,-48958.85872,-42053.89077,0.174,0.824,0.486,192,0,0,0,0,0,0,0,0,0,1.71E+09,0, 2024-03-05 15:26:28.350
27,-67635.30584,-29231.27612,1950.323814,12353.98797,-8000.06932,-32880.48898,-48959.90926,-42117.88382,0.174,0.824,0.486,192,0,0,0,0,0,0,0,0,0,1.71E+09,0, 2024-03-05 15:26:28.350
28,-67623.05708,-29217.70861,1974.083719,12369.36597,-7976.376471,-32868.93313,-48950.47682,-42103.73516,0.174,0.824,0.486,192,0,0,0,0,0,0,0,0,0,1.71E+09,0, 2024-03-05 15:26:28.350
29,-67628.24269,-29209.43847,1980.431614,12386.37565,-7965.535875,-32848.61539,-48939.30095,-42034.82473,0.174,0.824,0.486,192,0,0,0,0,0,0,0,0,0,1.71E+09,0, 2024-03-05 15:26:28.350
30,-67634.34471,-29213.46178,1967.244085,12387.09091,-7977.739927,-32846.93901,-48940.50794,-42021.36898,0.178,0.826,0.484,192,5,144,25,208,15,32,0,0,0,1.71E+09,0, 2024-03-05 15:26:28.350
31,-67633.33888,-29213.61824,1960.449154,12384.22988,-7987.12766,-32854.62801,-48948.17459,-42068.53116,0.178,0.826,0.484,192,0,0,0,0,0,0,0,0,0,1.71E+09,0, 2024-03-05 15:26:28.350
32,-67622.27477,-29206.77861,1975.022492,12387.58265,-7978.052852,-32859.56774,-48944.19598,-42121.84007,0.178,0.826,0.484,192,0,0,0,0,0,0,0,0,0,1.71E+09,0, 2024-03-05 15:26:28.350
33,-67615.61395,-29206.19747,1995.273172,12394.48934,-7959.433849,-32853.91275,-48940.50794,-42104.2269,0.178,0.826,0.484,192,0,0,0,0,0,0,0,0,0,1.71E+09,0, 2024-03-05 15:26:28.350
34,-67616.1951,-29208.87967,1997.977733,12400.12197,-7954.404706,-32841.23931,-48937.89279,-42044.45833,0.178,0.826,0.484,192,0,0,0,0,0,0,0,0,0,1.71E+09,0, 2024-03-05 15:26:28.350
35,-67626.29809,-29218.26741,1977.503535,12390.22015,-7972.375509,-32843.63095,-48943.92776,-42031.67314,0.178,0.826,0.484,192,0,0,0,0,0,0,0,0,0,1.71E+09,0, 2024-03-05 15:26:28.350
36,-67629.85201,-29220.94962,1963.220771,12380.98888,-7986.47946,-32854.5386,-48949.22512,-42082.38925,0.178,0.826,0.484,192,0,0,0,0,0,0,0,0,0,1.71E+09,0, 2024-03-05 15:26:28.350
37,-67628.13093,-29220.97197,1966.573532,12375.5127,-7984.467803,-32865.51331,-48955.12598,-42130.17727,0.178,0.826,0.484,192,0,0,0,0,0,0,0,0,0,1.71E+09,0, 2024-03-05 15:26:28.350
38,-67621.3807,-29217.03806,1982.577381,12378.50784,-7968.173381,-32861.62411,-48952.37672,-42124.81286,0.178,0.826,0.484,192,0,0,0,0,0,0,0,0,0,1.71E+09,0, 2024-03-05 15:26:28.350
39,-67630.29905,-29219.00501,1980.476317,12379.87129,-7968.531009,-32853.17515,-48951.34854,-42093.05103,0.178,0.826,0.484,192,0,0,0,0,0,0,0,0,0,1.71E+09,0, 2024-03-05 15:26:28.350
40,-67640.08911,-29228.63862,1954.481239,12367.75665,-7991.575657,-32860.48417,-48958.23287,-42089.16182,0.184,0.836,0.48,192,5,192,26,32,15,0,0,0,0,1.71E+09,0, 2024-03-05 15:26:28.350
41,-67637.18338,-29229.93502,1944.981747,12364.71681,-8000.561059,-32861.24413,-48956.02005,-42071.41454,0.184,0.836,0.48,192,0,0,0,0,0,0,0,0,0,1.71E+09,0, 2024-03-05 15:26:28.350
42,-67632.84715,-29223.74358,1959.912713,12372.07054,-7986.837087,-32856.25969,-48945.93942,-42049.91216,0.184,0.836,0.48,192,0,0,0,0,0,0,0,0,0,1.71E+09,0, 2024-03-05 15:26:28.350
43,-67623.57117,-29221.93309,1970.038053,12370.43886,-7976.354119,-32863.23343,-48945.98412,-42066.40775,0.184,0.836,0.48,192,0,0,0,0,0,0,0,0,0,1.71E+09,0, 2024-03-05 15:26:28.350
44,-67642.39134,-29239.45686,1955.084736,12352.66922,-7987.708806,-32881.53951,-48958.99283,-42103.60105,0.184,0.836,0.48,192,0,0,0,0,0,0,0,0,0,1.71E+09,0, 2024-03-05 15:26:28.350
45,-67655.31065,-29253.18083,1930.877797,12340.88985,-8005.567849,-32885.16049,-48963.75376,-42071.86157,0.184,0.836,0.48,192,0,0,0,0,0,0,0,0,0,1.71E+09,0, 2024-03-05 15:26:28.350
46,-67648.2922,-29249.93983,1926.876834,12347.32715,-8007.423044,-32870.54245,-48955.77418,-41999.64309,0.184,0.836,0.48,192,0,0,0,0,0,0,0,0,0,1.71E+09,0, 2024-03-05 15:26:28.350
47,-67643.73245,-29246.22944,1940.712564,12353.49624,-7994.794309,-32867.05558,-48951.03561,-41992.1329,0.184,0.836,0.48,192,0,0,0,0,0,0,0,0,0,1.71E+09,0, 2024-03-05 15:26:28.350
48,-67637.78688,-29243.8378,1956.023509,12354.03268,-7978.768108,-32870.67656,-48951.57205,-42029.9297,0.184,0.836,0.48,192,0,0,0,0,0,0,0,0,0,1.71E+09,0, 2024-03-05 15:26:28.350
49,-67642.39134,-29244.55306,1954.056556,12354.07738,-7978.477535,-32866.34032,-48954.67895,-42042.15611,0.184,0.836,0.48,192,0,0,0,0,0,0,0,0,0,1.71E+09,0, 2024-03-05 15:26:28.350
50,-67649.38744,-29247.19056,1937.091581,12351.37282,-7994.593143,-32864.19456,-48957.20469,-42042.29022,0.18,0.832,0.484,192,5,160,26,0,15,32,0,0,0,1.71E+09,0, 2024-03-05 15:26:28.350
51,-67644.31359,-29240.86502,1933.269433,12354.81499,-8002.483309,-32863.23343,-48959.05989,-42057.42235,0.18,0.832,0.484,192,0,0,0,0,0,0,0,0,0,1.71E+09,0, 2024-03-05 15:26:28.350
52,-67626.85688,-29227.40927,1954.414183,12365.96851,-7991.016864,-32863.00991,-48953.31549,-42101.96937,0.18,0.832,0.484,192,0,0,0,0,0,0,0,0,0,1.71E+09,0, 2024-03-05 15:26:28.350
53,-67611.36712,-29217.23923,1976.989445,12373.38929,-7972.844895,-32867.23439,-48957.67408,-42157.51346,0.18,0.832,0.484,192,0,0,0,0,0,0,0,0,0,1.71E+09,0, 2024-03-05 15:26:28.350
54,-67611.41182,-29218.178,1979.87282,12375.87033,-7965.960558,-32866.76501,-48963.642,-42144.81767,0.18,0.832,0.484,192,0,0,0,0,0,0,0,0,0,1.71E+09,0, 2024-03-05 15:26:28.350
55,-67614.65283,-29226.04581,1964.293654,12372.62933,-7981.495021,-32864.21691,-48946.87819,-42095.19679,0.18,0.832,0.484,192,0,0,0,0,0,0,0,0,0,1.71E+09,0, 2024-03-05 15:26:28.350
56,-67611.43417,-29222.13426,1958.415146,12375.06567,-7987.664102,-32862.40642,-48953.36019,-42089.00536,0.18,0.832,0.484,192,0,0,0,0,0,0,0,0,0,1.71E+09,0, 2024-03-05 15:26:28.350
57,-67605.98035,-29215.80872,1966.685291,12378.26197,-7983.193753,-32865.58036,-48971.55451,-42115.0675,0.18,0.832,0.484,192,0,0,0,0,0,0,0,0,0,1.71E+09,0, 2024-03-05 15:26:28.350
58,-67593.7763,-29205.52691,1986.265419,12388.11909,-7963.434811,-32857.37727,-48964.69253,-42089.36299,0.18,0.832,0.484,192,0,0,0,0,0,0,0,0,0,1.71E+09,0, 2024-03-05 15:26:28.350
59,-67601.15237,-29208.34323,1986.690102,12390.71189,-7958.115096,-32854.09157,-48958.32228,-42069.15701,0.18,0.832,0.484,192,0,0,0,0,0,0,0,0,0,1.71E+09,0, 2024-03-05 15:26:28.350
60,-67616.79859,-29217.28393,1969.903942,12384.92279,-7971.503791,-32854.18097,-48957.22705,-42059.65752,0.174,0.834,0.484,192,5,112,26,16,15,32,0,0,0,1.71E+09,0, 2024-03-05 15:26:28.350
61,-67614.09403,-29218.08859,1957.1858,12379.3125,-7985.831259,-32859.32188,-48957.53997,-42087.77602,0.174,0.834,0.484,192,0,0,0,0,0,0,0,0,0,1.71E+09,0, 2024-03-05 15:26:28.350
62,-67607.56732,-29214.82524,1963.757213,12379.78189,-7982.567904,-32865.08863,-48956.66825,-42117.72735,0.174,0.834,0.484,192,0,0,0,0,0,0,0,0,0,1.71E+09,0, 2024-03-05 15:26:28.350
63,-67604.19221,-29205.57162,1983.918486,12393.01412,-7963.121887,-32851.92345,-48952.28731,-42085.6526,0.174,0.834,0.484,192,0,0,0,0,0,0,0,0,0,1.71E+09,0, 2024-03-05 15:26:28.350
64,-67605.75683,-29202.68824,1982.510326,12399.09379,-7959.880884,-32839.65234,-48953.42725,-42070.60988,0.174,0.834,0.484,192,0,0,0,0,0,0,0,0,0,1.71E+09,0, 2024-03-05 15:26:28.350
65,-67621.26894,-29212.4336,1956.761117,12388.99081,-7984.244285,-32843.67565,-48960.42335,-42084.06563,0.174,0.834,0.484,192,0,0,0,0,0,0,0,0,0,1.71E+09,0, 2024-03-05 15:26:28.350
66,-67624.33113,-29215.6746,1942.97009,12385.12395,-8000.158727,-32843.25097,-48963.48553,-42069.78286,0.174,0.834,0.484,192,0,0,0,0,0,0,0,0,0,1.71E+09,0, 2024-03-05 15:26:28.350
67,-67617.73737,-29209.7961,1951.374346,12386.73328,-7993.341445,-32845.01676,-48961.36212,-42078.09771,0.174,0.834,0.484,192,0,0,0,0,0,0,0,0,0,1.71E+09,0, 2024-03-05 15:26:28.350
68,-67610.78597,-29202.7553,1968.652245,12389.05786,-7977.270541,-32844.48032,-48958.45639,-42077.44951,0.174,0.834,0.484,192,0,0,0,0,0,0,0,0,0,1.71E+09,0, 2024-03-05 15:26:28.350
69,-67614.38461,-29206.51039,1968.741652,12385.48158,-7975.527105,-32844.03328,-48958.29993,-42043.63132,0.174,0.834,0.484,192,0,0,0,0,0,0,0,0,0,1.71E+09,0, 2024-03-05 15:26:28.350
70,-67630.12023,-29224.48119,1940.310233,12362.88397,-7997.901201,-32860.8865,-48963.77611,-42045.97825,0.178,0.836,0.48,192,5,144,26,32,15,0,0,0,0,1.71E+09,0, 2024-03-05 15:26:28.350
71,-67638.54684,-29232.88545,1919.679573,12344.44378,-8018.710675,-32880.55603,-48960.84803,-42086.03258,0.178,0.836,0.48,192,0,0,0,0,0,0,0,0,0,1.71E+09,0, 2024-03-05 15:26:28.350
72,-67627.48273,-29221.19549,1934.610538,12351.55163,-8004.629076,-32878.2538,-48960.84803,-42095.17444,0.178,0.836,0.48,192,0,0,0,0,0,0,0,0,0,1.71E+09,0, 2024-03-05 15:26:28.350
73,-67619.97254,-29211.51718,1956.29173,12363.37571,-7984.087823,-32868.48609,-48959.01519,-42083.1045,0.178,0.836,0.48,192,0,0,0,0,0,0,0,0,0,1.71E+09,0, 2024-03-05 15:26:28.350
74,-67625.11344,-29211.20426,1957.744593,12367.51078,-7981.047986,-32861.82527,-48960.64686,-42062.6303,0.178,0.836,0.48,192,0,0,0,0,0,0,0,0,0,1.71E+09,0, 2024-03-05 15:26:28.350
75,-67628.35445,-29215.56285,1944.668823,12367.7343,-7994.056701,-32858.20429,-48967.28533,-42032.88013,0.178,0.836,0.48,192,0,0,0,0,0,0,0,0,0,1.71E+09,0, 2024-03-05 15:26:28.350
76,-67619.30199,-29208.38794,1945.071154,12376.51853,-7997.610628,-32852.90692,-48965.38543,-42021.5925,0.178,0.836,0.48,192,0,0,0,0,0,0,0,0,0,1.71E+09,0, 2024-03-05 15:26:28.350
77,-67604.48278,-29195.31217,1961.946721,12387.44854,-7986.61357,-32850.40353,-48961.20566,-42047.78874,0.178,0.836,0.48,192,0,0,0,0,0,0,0,0,0,1.71E+09,0, 2024-03-05 15:26:28.350
78,-67595.89971,-29188.7184,1977.280018,12391.04717,-7971.190866,-32857.042,-48963.12791,-42105.16567,0.178,0.836,0.48,192,0,0,0,0,0,0,0,0,0,1.71E+09,0, 2024-03-05 15:26:28.350
79,-67595.69855,-29190.23832,1975.044844,12389.77312,-7973.783669,-32858.89719,-48965.56425,-42117.16856,0.178,0.836,0.48,192,0,0,0,0,0,0,0,0,0,1.71E+09,0, 2024-03-05 15:26:28.350
80,-67604.99687,-29196.74268,1959.420974,12388.74494,-7986.211239,-32853.91275,-48951.03561,-42089.4971,0.182,0.84,0.486,192,5,176,26,64,15,48,0,0,0,1.71E+09,0, 2024-03-05 15:26:28.350
81,-67609.95896,-29197.18971,1954.727108,12389.95193,-7992.916762,-32851.87874,-48962.18913,-42074.20851,0.182,0.84,0.486,192,0,0,0,0,0,0,0,0,0,1.71E+09,0, 2024-03-05 15:26:28.350
82,-67609.06489,-29188.29372,1961.410279,12395.96455,-7988.088785,-32847.00606,-48970.05695,-42064.10552,0.182,0.84,0.486,192,0,0,0,0,0,0,0,0,0,1.71E+09,0, 2024-03-05 15:26:28.350
83,-67606.56149,-29185.34329,1971.312102,12397.03743,-7975.817677,-32851.2976,-48969.11817,-42087.30663,0.182,0.84,0.486,192,0,0,0,0,0,0,0,0,0,1.71E+09,0, 2024-03-05 15:26:28.350
84,-67613.66935,-29189.34425,1968.428727,12395.09283,-7972.487268,-32851.27525,-48968.02294,-42086.16669,0.182,0.84,0.486,192,0,0,0,0,0,0,0,0,0,1.71E+09,0, 2024-03-05 15:26:28.350
85,-67624.44289,-29201.81652,1949.362689,12386.68858,-7987.015901,-32852.68341,-48969.4758,-42061.26685,0.182,0.84,0.486,192,0,0,0,0,0,0,0,0,0,1.71E+09,0, 2024-03-05 15:26:28.350
86,-67626.94629,-29210.82428,1935.616366,12375.84798,-8000.873983,-32864.59689,-48967.95588,-42087.64191,0.182,0.84,0.486,192,0,0,0,0,0,0,0,0,0,1.71E+09,0, 2024-03-05 15:26:28.350
87,-67622.6324,-29217.5298,1936.286919,12368.4272,-8002.706826,-32877.44914,-48964.06668,-42139.4309,0.182,0.84,0.486,192,0,0,0,0,0,0,0,0,0,1.71E+09,0, 2024-03-05 15:26:28.350
88,-67623.52647,-29218.24506,1958.526904,12373.74692,-7982.76907,-32874.76693,-48968.96171,-42135.78756,0.182,0.84,0.486,192,0,0,0,0,0,0,0,0,0,1.71E+09,0, 2024-03-05 15:26:28.350
89,-67627.19215,-29218.58033,1962.997253,12378.08315,-7975.102422,-32868.88842,-48971.86744,-42132.94889,0.182,0.84,0.486,192,0,0,0,0,0,0,0,0,0,1.71E+09,0, 2024-03-05 15:26:28.350
90,-67649.56625,-29234.27126,1935.191683,12365.1862,-7996.537745,-32872.48705,-48976.62836,-42115.69334,0.186,0.84,0.488,192,5,208,26,64,15,64,0,0,0,1.71E+09,0, 2024-03-05 15:26:28.831
91,-67652.092,-29234.96416,1918.561985,12361.58757,-8009.993495,-32870.5201,-48972.13566,-42073.29209,0.186,0.84,0.488,192,0,0,0,0,0,0,0,0,0,1.71E+09,0, 2024-03-05 15:26:28.831
92,-67640.42439,-29223.38596,1932.71064,12371.71291,-8000.203431,-32860.57357,-48970.25811,-42036.50111,0.186,0.84,0.488,192,0,0,0,0,0,0,0,0,0,1.71E+09,0, 2024-03-05 15:26:28.831
93,-67635.68582,-29217.46274,1951.575512,12375.75857,-7982.120869,-32860.01478,-48959.26105,-42044.88302,0.186,0.84,0.488,192,0,0,0,0,0,0,0,0,0,1.71E+09,0, 2024-03-05 15:26:28.831
94,-67640.69261,-29220.23436,1953.229541,12373.5234,-7977.628169,-32858.22664,-48958.41169,-42029.01328,0.186,0.84,0.488,192,0,0,0,0,0,0,0,0,0,1.71E+09,0, 2024-03-05 15:26:28.831
95,-67655.35535,-29234.31596,1930.430762,12356.2902,-7996.761262,-32872.06237,-48987.96069,-42032.36604,0.186,0.84,0.488,192,0,0,0,0,0,0,0,0,0,1.71E+09,0, 2024-03-05 15:26:28.831
96,-67664.29605,-29242.89903,1907.229651,12339.03466,-8017.146053,-32889.22851,-49081.6145,-42070.67693,0.186,0.84,0.488,192,0,0,0,0,0,0,0,0,0,1.71E+09,0, 2024-03-05 15:26:28.831
97,-67655.73533,-29235.32179,1913.532843,12339.5264,-8014.79912,-32893.02831,-49110.24709,-42094.83917,0.186,0.84,0.488,192,0,0,0,0,0,0,0,0,0,1.71E+09,0, 2024-03-05 15:26:28.831
98,-67647.97928,-29229.84561,1930.654279,12344.26497,-7999.398768,-32892.17894,-49103.74273,-42101.90232,0.186,0.84,0.488,192,0,0,0,0,0,0,0,0,0,1.71E+09,0, 2024-03-05 15:26:28.831
99,-67646.45936,-29223.25185,1939.729087,12353.98797,-7987.552343,-32882.47828,-49080.13929,-42071.70511,0.186,0.84,0.488,192,0,0,0,0,0,0,0,0,0,1.71E+09,0, 2024-03-05 15:26:28.831
100,-67644.78298,-29226.89518,1928.62027,12352.80333,-7996.023654,-32883.52881,-49069.03047,-42070.94515,0.188,0.836,0.492,192,5,224,26,32,15,96,0,0,0,1.71E+09,0, 2024-03-05 15:26:28.831
101,-67653.14253,-29229.73385,1918.003192,12350.65756,-8011.178137,-32888.64736,-49085.52606,-42090.01119,0.188,0.836,0.492,192,0,0,0,0,0,0,0,0,0,1.71E+09,0, 2024-03-05 15:26:28.831
102,-67641.65373,-29214.57937,1937.06923,12369.32127,-7999.063492,-32873.91756,-49070.32687,-42066.27364,0.188,0.836,0.492,192,0,0,0,0,0,0,0,0,0,1.71E+09,0, 2024-03-05 15:26:28.831
103,-67629.60614,-29201.95063,1961.522038,12379.60307,-7975.415346,-32872.57646,-49062.83904,-42093.9451,0.188,0.836,0.492,192,0,0,0,0,0,0,0,0,0,1.71E+09,0, 2024-03-05 15:26:28.831
104,-67634.52353,-29205.03517,1964.226599,12377.43495,-7968.151029,-32877.53855,-49059.1957,-42108.13845,0.188,0.836,0.492,192,0,0,0,0,0,0,0,0,0,1.71E+09,0, 2024-03-05 15:26:28.831
105,-67632.9142,-29205.28104,1955.39766,12379.64778,-7977.359948,-32869.40251,-49054.12186,-42064.5749,0.188,0.836,0.492,192,0,0,0,0,0,0,0,0,0,1.71E+09,0, 2024-03-05 15:26:28.831
106,-67629.40498,-29199.6484,1946.81459,12384.4087,-7985.943018,-32859.6795,-49051.14908,-42022.44187,0.188,0.836,0.492,192,0,0,0,0,0,0,0,0,0,1.71E+09,0, 2024-03-05 15:26:28.831
107,-67621.91714,-29193.36756,1957.409317,12389.81782,-7977.248189,-32858.04783,-49044.13063,-42031.53903,0.188,0.836,0.492,192,0,0,0,0,0,0,0,0,0,1.71E+09,0, 2024-03-05 15:26:28.831
108,-67619.74902,-29192.13822,1975.290713,12391.40479,-7960.774953,-32862.29466,-49040.6214,-42053.06376,0.188,0.836,0.492,192,0,0,0,0,0,0,0,0,0,1.71E+09,0, 2024-03-05 15:26:28.831
109,-67622.38653,-29193.70284,1980.744538,12396.14336,-7951.49898,-32855.76795,-49032.10539,-42027.51571,0.188,0.836,0.492,192,0,0,0,0,0,0,0,0,0,1.71E+09,0, 2024-03-05 15:26:28.831
110,-67636.714,-29206.80096,1960.113878,12387.40383,-7967.346366,-32861.15472,-49034.02764,-42033.59539,0.184,0.824,0.486,192,5,192,25,192,15,48,0,0,0,1.71E+09,0, 2024-03-05 15:26:28.831
111,-67642.68191,-29217.39569,1939.080887,12372.67403,-7987.664102,-32878.2091,-49040.46494,-42105.32214,0.184,0.824,0.486,192,0,0,0,0,0,0,0,0,0,1.71E+09,0, 2024-03-05 15:26:28.831
112,-67639.23975,-29213.52884,1946.591073,12377.07733,-7982.299683,-32875.43748,-49037.22394,-42092.40283,0.184,0.824,0.486,192,0,0,0,0,0,0,0,0,0,1.71E+09,0, 2024-03-05 15:26:28.831
113,-67626.02986,-29206.5998,1969.725128,12388.52142,-7960.886712,-32865.13333,-49029.6467,-42065.89366,0.184,0.824,0.486,192,0,0,0,0,0,0,0,0,0,1.71E+09,0, 2024-03-05 15:26:28.831
114,-67627.95211,-29203.35879,1977.995274,12392.63414,-7950.359041,-32857.91372,-49019.32019,-42049.46513,0.184,0.824,0.486,192,0,0,0,0,0,0,0,0,0,1.71E+09,0, 2024-03-05 15:26:28.831
115,-67645.11825,-29214.55702,1958.59396,12382.66526,-7963.54657,-32862.54053,-49022.76236,-42033.1707,0.184,0.824,0.486,192,0,0,0,0,0,0,0,0,0,1.71E+09,0, 2024-03-05 15:26:28.831
116,-67650.48267,-29219.85438,1940.645509,12375.55741,-7980.84682,-32863.50165,-49032.21715,-42003.10761,0.184,0.824,0.486,192,0,0,0,0,0,0,0,0,0,1.71E+09,0, 2024-03-05 15:26:28.831
117,-67644.51476,-29215.16051,1942.232483,12373.61281,-7983.685492,-32864.70865,-49035.45815,-42011.42246,0.184,0.824,0.486,192,0,0,0,0,0,0,0,0,0,1.71E+09,0, 2024-03-05 15:26:28.831
118,-67636.87046,-29208.05266,1959.555085,12380.13952,-7966.966387,-32857.91372,-49031.14427,-42009.25434,0.184,0.824,0.486,192,0,0,0,0,0,0,0,0,0,1.71E+09,0, 2024-03-05 15:26:28.831
119,-67644.55946,-29216.25575,1955.91175,12372.42816,-7965.692337,-32865.93799,-49034.07234,-42034.80238,0.184,0.824,0.486,192,0,0,0,0,0,0,0,0,0,1.71E+09,0, 2024-03-05 15:26:28.831
120,-67656.6294,-29233.93598,1930.810741,12355.73141,-7983.104346,-32877.27033,-49038.18506,-42031.2261,0.18,0.824,0.49,192,5,160,25,192,15,80,0,0,0,1.71E+09,0, 2024-03-05 15:26:28.831
121,-67663.44668,-29236.46173,1921.266546,12352.31159,-7992.067396,-32879.93018,-49031.05486,-42008.82965,0.18,0.824,0.49,192,0,0,0,0,0,0,0,0,0,1.71E+09,0, 2024-03-05 15:26:28.831
122,-67660.65272,-29235.5006,1929.044953,12350.70227,-7986.770032,-32888.22268,-49029.33377,-42021.25722,0.18,0.824,0.49,192,0,0,0,0,0,0,0,0,0,1.71E+09,0, 2024-03-05 15:26:28.831
123,-67656.38353,-29224.32473,1955.554122,12362.36988,-7962.496038,-32882.23241,-49019.27549,-42021.92778,0.18,0.824,0.49,192,0,0,0,0,0,0,0,0,0,1.71E+09,0, 2024-03-05 15:26:28.831
124,-67651.84613,-29225.71054,1960.382099,12361.83344,-7957.153971,-32886.23338,-49010.73712,-42034.48946,0.18,0.824,0.49,192,0,0,0,0,0,0,0,0,0,1.71E+09,0, 2024-03-05 15:26:28.831
125,-67661.7256,-29238.40633,1938.253872,12348.69061,-7973.828372,-32899.15268,-49024.21522,-42050.49331,0.18,0.824,0.49,192,0,0,0,0,0,0,0,0,0,1.71E+09,0, 2024-03-05 15:26:28.831
126,-67670.711,-29238.29457,1925.915709,12345.53901,-7986.390053,-32903.01954,-49032.99946,-42068.91114,0.18,0.824,0.49,192,0,0,0,0,0,0,0,0,0,1.71E+09,0, 2024-03-05 15:26:28.831
127,-67663.78196,-29225.77759,1937.359802,12356.60313,-7978.611646,-32896.55988,-49026.69627,-42074.45438,0.18,0.824,0.49,192,0,0,0,0,0,0,0,0,0,1.71E+09,0, 2024-03-05 15:26:28.831
128,-67654.0813,-29223.90005,1958.303387,12360.35822,-7961.154933,-32898.52684,-49028.64087,-42086.03258,0.18,0.824,0.49,192,0,0,0,0,0,0,0,0,0,1.71E+09,0, 2024-03-05 15:26:28.831
129,-67644.78298,-29224.05651,1967.355843,12362.77221,-7952.594215,-32897.11868,-49028.59617,-42086.79254,0.18,0.824,0.49,192,0,0,0,0,0,0,0,0,0,1.71E+09,0, 2024-03-05 15:26:28.831
130,-67649.02981,-29227.85631,1952.44723,12359.33004,-7963.948901,-32899.24209,-49026.36099,-42099.89066,0.18,0.824,0.49,192,0,0,0,0,0,0,0,0,0,1.71E+09,0, 2024-03-05 15:26:28.831
131,-67649.4992,-29230.51616,1941.56193,12357.18427,-7975.236532,-32900.5832,-49019.18608,-42103.06461,0.18,0.824,0.488,192,5,160,25,192,15,64,0,0,0,1.71E+09,0, 2024-03-05 15:26:28.831
132,-67640.24557,-29221.35195,1957.074041,12372.15994,-7961.937244,-32885.56282,-49020.84011,-42045.33005,0.18,0.824,0.488,192,0,0,0,0,0,0,0,0,0,1.71E+09,0, 2024-03-05 15:26:28.831
133,-67631.99778,-29212.36655,1983.024416,12388.2085,-7936.76918,-32872.12943,-49021.33185,-42027.51571,0.18,0.824,0.488,192,0,0,0,0,0,0,0,0,0,1.71E+09,0, 2024-03-05 15:26:28.831
134,-67647.10756,-29213.23826,1985.751329,12391.04717,-7933.975212,-32870.76597,-49016.8615,-42053.84607,0.18,0.824,0.488,192,0,0,0,0,0,0,0,0,0,1.71E+09,0, 2024-03-05 15:26:28.831
135,-67659.08809,-29227.38692,1961.454983,12378.84311,-7955.388183,-32878.72319,-49021.55537,-42056.77415,0.18,0.824,0.488,192,0,0,0,0,0,0,0,0,0,1.71E+09,0, 2024-03-05 15:26:28.831
136,-67662.99965,-29238.80866,1937.896244,12364.51565,-7975.549457,-32890.70372,-49024.01406,-42068.86644,0.18,0.824,0.488,192,0,0,0,0,0,0,0,0,0,1.71E+09,0, 2024-03-05 15:26:28.831
137,-67657.43407,-29232.2596,1941.897207,12368.58366,-7975.571808,-32886.41219,-49021.53301,-42071.10161,0.18,0.824,0.488,192,0,0,0,0,0,0,0,0,0,1.71E+09,0, 2024-03-05 15:26:28.831
138,-67649.81212,-29222.04485,1962.103184,12380.18422,-7958.048041,-32873.69405,-49027.45623,-42045.55357,0.18,0.824,0.488,192,0,0,0,0,0,0,0,0,0,1.71E+09,0, 2024-03-05 15:26:28.831
139,-67650.10269,-29218.42387,1964.606579,12381.95001,-7950.493151,-32866.87677,-49028.52911,-42027.76158,0.18,0.824,0.488,192,0,0,0,0,0,0,0,0,0,1.71E+09,0, 2024-03-05 15:26:28.831
140,-67663.37963,-29233.31013,1939.371459,12365.36501,-7968.329843,-32875.54924,-49032.61948,-42038.53512,0.18,0.824,0.488,192,0,0,0,0,0,0,0,0,0,1.71E+09,0, 2024-03-05 15:26:28.831
141,-67674.08611,-29245.67065,1918.092599,12349.45057,-7987.194715,-32888.22268,-49032.66418,-42055.63421,0.182,0.828,0.488,192,5,176,25,224,15,64,0,0,0,1.71E+09,0, 2024-03-05 15:26:28.831
142,-67669.3699,-29241.49087,1926.005116,12351.7528,-7979.103384,-32889.47438,-49027.54563,-42070.65458,0.182,0.828,0.488,192,0,0,0,0,0,0,0,0,0,1.71E+09,0, 2024-03-05 15:26:28.831
143,-67663.33493,-29234.87475,1948.200398,12358.1901,-7955.678756,-32888.62501,-49021.60007,-42067.90531,0.182,0.828,0.488,192,0,0,0,0,0,0,0,0,0,1.71E+09,0, 2024-03-05 15:26:28.831
144,-67665.10071,-29233.93598,1955.129439,12361.14053,-7945.061677,-32884.91462,-49016.72739,-42022.91125,0.182,0.828,0.488,192,0,0,0,0,0,0,0,0,0,1.71E+09,0, 2024-03-05 15:26:28.831
145,-67673.16969,-29238.40633,1939.192645,12358.23481,-7954.248244,-32883.14884,-49014.33575,-41976.24081,0.182,0.828,0.488,192,0,0,0,0,0,0,0,0,0,1.71E+09,0, 2024-03-05 15:26:28.831
146,-67677.59534,-29242.42964,1920.864215,12347.77419,-7967.189904,-32893.96708,-49014.38046,-41985.20386,0.182,0.828,0.488,192,0,0,0,0,0,0,0,0,0,1.71E+09,0, 2024-03-05 15:26:28.831
147,-67670.37573,-29238.02635,1927.480331,12344.98022,-7965.111192,-32903.01954,-49015.96743,-42021.5925,0.182,0.828,0.488,192,0,0,0,0,0,0,0,0,0,1.71E+09,0, 2024-03-05 15:26:28.831
148,-67658.03756,-29234.02539,1947.909826,12347.61773,-7952.907139,-32907.55694,-49017.68851,-42038.57983,0.182,0.828,0.488,192,0,0,0,0,0,0,0,0,0,1.71E+09,0, 2024-03-05 15:26:28.831
149,-67654.6848,-29229.19741,1960.315044,12355.28438,-7942.491226,-32903.53363,-49009.99951,-42043.34075,0.182,0.828,0.488,192,0,0,0,0,0,0,0,0,0,1.71E+09,0, 2024-03-05 15:26:28.831
150,-67656.91997,-29230.02442,1950.949663,12355.26202,-7949.107343,-32903.7795,-49025.10929,-42072.10744,0.182,0.828,0.488,192,0,0,0,0,0,0,0,0,0,1.71E+09,0, 2024-03-05 15:26:28.831
151,-67656.80822,-29232.88545,1943.372422,12353.02685,-7960.21616,-32909.27802,-49027.81386,-42091.62052,0.184,0.828,0.478,192,5,192,25,224,14,240,0,0,0,1.71E+09,0, 2024-03-05 15:26:28.831
152,-67648.67218,-29226.64931,1955.151791,12362.6381,-7954.829389,-32903.15365,-49021.77888,-42066.63127,0.184,0.828,0.478,192,0,0,0,0,0,0,0,0,0,1.71E+09,0, 2024-03-05 15:26:28.831
153,-67637.71983,-29214.19939,1981.012759,12379.15604,-7931.225947,-32888.78147,-49018.04614,-42051.34267,0.184,0.828,0.478,192,0,0,0,0,0,0,0,0,0,1.71E+09,0, 2024-03-05 15:26:28.831
154,-67632.44481,-29212.25479,1989.595829,12384.22988,-7924.945107,-32885.00403,-49007.60788,-42053.51079,0.184,0.828,0.478,192,0,0,0,0,0,0,0,0,0,1.71E+09,0, 2024-03-05 15:26:28.831
155,-67636.714,-29218.33446,1975.603637,12383.58168,-7940.032535,-32877.49384,-49004.7245,-42025.30289,0.184,0.828,0.478,192,0,0,0,0,0,0,0,0,0,1.71E+09,0, 2024-03-05 15:26:28.831
156,-67645.90056,-29222.13426,1961.879666,12382.17352,-7956.014032,-32874.3199,-49015.94508,-42025.21348,0.184,0.828,0.478,192,0,0,0,0,0,0,0,0,0,1.71E+09,0, 2024-03-05 15:26:28.831
157,-67638.85977,-29216.30045,1964.852448,12385.7498,-7957.712764,-32873.13525,-49017.37559,-42057.95879,0.184,0.828,0.478,192,0,0,0,0,0,0,0,0,0,1.71E+09,0, 2024-03-05 15:26:28.831
158,-67631.26017,-29211.98657,1979.783413,12392.65649,-7948.012107,-32869.38016,-49014.24635,-42069.64875,0.184,0.828,0.478,192,0,0,0,0,0,0,0,0,0,1.71E+09,0, 2024-03-05 15:26:28.831
159,-67633.5624,-29215.80872,1979.202268,12391.53891,-7947.520369,-32868.28493,-49015.40864,-42070.3193,0.184,0.828,0.478,192,0,0,0,0,0,0,0,0,0,1.71E+09,0, 2024-03-05 15:26:28.831
160,-67649.23097,-29226.82813,1955.576474,12380.58655,-7968.151029,-32875.21397,-49019.54371,-42098.66132,0.184,0.828,0.478,192,0,0,0,0,0,0,0,0,0,1.71E+09,0, 2024-03-05 15:26:28.831
161,-67656.78586,-29231.47729,1936.018698,12373.4787,-7991.620361,-32880.95836,-49020.97422,-42114.15107,0.18,0.83,0.488,192,5,160,25,240,15,64,0,0,0,1.71E+09,0, 2024-03-05 15:26:28.831
162,-67643.73245,-29226.60461,1939.863198,12377.07733,-7996.157765,-32877.76206,-49018.87316,-42108.25021,0.18,0.83,0.488,192,0,0,0,0,0,0,0,0,0,1.71E+09,0, 2024-03-05 15:26:28.831
163,-67635.03762,-29222.55894,1958.482201,12380.65361,-7984.087823,-32881.74068,-49014.44751,-42127.83034,0.18,0.83,0.488,192,0,0,0,0,0,0,0,0,0,1.71E+09,0, 2024-03-05 15:26:28.831
164,-67636.17756,-29221.39665,1971.133288,12388.8567,-7977.13643,-32871.03419,-49008.74782,-42077.13659,0.18,0.83,0.488,192,0,0,0,0,0,0,0,0,0,1.71E+09,0, 2024-03-05 15:26:28.831
165,-67642.61486,-29227.29751,1953.631872,12382.62056,-7993.4085,-32870.72127,-49009.39602,-42070.8781,0.18,0.83,0.488,192,0,0,0,0,0,0,0,0,0,1.71E+09,0, 2024-03-05 15:26:28.831
166,-67649.5439,-29238.87572,1928.933195,12364.47094,-8018.241288,-32888.53561,-49013.57579,-42114.12872,0.18,0.83,0.488,192,0,0,0,0,0,0,0,0,0,1.71E+09,0, 2024-03-05 15:26:28.831
167,-67652.7849,-29242.60846,1927.368573,12356.87135,-8025.237384,-32894.32471,-49020.99657,-42109.47956,0.18,0.83,0.488,192,0,0,0,0,0,0,0,0,0,1.71E+09,0, 2024-03-05 15:26:28.831
168,-67646.70523,-29236.7523,1943.439477,12357.40779,-8015.134396,-32895.12937,-49022.51649,-42110.77596,0.18,0.83,0.488,192,0,0,0,0,0,0,0,0,0,1.71E+09,0, 2024-03-05 15:26:28.831
169,-67644.55946,-29233.13132,1958.146925,12364.18037,-7999.376416,-32885.80869,-49013.88872,-42044.21247,0.18,0.83,0.488,192,0,0,0,0,0,0,0,0,0,1.71E+09,0, 2024-03-05 15:26:28.831
170,-67651.75672,-29244.84363,1947.127515,12359.01712,-8007.221878,-32887.32861,-49010.06657,-42015.8034,0.18,0.83,0.488,192,0,0,0,0,0,0,0,0,0,1.71E+09,0, 2024-03-05 15:26:28.831
171,-67668.92286,-29263.41793,1923.009982,12338.81114,-8031.518225,-32911.33438,-49019.90134,-42078.92472,0.174,0.83,0.488,192,5,112,25,240,15,64,0,0,0,1.71E+09,0, 2024-03-05 15:26:28.831
172,-67662.35145,-29258.34409,1929.38023,12345.11433,-8027.338448,-32909.38978,-49020.48248,-42079.37176,0.174,0.83,0.488,192,0,0,0,0,0,0,0,0,0,1.71E+09,0, 2024-03-05 15:26:28.831
173,-67640.73731,-29243.1449,1957.588131,12362.99573,-8007.668913,-32897.40925,-49008.88193,-42091.397,0.174,0.83,0.488,192,0,0,0,0,0,0,0,0,0,1.71E+09,0, 2024-03-05 15:26:28.831
174,-67639.64208,-29243.72604,1966.081794,12361.14053,-8002.393902,-32908.9651,-49011.83236,-42153.75837,0.174,0.83,0.488,192,0,0,0,0,0,0,0,0,0,1.71E+09,0, 2024-03-05 15:26:28.831
175,-67641.2067,-29246.74353,1959.912713,12365.29796,-8006.305457,-32899.46561,-49009.15015,-42098.61661,0.174,0.83,0.488,192,0,0,0,0,0,0,0,0,0,1.71E+09,0, 2024-03-05 15:26:28.831
176,-67639.44091,-29243.7484,1952.536637,12374.03749,-8014.083864,-32886.14397,-49006.69146,-42047.74404,0.174,0.83,0.488,192,0,0,0,0,0,0,0,0,0,1.71E+09,0, 2024-03-05 15:26:28.831
177,-67631.37193,-29234.04774,1959.488029,12381.2571,-8011.84869,-32884.6017,-49003.00342,-42083.59624,0.174,0.83,0.488,192,0,0,0,0,0,0,0,0,0,1.71E+09,0, 2024-03-05 15:26:28.831
178,-67617.84913,-29220.70375,1984.879611,12395.09283,-7990.770995,-32875.03515,-48990.53115,-42082.00927,0.174,0.83,0.488,192,0,0,0,0,0,0,0,0,0,1.71E+09,0, 2024-03-05 15:26:28.831
179,-67615.27867,-29220.59199,1992.233335,12397.12684,-7983.059643,-32874.74458,-48985.4573,-42094.70506,0.174,0.83,0.488,192,0,0,0,0,0,0,0,0,0,1.71E+09,0, 2024-03-05 15:26:28.831
180,-67629.85201,-29236.46173,1973.770794,12383.93931,-7996.09071,-32885.9428,-49000.99176,-42123.24823,0.174,0.83,0.488,192,0,0,0,0,0,0,0,0,0,1.71E+09,0, 2024-03-05 15:26:28.831
181,-67643.12895,-29245.84946,1952.938968,12376.89851,-8015.939059,-32887.8874,-49016.19095,-42115.13455,0.186,0.834,0.488,192,5,208,26,16,15,64,0,0,0,1.71E+09,0, 2024-03-05 15:26:28.831
182,-67638.52449,-29242.13907,1955.978806,12378.46313,-8015.536727,-32885.31695,-49012.25704,-42102.72933,0.186,0.834,0.488,192,0,0,0,0,0,0,0,0,0,1.71E+09,0, 2024-03-05 15:26:28.831
183,-67629.94142,-29241.2003,1971.02153,12377.39025,-8000.918686,-32891.01665,-49009.1278,-42143.47656,0.186,0.834,0.488,192,0,0,0,0,0,0,0,0,0,1.71E+09,0, 2024-03-05 15:26:28.831
184,-67638.68095,-29248.39756,1974.910733,12372.38346,-7992.626189,-32897.65512,-49008.61371,-42153.19957,0.186,0.834,0.488,192,0,0,0,0,0,0,0,0,0,1.71E+09,0, 2024-03-05 15:26:28.831
185,-67651.93554,-29254.16431,1958.638663,12369.20951,-8007.154823,-32891.26252,-49009.10545,-42066.22893,0.186,0.834,0.488,192,0,0,0,0,0,0,0,0,0,1.71E+09,0, 2024-03-05 15:26:28.831
186,-67653.36605,-29252.59969,1945.249968,12371.37763,-8021.370533,-32881.22659,-49006.49029,-42038.13279,0.186,0.834,0.488,192,0,0,0,0,0,0,0,0,0,1.71E+09,0, 2024-03-05 15:26:28.831
187,-67653.65662,-29254.92427,1939.706736,12362.39223,-8028.76896,-32893.87767,-49009.75365,-42090.65939,0.186,0.834,0.488,192,0,0,0,0,0,0,0,0,0,1.71E+09,0, 2024-03-05 15:26:28.831
188,-67645.6994,-29249.76102,1958.59396,12370.70708,-8011.155785,-32884.69111,-49003.91984,-42065.51368,0.186,0.834,0.488,192,0,0,0,0,0,0,0,0,0,1.71E+09,0, 2024-03-05 15:26:28.831
189,-67641.60903,-29249.5822,1968.160506,12369.7236,-8000.471652,-32883.52881,-48999.36008,-42068.48646,0.186,0.834,0.488,192,0,0,0,0,0,0,0,0,0,1.71E+09,0, 2024-03-05 15:26:28.831
190,-67657.81404,-29263.39558,1947.239273,12353.63035,-8014.03916,-32894.41411,-49000.45532,-42067.48063,0.186,0.834,0.488,192,0,0,0,0,0,0,0,0,0,1.71E+09,0, 2024-03-05 15:26:28.831
191,-67670.04045,-29276.62781,1921.087732,12338.40881,-8035.94387,-32905.09825,-49003.04812,-42078.43299,0.188,0.834,0.486,192,5,224,26,16,15,48,0,0,0,1.71E+09,0, 2024-03-05 15:26:28.831
192,-67668.98992,-29277.07485,1914.493968,12333.71494,-8043.588167,-32912.1167,-49007.1832,-42106.46207,0.188,0.834,0.486,192,0,0,0,0,0,0,0,0,0,1.71E+09,0, 2024-03-05 15:26:28.831
193,-67669.34754,-29277.65599,1924.507549,12331.41271,-8036.994402,-32919.64923,-49014.51457,-42129.93141,0.188,0.834,0.486,192,0,0,0,0,0,0,0,0,0,1.71E+09,0, 2024-03-05 15:26:28.831
194,-67671.60507,-29276.40429,1933.783523,12334.65372,-8028.053704,-32918.39754,-49013.88872,-42130.17727,0.188,0.834,0.486,192,0,0,0,0,0,0,0,0,0,1.71E+09,0, 2024-03-05 15:26:28.831
195,-67674.13082,-29280.2935,1928.508512,12336.88889,-8029.28305,-32910.64148,-49012.30174,-42090.72645,0.188,0.834,0.486,192,0,0,0,0,0,0,0,0,0,1.71E+09,0, 2024-03-05 15:26:28.831
196,-67679.13761,-29280.18174,1916.95266,12338.3194,-8044.52694,-32905.90291,-49010.75947,-42054.15899,0.188,0.834,0.486,192,0,0,0,0,0,0,0,0,0,1.71E+09,0, 2024-03-05 15:26:28.831
197,-67671.29215,-29270.27992,1924.149921,12344.84611,-8044.616347,-32903.35481,-49015.29688,-42064.21728,0.188,0.834,0.486,192,0,0,0,0,0,0,0,0,0,1.71E+09,0, 2024-03-05 15:26:28.831
198,-67659.04339,-29256.73476,1949.206227,12355.57495,-8024.231556,-32900.38203,-49016.95091,-42095.46502,0.188,0.834,0.486,192,0,0,0,0,0,0,0,0,0,1.71E+09,0, 2024-03-05 15:26:28.831
199,-67651.93554,-29247.57054,1964.919503,12363.53217,-8010.217012,-32896.49283,-49015.83332,-42107.3785,0.188,0.834,0.486,192,0,0,0,0,0,0,0,0,0,1.71E+09,0, 2024-03-05 15:26:28.831
200,-67649.20862,-29245.93887,1959.666843,12367.28726,-8014.687361,-32890.27904,-49014.89455,-42070.47577,0.188,0.834,0.486,192,0,0,0,0,0,0,0,0,0,1.71E+09,0, 2024-03-05 15:26:28.831
201,-67649.61095,-29249.96218,1946.903997,12364.91798,-8025.796178,-32893.11771,-49016.99561,-42063.39026,0.182,0.832,0.486,192,5,176,26,0,15,48,0,0,0,1.71E+09,0, 2024-03-05 15:26:28.831
202,-67644.78298,-29245.62594,1950.90496,12367.1755,-8025.527957,-32896.33636,-49013.48639,-42082.90334,0.182,0.832,0.486,192,0,0,0,0,0,0,0,0,0,1.71E+09,0, 2024-03-05 15:26:28.831
203,-67635.90934,-29239.09923,1970.842716,12373.61281,-8010.529937,-32896.98456,-49010.93829,-42112.47469,0.182,0.832,0.486,192,0,0,0,0,0,0,0,0,0,1.71E+09,0, 2024-03-05 15:26:28.831
204,-67630.34375,-29238.47338,1980.856297,12378.10551,-8000.225782,-32897.16338,-49021.26479,-42130.98194,0.182,0.832,0.486,192,0,0,0,0,0,0,0,0,0,1.71E+09,0, 2024-03-05 15:26:28.831
205,-67643.62069,-29244.64247,1969.948646,12376.74205,-8008.585335,-32896.26931,-49019.38725,-42110.21717,0.182,0.832,0.486,192,0,0,0,0,0,0,0,0,0,1.71E+09,0, 2024-03-05 15:26:28.831
206,-67654.48363,-29254.87956,1950.882608,12368.18133,-8026.377323,-32902.23722,-49023.34351,-42105.09862,0.182,0.832,0.486,192,0,0,0,0,0,0,0,0,0,1.71E+09,0, 2024-03-05 15:26:28.831
207,-67646.9511,-29253.09143,1949.63091,12367.84606,-8029.819492,-32905.8135,-49022.78471,-42122.1083,0.182,0.832,0.486,192,0,0,0,0,0,0,0,0,0,1.71E+09,0, 2024-03-05 15:26:28.831
208,-67639.08328,-29246.3859,1965.478297,12372.83049,-8014.575602,-32906.28289,-49018.29201,-42158.40753,0.182,0.832,0.486,192,0,0,0,0,0,0,0,0,0,1.71E+09,0, 2024-03-05 15:26:28.831
209,-67635.93169,-29245.40242,1975.313064,12379.08898,-8001.499832,-32898.43743,-49012.72643,-42128.65736,0.182,0.832,0.486,192,0,0,0,0,0,0,0,0,0,1.71E+09,0, 2024-03-05 15:26:28.831
210,-67638.63625,-29252.55498,1966.350015,12378.0161,-8005.634905,-32889.45203,-49008.34549,-42050.91799,0.182,0.832,0.486,192,0,0,0,0,0,0,0,0,0,1.71E+09,0, 2024-03-05 15:26:29.311
211,-67642.81602,-29259.90871,1947.619253,12370.17064,-8021.661105,-32890.72608,-49007.85375,-42030.06381,0.18,0.832,0.484,192,5,160,26,0,15,32,0,0,0,1.71E+09,0, 2024-03-05 15:26:29.311
212,-67654.05895,-29267.553,1936.912768,12357.76542,-8033.395771,-32906.84168,-49014.15694,-42089.25123,0.18,0.832,0.484,192,0,0,0,0,0,0,0,0,0,1.71E+09,0, 2024-03-05 15:26:29.311
213,-67650.1474,-29262.83679,1949.988538,12360.58174,-8020.230594,-32907.73575,-49017.08502,-42108.60784,0.18,0.832,0.484,192,0,0,0,0,0,0,0,0,0,1.71E+09,0, 2024-03-05 15:26:29.311
214,-67646.05703,-29261.7639,1960.918541,12364.06861,-8012.072207,-32904.49475,-49010.82653,-42117.6603,0.18,0.832,0.484,192,0,0,0,0,0,0,0,0,0,1.71E+09,0, 2024-03-05 15:26:29.311
215,-67654.17071,-29274.66086,1945.629948,12353.22802,-8024.700943,-32911.26733,-49005.9762,-42119.89547,0.18,0.832,0.484,192,0,0,0,0,0,0,0,0,0,1.71E+09,0, 2024-03-05 15:26:29.311
216,-67670.46513,-29275.17495,1929.581395,12350.94814,-8037.955527,-32904.91943,-49008.90428,-42068.15118,0.18,0.832,0.484,192,0,0,0,0,0,0,0,0,0,1.71E+09,0, 2024-03-05 15:26:29.311
217,-67668.40877,-29271.44221,1928.776733,12352.37865,-8038.670783,-32902.10311,-49015.74391,-42043.25134,0.18,0.832,0.484,192,0,0,0,0,0,0,0,0,0,1.71E+09,0, 2024-03-05 15:26:29.311
218,-67664.51957,-29269.72112,1942.254834,12351.55163,-8028.947774,-32906.95344,-49018.96256,-42077.09188,0.18,0.832,0.484,192,0,0,0,0,0,0,0,0,0,1.71E+09,0, 2024-03-05 15:26:29.311
219,-67664.81014,-29271.33045,1950.569683,12350.47875,-8023.628059,-32908.40631,-49015.81097,-42101.14236,0.18,0.832,0.484,192,0,0,0,0,0,0,0,0,0,1.71E+09,0, 2024-03-05 15:26:29.311
220,-67670.44278,-29273.49857,1942.07602,12349.62938,-8032.255832,-32904.60651,-49004.00925,-42088.96066,0.18,0.832,0.484,192,0,0,0,0,0,0,0,0,0,1.71E+09,0, 2024-03-05 15:26:29.311
221,-67671.26979,-29274.61615,1931.235424,12349.11529,-8040.458922,-32900.6726,-49006.53499,-42046.78292,0.18,0.826,0.484,192,5,160,25,208,15,32,0,0,0,1.71E+09,0, 2024-03-05 15:26:29.311
222,-67660.54096,-29271.82219,1933.984689,12348.33298,-8040.950661,-32906.93109,-49018.64964,-42087.68661,0.18,0.826,0.484,192,0,0,0,0,0,0,0,0,0,1.71E+09,0, 2024-03-05 15:26:29.311
223,-67651.17558,-29257.20415,1957.990463,12358.72654,-8020.342352,-32905.52293,-49016.52622,-42103.66811,0.18,0.826,0.484,192,0,0,0,0,0,0,0,0,0,1.71E+09,0, 2024-03-05 15:26:29.311
224,-67643.68774,-29250.00688,1978.755233,12371.02,-7998.616457,-32898.1245,-49001.86348,-42067.0336,0.18,0.826,0.484,192,0,0,0,0,0,0,0,0,0,1.71E+09,0, 2024-03-05 15:26:29.311
225,-67642.88308,-29248.73283,1976.4083,12375.75857,-7998.817623,-32892.9389,-49003.09283,-42047.60993,0.18,0.826,0.484,192,0,0,0,0,0,0,0,0,0,1.71E+09,0, 2024-03-05 15:26:29.311
226,-67647.39813,-29254.6784,1959.018643,12370.26004,-8014.463844,-32899.10798,-49009.57483,-42049.06279,0.18,0.826,0.484,192,0,0,0,0,0,0,0,0,0,1.71E+09,0, 2024-03-05 15:26:29.311
227,-67643.196,-29248.62108,1961.611445,12372.00348,-8017.168405,-32903.10894,-49008.30078,-42079.17059,0.18,0.826,0.484,192,0,0,0,0,0,0,0,0,0,1.71E+09,0, 2024-03-05 15:26:29.311
228,-67635.01527,-29236.93111,1981.996236,12383.157,-8000.717521,-32896.67164,-49005.50681,-42085.07145,0.18,0.826,0.484,192,0,0,0,0,0,0,0,0,0,1.71E+09,0, 2024-03-05 15:26:29.311
229,-67637.58572,-29238.67455,1989.171146,12381.1677,-7993.520259,-32902.48309,-49009.64189,-42126.98098,0.18,0.826,0.484,192,0,0,0,0,0,0,0,0,0,1.71E+09,0, 2024-03-05 15:26:29.311
230,-67642.86073,-29247.86112,1976.073024,12372.45052,-8000.359893,-32908.38395,-49010.15598,-42145.1753,0.18,0.826,0.484,192,0,0,0,0,0,0,0,0,0,1.71E+09,0, 2024-03-05 15:26:29.311
231,-67646.66052,-29251.70562,1960.560913,12369.29892,-8010.842861,-32906.10408,-49008.34549,-42111.35711,0.194,0.828,0.482,192,6,16,25,224,15,16,0,0,0,1.71E+09,0, 2024-03-05 15:26:29.311
232,-67653.81308,-29250.20805,1956.358785,12373.72456,-8020.297649,-32898.10215,-49004.29982,-42078.20947,0.194,0.828,0.482,192,0,0,0,0,0,0,0,0,0,1.71E+09,0, 2024-03-05 15:26:29.311
233,-67648.11339,-29244.35189,1973.748442,12382.84408,-8006.104291,-32890.41315,-49002.39992,-42082.63511,0.194,0.828,0.482,192,0,0,0,0,0,0,0,0,0,1.71E+09,0, 2024-03-05 15:26:29.311
234,-67648.76159,-29245.91652,1984.47728,12382.97819,-7995.375454,-32891.79896,-49005.23859,-42106.01504,0.194,0.828,0.482,192,0,0,0,0,0,0,0,0,0,1.71E+09,0, 2024-03-05 15:26:29.311
235,-67660.22803,-29258.27703,1967.042919,12373.61281,-8007.937134,-32895.91168,-49012.99465,-42101.38823,0.194,0.828,0.482,192,0,0,0,0,0,0,0,0,0,1.71E+09,0, 2024-03-05 15:26:29.311
236,-67659.28926,-29258.96993,1950.077945,12372.60698,-8023.091617,-32890.65902,-49015.63215,-42065.89366,0.194,0.828,0.482,192,0,0,0,0,0,0,0,0,0,1.71E+09,0, 2024-03-05 15:26:29.311
237,-67662.12793,-29259.8193,1937.225692,12366.25908,-8036.927347,-32896.7834,-49025.17635,-42071.95098,0.194,0.828,0.482,192,0,0,0,0,0,0,0,0,0,1.71E+09,0, 2024-03-05 15:26:29.311
238,-67655.19889,-29253.33729,1951.061422,12368.4719,-8024.164501,-32899.10798,-49023.81289,-42091.77698,0.194,0.828,0.482,192,0,0,0,0,0,0,0,0,0,1.71E+09,0, 2024-03-05 15:26:29.311
239,-67652.98607,-29252.68909,1965.120669,12371.24352,-8007.892431,-32898.37037,-49015.58745,-42081.04814,0.194,0.828,0.482,192,0,0,0,0,0,0,0,0,0,1.71E+09,0, 2024-03-05 15:26:29.311
240,-67665.12307,-29262.70268,1954.257721,12363.10749,-8015.223803,-32903.31011,-49010.62536,-42086.32315,0.194,0.828,0.482,192,0,0,0,0,0,0,0,0,0,1.71E+09,0, 2024-03-05 15:26:29.311
241,-67680.27755,-29275.10789,1929.491988,12348.17652,-8038.290803,-32913.92719,-49016.92856,-42113.05584,0.19,0.832,0.486,192,5,240,26,0,15,48,0,0,0,1.71E+09,0, 2024-03-05 15:26:29.311
242,-67691.67694,-29283.19922,1916.505625,12333.75965,-8052.193588,-32929.70752,-49038.40858,-42162.29673,0.19,0.832,0.486,192,0,0,0,0,0,0,0,0,0,1.71E+09,0, 2024-03-05 15:26:29.311
243,-67682.2892,-29276.15843,1932.151846,12336.77713,-8042.448228,-32929.41695,-49031.43484,-42185.87782,0.19,0.832,0.486,192,0,0,0,0,0,0,0,0,0,1.71E+09,0, 2024-03-05 15:26:29.311
244,-67671.85094,-29263.28382,1957.118745,12356.71489,-8014.709713,-32905.54528,-49003.27164,-42097.25316,0.19,0.832,0.486,192,0,0,0,0,0,0,0,0,0,1.71E+09,0, 2024-03-05 15:26:29.311
245,-67678.10943,-29269.49761,1953.430707,12356.91605,-8014.977934,-32898.7727,-49006.95968,-42032.05312,0.19,0.832,0.486,192,0,0,0,0,0,0,0,0,0,1.71E+09,0, 2024-03-05 15:26:29.311
246,-67682.35626,-29276.13607,1936.353974,12349.09294,-8029.171291,-32903.28776,-49020.63895,-42007.68972,0.19,0.832,0.486,192,0,0,0,0,0,0,0,0,0,1.71E+09,0, 2024-03-05 15:26:29.311
247,-67674.42139,-29268.53648,1938.343279,12350.4117,-8030.870024,-32908.67453,-49019.27549,-42036.79169,0.19,0.832,0.486,192,0,0,0,0,0,0,0,0,0,1.71E+09,0, 2024-03-05 15:26:29.311
248,-67665.68186,-29261.69685,1956.537599,12354.32325,-8018.062474,-32915.04477,-49017.37559,-42082.05397,0.19,0.832,0.486,192,0,0,0,0,0,0,0,0,0,1.71E+09,0, 2024-03-05 15:26:29.311
249,-67660.76447,-29260.17693,1974.463698,12361.14053,-7999.287009,-32913.27899,-49008.59135,-42085.33968,0.19,0.832,0.486,192,0,0,0,0,0,0,0,0,0,1.71E+09,0, 2024-03-05 15:26:29.311
250,-67664.56427,-29271.33045,1962.930198,12353.54094,-8008.808852,-32921.41502,-49011.7653,-42098.79543,0.19,0.832,0.486,192,0,0,0,0,0,0,0,0,0,1.71E+09,0, 2024-03-05 15:26:29.311
251,-67673.39321,-29278.10303,1941.718393,12340.57693,-8031.138245,-32939.1176,-49021.77888,-42153.35603,0.188,0.826,0.488,192,5,224,25,208,15,64,0,0,0,1.71E+09,0, 2024-03-05 15:26:29.312
252,-67675.71779,-29271.3528,1944.110029,12348.66826,-8030.355934,-32932.27797,-49009.26191,-42123.91879,0.188,0.826,0.488,192,0,0,0,0,0,0,0,0,0,1.71E+09,0, 2024-03-05 15:26:29.312
253,-67657.16584,-29255.39365,1972.228524,12370.41651,-8002.907992,-32907.64635,-49008.81487,-42060.86452,0.188,0.826,0.488,192,0,0,0,0,0,0,0,0,0,1.71E+09,0, 2024-03-05 15:26:29.312
254,-67649.4992,-29251.81738,1987.718283,12375.62446,-7986.434756,-32901.76784,-49013.79931,-42057.53411,0.188,0.826,0.488,192,0,0,0,0,0,0,0,0,0,1.71E+09,0, 2024-03-05 15:26:29.312
255,-67662.68672,-29255.70658,1972.496745,12367.68959,-7999.711692,-32910.9097,-49003.56221,-42099.89066,0.188,0.826,0.488,192,0,0,0,0,0,0,0,0,0,1.71E+09,0, 2024-03-05 15:26:29.312
0,-67670.82276,-29261.7192,1951.530808,12359.26299,-8022.756341,-32916.96702,-48995.49323,-42102.68463,0.188,0.826,0.488,192,0,0,0,0,0,0,0,0,0,1.71E+09,0, 2024-03-05 15:26:29.312
1,-67663.26787,-29265.74251,1948.893303,12360.53704,-8024.41037,-32912.18375,-49028.10443,-42070.69928,0.188,0.826,0.488,192,0,0,0,0,0,0,0,0,0,1.71E+09,0, 2024-03-05 15:26:29.312
2,-67655.73533,-29247.95052,1965.90298,12371.84702,-8009.233535,-32903.64538,-49012.50291,-42068.44176,0.188,0.826,0.488,192,0,0,0,0,0,0,0,0,0,1.71E+09,0, 2024-03-05 15:26:29.312
3,-67661.43503,-29241.87085,1976.743576,12375.13272,-7999.443471,-32901.67843,-49021.55537,-42063.59143,0.188,0.826,0.488,192,0,0,0,0,0,0,0,0,0,1.71E+09,0, 2024-03-05 15:26:29.312
4,-67676.18718,-29258.70171,1964.763041,12364.60505,-8004.986704,-32908.62982,-49035.4805,-42065.35722,0.188,0.826,0.488,192,0,0,0,0,0,0,0,0,0,1.71E+09,0, 2024-03-05 15:26:29.312
5,-67683.89853,-29271.82219,1944.668823,12350.43405,-8021.862271,-32917.54817,-49033.78177,-42091.32994,0.176,0.826,0.484,192,5,128,25,208,15,32,0,0,0,1.71E+09,0, 2024-03-05 15:26:29.312
6,-67676.29894,-29269.94464,1935.66107,12345.67313,-8032.635812,-32920.74447,-49038.40858,-42104.67393,0.176,0.826,0.484,192,0,0,0,0,0,0,0,0,0,1.71E+09,0, 2024-03-05 15:26:29.312
7,-67673.57202,-29264.93785,1947.641605,12348.53415,-8022.845748,-32923.49373,-49038.5874,-42115.40277,0.176,0.826,0.484,192,0,0,0,0,0,0,0,0,0,1.71E+09,0, 2024-03-05 15:26:29.312
8,-67680.85869,-29273.36446,1952.58134,12340.62163,-8013.279201,-32931.65212,-49036.93337,-42120.2531,0.176,0.826,0.484,192,0,0,0,0,0,0,0,0,0,1.71E+09,0, 2024-03-05 15:26:29.312
9,-67696.9743,-29281.5899,1942.098372,12334.09492,-8018.040123,-32927.60645,-49036.50868,-42076.64485,0.176,0.826,0.484,192,0,0,0,0,0,0,0,0,0,1.71E+09,0, 2024-03-05 15:26:29.312
10,-67702.80811,-29288.92127,1924.216977,12329.17754,-8033.239309,-32921.25856,-49034.65349,-42029.48267,0.176,0.826,0.484,192,0,0,0,0,0,0,0,0,0,1.71E+09,0, 2024-03-05 15:26:29.312
11,-67695.00735,-29282.26045,1917.422046,12331.32331,-8040.347164,-32917.79404,-49033.75942,-42021.27958,0.176,0.826,0.484,192,0,0,0,0,0,0,0,0,0,1.71E+09,0, 2024-03-05 15:26:29.312
12,-67689.10649,-29269.29644,1931.682459,12340.55458,-8028.500739,-32914.91066,-49031.83717,-42040.88206,0.176,0.826,0.484,192,0,0,0,0,0,0,0,0,0,1.71E+09,0, 2024-03-05 15:26:29.312
13,-67688.32418,-29267.21773,1939.662032,12339.6158,-8021.616402,-32925.88537,-49036.64279,-42102.46111,0.176,0.826,0.484,192,0,0,0,0,0,0,0,0,0,1.71E+09,0, 2024-03-05 15:26:29.312
14,-67691.05109,-29266.79304,1933.984689,12338.9676,-8025.639716,-32930.26631,-49040.21907,-42114.82163,0.176,0.826,0.484,192,0,0,0,0,0,0,0,0,0,1.71E+09,0, 2024-03-05 15:26:29.312
15,-67692.30279,-29267.73182,1919.389,12336.66537,-8039.743667,-32932.59089,-49045.53879,-42094.72741,0.176,0.826,0.484,192,0,0,0,0,0,0,0,0,0,1.71E+09,0, 2024-03-05 15:26:29.312
16,-67684.8373,-29265.5637,1915.723314,12337.91707,-8044.370478,-32932.30032,-49049.69621,-42087.17252,0.176,0.83,0.488,192,5,128,25,240,15,64,0,0,0,1.71E+09,0, 2024-03-05 15:26:29.312
17,-67674.64491,-29260.64631,1933.895282,12341.42629,-8028.210166,-32936.97184,-49049.5174,-42120.09664,0.176,0.83,0.488,192,0,0,0,0,0,0,0,0,0,1.71E+09,0, 2024-03-05 15:26:29.312
18,-67670.95687,-29256.623,1957.766945,12354.12208,-8006.797195,-32926.51122,-49039.86145,-42072.26391,0.176,0.83,0.488,192,0,0,0,0,0,0,0,0,0,1.71E+09,0, 2024-03-05 15:26:29.312
19,-67673.2144,-29255.55012,1960.873838,12363.68863,-8003.086806,-32910.48502,-49034.63114,-42017.63624,0.176,0.83,0.488,192,0,0,0,0,0,0,0,0,0,1.71E+09,0, 2024-03-05 15:26:29.312
20,-67677.90826,-29262.79208,1943.35007,12355.77611,-8020.096483,-32917.21289,-49042.05192,-42041.88788,0.176,0.83,0.488,192,0,0,0,0,0,0,0,0,0,1.71E+09,0, 2024-03-05 15:26:29.312
21,-67672.27562,-29259.2158,1939.527922,12356.78194,-8028.366629,-32918.88927,-49046.05288,-42084.11033,0.176,0.83,0.488,192,0,0,0,0,0,0,0,0,0,1.71E+09,0, 2024-03-05 15:26:29.312
22,-67666.28536,-29252.44322,1953.900093,12361.22994,-8017.995419,-32920.00686,-49046.79049,-42119.69431,0.176,0.83,0.488,192,0,0,0,0,0,0,0,0,0,1.71E+09,0, 2024-03-05 15:26:29.312
23,-67656.47294,-29242.27318,1971.870896,12370.70708,-8000.002265,-32911.64731,-49028.03737,-42128.41149,0.176,0.83,0.488,192,0,0,0,0,0,0,0,0,0,1.71E+09,0, 2024-03-05 15:26:29.312
24,-67664.40781,-29246.29649,1969.993349,12371.71291,-7995.353102,-32906.30524,-49021.71183,-42083.21626,0.176,0.83,0.488,192,0,0,0,0,0,0,0,0,0,1.71E+09,0, 2024-03-05 15:26:29.312
25,-67674.75667,-29257.45002,1944.400602,12358.54773,-8017.168405,-32914.48598,-49042.67777,-42059.41165,0.176,0.83,0.488,192,0,0,0,0,0,0,0,0,0,1.71E+09,0, 2024-03-05 15:26:29.312
26,-67673.77319,-29256.22067,1940.109067,12359.86648,-8020.387056,-32912.13905,-49045.80701,-42055.74597,0.178,0.832,0.49,192,5,144,26,0,15,80,0,0,0,1.71E+09,0, 2024-03-05 15:26:29.312
27,-67669.50401,-29250.54333,1960.762079,12369.81301,-8004.092634,-32903.64538,-49036.91102,-42035.6294,0.178,0.832,0.49,192,0,0,0,0,0,0,0,0,0,1.71E+09,0, 2024-03-05 15:26:29.312
28,-67666.263,-29245.62594,1978.33055,12378.19491,-7986.457108,-32894.10119,-49031.05486,-42027.22514,0.178,0.832,0.49,192,0,0,0,0,0,0,0,0,0,1.71E+09,0, 2024-03-05 15:26:29.312
29,-67679.62935,-29256.84652,1967.244085,12366.28143,-7993.27439,-32903.80185,-49036.50868,-42051.92382,0.178,0.832,0.49,192,0,0,0,0,0,0,0,0,0,1.71E+09,0, 2024-03-05 15:26:29.312
30,-67690.93933,-29270.0117,1945.317023,12350.63521,-8010.775806,-32915.11183,-49044.24239,-42058.98697,0.178,0.832,0.49,192,0,0,0,0,0,0,0,0,0,1.71E+09,0, 2024-03-05 15:26:29.312
31,-67690.26878,-29276.62781,1932.218901,12338.83349,-8026.33262,-32927.22648,-49045.82936,-42086.74784,0.178,0.832,0.49,192,0,0,0,0,0,0,0,0,0,1.71E+09,0, 2024-03-05 15:26:29.312
32,-67687.47481,-29271.66572,1941.763096,12339.90638,-8017.146053,-32928.29936,-49045.73995,-42089.96649,0.178,0.832,0.49,192,0,0,0,0,0,0,0,0,0,1.71E+09,0, 2024-03-05 15:26:29.312
33,-67679.83051,-29264.11084,1958.59396,12347.3048,-7996.761262,-32921.795,-49039.07913,-42068.64292,0.178,0.832,0.49,192,0,0,0,0,0,0,0,0,0,1.71E+09,0, 2024-03-05 15:26:29.312
34,-67686.89366,-29272.89507,1949.586207,12339.14642,-8001.745701,-32927.38294,-49038.87797,-42071.07926,0.178,0.832,0.49,192,0,0,0,0,0,0,0,0,0,1.71E+09,0, 2024-03-05 15:26:29.312
35,-67697.73426,-29275.82315,1931.928329,12334.94429,-8016.319038,-32925.39363,-49040.46494,-42035.96467,0.178,0.832,0.49,192,0,0,0,0,0,0,0,0,0,1.71E+09,0, 2024-03-05 15:26:29.312
36,-67705.53502,-29275.17495,1920.841863,12331.07744,-8025.416198,-32929.95339,-49043.97417,-42034.66827,0.18,0.836,0.49,192,5,160,26,32,15,80,0,0,0,1.71E+09,0, 2024-03-05 15:26:29.312
37,-67700.68469,-29269.67642,1933.939986,12335.90541,-8015.715541,-32930.98157,-49026.85273,-42055.5001,0.18,0.836,0.49,192,0,0,0,0,0,0,0,0,0,1.71E+09,0, 2024-03-05 15:26:29.312
38,-67695.99082,-29265.87662,1952.58134,12345.22609,-7997.49887,-32925.72891,-49028.68557,-42058.65169,0.18,0.836,0.49,192,0,0,0,0,0,0,0,0,0,1.71E+09,0, 2024-03-05 15:26:29.312
39,-67704.6186,-29273.58797,1946.948701,12341.94038,-7997.431814,-32928.8358,-49042.36484,-42061.11038,0.18,0.836,0.49,192,0,0,0,0,0,0,0,0,0,1.71E+09,0, 2024-03-05 15:26:29.312
40,-67712.06173,-29280.44996,1928.374401,12338.9676,-8013.301553,-32926.71239,-49043.7283,-42040.03269,0.18,0.836,0.49,192,0,0,0,0,0,0,0,0,0,1.71E+09,0, 2024-03-05 15:26:29.312
41,-67713.93928,-29279.35472,1919.634869,12339.34758,-8025.527957,-32928.74639,-49047.03636,-42052.88494,0.18,0.836,0.49,192,0,0,0,0,0,0,0,0,0,1.71E+09,0, 2024-03-05 15:26:29.312
42,-67702.0258,-29265.36253,1937.471561,12351.01519,-8011.692227,-32923.24786,-49043.46008,-42055.72361,0.18,0.836,0.49,192,0,0,0,0,0,0,0,0,0,1.71E+09,0, 2024-03-05 15:26:29.312
43,-67683.51855,-29246.78823,1966.126498,12371.35528,-7983.819602,-32906.32759,-49030.76429,-42016.4069,0.18,0.836,0.49,192,0,0,0,0,0,0,0,0,0,1.71E+09,0, 2024-03-05 15:26:29.312
44,-67686.26782,-29250.47627,1965.478297,12369.58949,-7982.880829,-32905.83586,-49030.16079,-42005.94628,0.18,0.836,0.49,192,0,0,0,0,0,0,0,0,0,1.71E+09,0, 2024-03-05 15:26:29.312
45,-67694.82853,-29260.55691,1947.239273,12358.41362,-7999.979913,-32914.66479,-49037.55922,-42013.56822,0.18,0.836,0.49,192,0,0,0,0,0,0,0,0,0,1.71E+09,0, 2024-03-05 15:26:29.312
46,-67694.56031,-29257.36061,1946.188741,12359.01712,-8004.696131,-32915.60357,-49037.26864,-42012.83062,0.18,0.834,0.488,192,5,160,26,16,15,64,0,0,0,1.71E+09,0, 2024-03-05 15:26:29.312
47,-67679.78581,-29244.06132,1970.909771,12375.95974,-7985.294817,-32902.59485,-49028.90909,-42001.54299,0.18,0.834,0.488,192,0,0,0,0,0,0,0,0,0,1.71E+09,0, 2024-03-05 15:26:29.312
48,-67671.78388,-29234.69594,1993.172108,12387.87322,-7965.424116,-32896.40342,-49020.706,-42027.42631,0.18,0.834,0.488,192,0,0,0,0,0,0,0,0,0,1.71E+09,0, 2024-03-05 15:26:29.312
49,-67679.56229,-29238.6969,1988.098262,12385.39218,-7973.180172,-32899.21974,-49023.99171,-42038.57983,0.18,0.834,0.488,192,0,0,0,0,0,0,0,0,0,1.71E+09,0, 2024-03-05 15:26:29.312
50,-67687.3854,-29247.30232,1963.354881,12378.41843,-7997.923553,-32899.82324,-49038.38623,-42029.3262,0.18,0.834,0.488,192,0,0,0,0,0,0,0,0,0,1.71E+09,0, 2024-03-05 15:26:29.312
51,-67687.65362,-29251.30329,1951.486105,12374.41747,-8011.893393,-32904.02536,-49043.57183,-42062.45149,0.18,0.834,0.488,192,0,0,0,0,0,0,0,0,0,1.71E+09,0, 2024-03-05 15:26:29.312
52,-67678.69057,-29247.23527,1962.885495,12377.30084,-8004.494966,-32904.38299,-49040.91198,-42083.35037,0.18,0.834,0.488,192,0,0,0,0,0,0,0,0,0,1.71E+09,0, 2024-03-05 15:26:29.312
53,-67670.1075,-29244.10602,1980.38691,12379.75954,-7990.033387,-32904.02536,-49035.50286,-42077.38245,0.18,0.834,0.488,192,0,0,0,0,0,0,0,0,0,1.71E+09,0, 2024-03-05 15:26:29.312
54,-67681.12691,-29259.14875,1972.094413,12368.22604,-8000.158727,-32913.43545,-49037.96155,-42093.85569,0.18,0.834,0.488,192,0,0,0,0,0,0,0,0,0,1.71E+09,0, 2024-03-05 15:26:29.312
55,-67691.20755,-29272.33628,1946.16639,12355.79847,-8023.695114,-32918.79987,-49040.97903,-42084.33385,0.18,0.834,0.488,192,0,0,0,0,0,0,0,0,0,1.71E+09,0, 2024-03-05 15:26:29.312
56,-67700.8188,-29281.85812,1929.246119,12343.54971,-8042.202359,-32929.79693,-49040.59905,-42095.9344,0.18,0.836,0.49,192,5,160,26,32,15,80,0,0,0,1.71E+09,0, 2024-03-05 15:26:29.312
57,-67693.88976,-29277.85716,1939.930253,12344.60024,-8040.213053,-32933.66378,-49035.14523,-42122.95766,0.18,0.836,0.49,192,0,0,0,0,0,0,0,0,0,1.71E+09,0, 2024-03-05 15:26:29.312
58,-67695.87907,-29277.29836,1948.759192,12344.15321,-8034.714524,-32936.5248,-49034.29586,-42136.07814,0.18,0.836,0.49,192,0,0,0,0,0,0,0,0,0,1.71E+09,0, 2024-03-05 15:26:29.312
59,-67704.93152,-29283.82507,1941.04784,12342.07449,-8040.056591,-32934.15552,-49045.69525,-42115.44748,0.18,0.836,0.49,192,0,0,0,0,0,0,0,0,0,1.71E+09,0, 2024-03-05 15:26:29.312
60,-67724.82457,-29294.44215,1918.450227,12335.83836,-8063.078888,-32935.11664,-49040.26378,-42084.22209,0.18,0.836,0.49,192,0,0,0,0,0,0,0,0,0,1.71E+09,0, 2024-03-05 15:26:29.312
61,-67729.16081,-29297.99608,1904.167462,12330.20572,-8082.815478,-32941.59865,-49042.96834,-42105.74682,0.18,0.836,0.49,192,0,0,0,0,0,0,0,0,0,1.71E+09,0, 2024-03-05 15:26:29.312
62,-67715.5486,-29288.47424,1918.293764,12337.80531,-8079.797993,-32938.62586,-49051.59611,-42121.23658,0.18,0.836,0.49,192,0,0,0,0,0,0,0,0,0,1.71E+09,0, 2024-03-05 15:26:29.312
63,-67700.72939,-29278.3489,1941.405468,12349.94231,-8061.335452,-32928.29936,-49053.25014,-42076.17546,0.18,0.836,0.49,192,0,0,0,0,0,0,0,0,0,1.71E+09,0, 2024-03-05 15:26:29.312
64,-67698.65068,-29276.06902,1945.227616,12354.81499,-8055.769867,-32920.78917,-49049.71856,-42042.80431,0.18,0.836,0.49,192,0,0,0,0,0,0,0,0,0,1.71E+09,0, 2024-03-05 15:26:29.312
65,-67699.43299,-29282.90865,1934.029392,12352.89274,-8069.315025,-32919.58218,-49036.95572,-42033.57304,0.18,0.836,0.49,192,0,0,0,0,0,0,0,0,0,1.71E+09,0, 2024-03-05 15:26:29.312
66,-67703.92569,-29289.81534,1925.982764,12343.43795,-8083.038996,-32935.40721,-49036.79926,-42091.84403,0.182,0.828,0.492,192,5,176,25,224,15,96,0,0,0,1.71E+09,0, 2024-03-05 15:26:29.312
67,-67700.28236,-29283.71331,1940.287881,12347.46127,-8075.417051,-32940.95045,-49044.66707,-42133.0383,0.182,0.828,0.492,192,0,0,0,0,0,0,0,0,0,1.71E+09,0, 2024-03-05 15:26:29.312
68,-67690.71581,-29270.86106,1971.222695,12363.84509,-8049.176103,-32928.34406,-49035.83813,-42095.2862,0.182,0.828,0.492,192,0,0,0,0,0,0,0,0,0,1.71E+09,0, 2024-03-05 15:26:29.312
69,-67683.16092,-29264.22259,1982.622085,12376.60794,-8039.073114,-32913.99424,-49028.57381,-42058.65169,0.182,0.828,0.492,192,0,0,0,0,0,0,0,0,0,1.71E+09,0, 2024-03-05 15:26:29.312
70,-67683.11622,-29266.36836,1965.455945,12374.99861,-8053.713507,-32913.68132,-49034.49703,-42084.82559,0.182,0.828,0.492,192,0,0,0,0,0,0,0,0,0,1.71E+09,0, 2024-03-05 15:26:29.312
71,-67681.35043,-29264.58022,1954.615349,12373.16577,-8064.196475,-32914.82126,-49039.59322,-42107.87023,0.182,0.828,0.492,192,0,0,0,0,0,0,0,0,0,1.71E+09,0, 2024-03-05 15:26:29.312
72,-67667.87233,-29248.68813,1974.62016,12390.22015,-8050.383097,-32901.94665,-49029.19966,-42082.09867,0.182,0.828,0.492,192,0,0,0,0,0,0,0,0,0,1.71E+09,0, 2024-03-05 15:26:29.312
73,-67657.45642,-29233.66776,1996.703684,12404.52527,-8032.546405,-32892.42481,-49008.72547,-42077.40481,0.182,0.828,0.492,192,0,0,0,0,0,0,0,0,0,1.71E+09,0, 2024-03-05 15:26:29.312
74,-67659.35632,-29234.45007,1993.865012,12404.2347,-8031.339411,-32890.56961,-49023.45526,-42069.69345,0.182,0.828,0.492,192,0,0,0,0,0,0,0,0,0,1.71E+09,0, 2024-03-05 15:26:29.792
75,-67681.61865,-29252.59969,1962.080832,12381.50297,-8057.714469,-32910.64148,-49041.35901,-42118.55437,0.182,0.828,0.492,192,0,0,0,0,0,0,0,0,0,1.71E+09,0, 2024-03-05 15:26:29.792
76,-67687.69833,-29262.47916,1941.8078,12363.10749,-8078.188667,-32931.71918,-49049.20447,-42194.14797,0.188,0.828,0.484,192,5,224,25,224,15,32,0,0,0,1.71E+09,0, 2024-03-05 15:26:29.792
77,-67675.8519,-29260.55691,1952.558989,12368.98599,-8066.655167,-32923.6949,-49041.42607,-42147.99162,0.188,0.828,0.484,192,0,0,0,0,0,0,0,0,0,1.71E+09,0, 2024-03-05 15:26:29.792
78,-67672.70031,-29251.79502,1982.130347,12388.63318,-8035.0498,-32896.64929,-49022.6506,-42053.06376,0.188,0.828,0.484,192,0,0,0,0,0,0,0,0,0,1.71E+09,0, 2024-03-05 15:26:29.792
79,-67684.0997,-29259.55108,1983.784376,12389.30373,-8030.110065,-32890.07788,-49014.00048,-42030.01911,0.188,0.828,0.484,192,0,0,0,0,0,0,0,0,0,1.71E+09,0, 2024-03-05 15:26:29.792
80,-67699.34359,-29272.58215,1954.794163,12368.20368,-8055.68046,-32903.89125,-49019.87899,-42053.93547,0.188,0.828,0.484,192,0,0,0,0,0,0,0,0,0,1.71E+09,0, 2024-03-05 15:26:29.792
81,-67699.88003,-29268.96116,1945.540541,12368.62837,-8066.252836,-32897.56571,-49034.1394,-42038.9151,0.188,0.828,0.484,192,0,0,0,0,0,0,0,0,0,1.71E+09,0, 2024-03-05 15:26:29.792
82,-67689.70998,-29265.29548,1955.196494,12370.66238,-8062.430687,-32902.08076,-49038.00625,-42090.25706,0.188,0.828,0.484,192,0,0,0,0,0,0,0,0,0,1.71E+09,0, 2024-03-05 15:26:29.792
83,-67685.19493,-29269.29644,1965.210076,12365.1862,-8056.842751,-32916.18471,-49037.91684,-42150.07033,0.188,0.828,0.484,192,0,0,0,0,0,0,0,0,0,1.71E+09,0, 2024-03-05 15:26:29.792
84,-67690.96168,-29269.78818,1967.266436,12367.46608,-8051.523036,-32908.76393,-49036.50868,-42085.18321,0.188,0.828,0.484,192,0,0,0,0,0,0,0,0,0,1.71E+09,0, 2024-03-05 15:26:29.792
85,-67696.25905,-29276.11372,1949.832076,12360.40293,-8065.984615,-32909.21097,-49038.85562,-42070.58752,0.188,0.828,0.484,192,0,0,0,0,0,0,0,0,0,1.71E+09,0, 2024-03-05 15:26:29.792
86,-67695.18616,-29282.81925,1935.705773,12349.56233,-8082.390795,-32919.8951,-49044.95764,-42076.98012,0.184,0.834,0.488,192,5,192,26,16,15,64,0,0,0,1.71E+09,0, 2024-03-05 15:26:29.792
87,-67695.52144,-29273.76679,1948.580378,12354.9044,-8073.785373,-32917.83874,-49038.5874,-42062.49619,0.184,0.834,0.488,192,0,0,0,0,0,0,0,0,0,1.71E+09,0, 2024-03-05 15:26:29.792
88,-67694.02387,-29270.61519,1964.405413,12358.1007,-8058.295615,-32919.40336,-49032.12774,-42081.71869,0.184,0.834,0.488,192,0,0,0,0,0,0,0,0,0,1.71E+09,0, 2024-03-05 15:26:29.792
89,-67697.89072,-29287.28959,1955.576474,12346.83542,-8063.056536,-32932.12151,-49035.01112,-42098.5272,0.184,0.834,0.488,192,0,0,0,0,0,0,0,0,0,1.71E+09,0, 2024-03-05 15:26:29.792
90,-67709.8042,-29301.21473,1934.834055,12335.6819,-8082.904885,-32943.58795,-49037.58157,-42109.83719,0.184,0.834,0.488,192,0,0,0,0,0,0,0,0,0,1.71E+09,0, 2024-03-05 15:26:29.792
91,-67717.18028,-29303.22639,1924.015811,12332.86558,-8092.650246,-32949.9582,-49049.42799,-42131.89836,0.184,0.834,0.488,192,0,0,0,0,0,0,0,0,0,1.71E+09,0, 2024-03-05 15:26:29.792
92,-67702.60694,-29291.71524,1942.120724,12346.38838,-8078.725109,-32942.85034,-49049.40564,-42111.64768,0.184,0.834,0.488,192,0,0,0,0,0,0,0,0,0,1.71E+09,0, 2024-03-05 15:26:29.792
93,-67685.03847,-29276.80663,1968.473431,12365.99086,-8054.696984,-32928.00879,-49037.9839,-42083.88681,0.184,0.834,0.488,192,0,0,0,0,0,0,0,0,0,1.71E+09,0, 2024-03-05 15:26:29.792
94,-67681.08221,-29274.45969,1973.837849,12371.64585,-8047.052687,-32924.09723,-49031.5913,-42086.47961,0.184,0.834,0.488,192,0,0,0,0,0,0,0,0,0,1.71E+09,0, 2024-03-05 15:26:29.792
95,-67693.86741,-29279.71235,1955.77764,12362.5934,-8060.351975,-32931.56271,-49040.82257,-42117.21326,0.184,0.834,0.488,192,0,0,0,0,0,0,0,0,0,1.71E+09,0, 2024-03-05 15:26:29.792
96,-67697.66721,-29281.38873,1934.208206,12349.27176,-8085.810612,-32945.73372,-49052.84781,-42166.58827,0.18,0.83,0.488,192,5,160,25,240,15,64,0,0,0,1.71E+09,0, 2024-03-05 15:26:29.792
97,-67687.16189,-29267.68711,1945.965224,12361.83344,-8078.389833,-32933.86494,-49051.37259,-42151.21027,0.18,0.83,0.488,192,0,0,0,0,0,0,0,0,0,1.71E+09,0, 2024-03-05 15:26:29.792
98,-67672.72266,-29256.84652,1973.122594,12378.21727,-8051.232463,-32916.07295,-49039.41441,-42114.53105,0.18,0.83,0.488,192,0,0,0,0,0,0,0,0,0,1.71E+09,0, 2024-03-05 15:26:29.792
99,-67680.32225,-29263.12736,1973.927256,12374.64099,-8046.650356,-32917.21289,-49037.82744,-42120.32016,0.18,0.83,0.488,192,0,0,0,0,0,0,0,0,0,1.71E+09,0, 2024-03-05 15:26:29.792
100,-67695.29792,-29272.06806,1955.755288,12365.45442,-8061.3131,-32916.81056,-49042.09662,-42104.09279,0.18,0.83,0.488,192,0,0,0,0,0,0,0,0,0,1.71E+09,0, 2024-03-05 15:26:29.792
101,-67701.91404,-29283.51215,1937.20334,12351.86456,-8079.395661,-32928.94756,-49042.72247,-42128.67971,0.18,0.83,0.488,192,0,0,0,0,0,0,0,0,0,1.71E+09,0, 2024-03-05 15:26:29.792
102,-67688.12301,-29273.11859,1952.313119,12363.35336,-8067.035147,-32916.0059,-49036.30752,-42094.90622,0.18,0.83,0.488,192,0,0,0,0,0,0,0,0,0,1.71E+09,0, 2024-03-05 15:26:29.792
103,-67683.69736,-29270.81636,1970.283922,12369.20951,-8050.15958,-32909.12156,-49039.41441,-42073.71677,0.18,0.83,0.488,192,0,0,0,0,0,0,0,0,0,1.71E+09,0, 2024-03-05 15:26:29.792
104,-67687.92184,-29279.93587,1968.20521,12362.88397,-8050.561911,-32913.70367,-49044.08593,-42089.09477,0.18,0.83,0.488,192,0,0,0,0,0,0,0,0,0,1.71E+09,0, 2024-03-05 15:26:29.792
105,-67699.74592,-29287.51311,1955.665881,12362.61575,-8060.351975,-32903.60068,-49035.81578,-42045.9112,0.18,0.83,0.488,192,0,0,0,0,0,0,0,0,0,1.71E+09,0, 2024-03-05 15:26:29.792
106,-67705.80324,-29289.52477,1944.355898,12361.81108,-8070.231446,-32900.33733,-49032.64183,-42029.63913,0.172,0.836,0.484,192,5,96,26,32,15,32,0,0,0,1.71E+09,0, 2024-03-05 15:26:29.792
107,-67698.96361,-29281.61225,1948.73684,12364.6274,-8067.951568,-32901.54432,-49033.31238,-42065.1784,0.172,0.836,0.484,192,0,0,0,0,0,0,0,0,0,1.71E+09,0, 2024-03-05 15:26:29.792
108,-67697.89072,-29280.2935,1956.492896,12361.09583,-8062.922426,-32912.7649,-49037.80508,-42133.86531,0.172,0.836,0.484,192,0,0,0,0,0,0,0,0,0,1.71E+09,0, 2024-03-05 15:26:29.792
109,-67699.34359,-29286.26141,1952.871913,12355.50789,-8063.503571,-32918.12932,-49055.41826,-42150.47266,0.172,0.836,0.484,192,0,0,0,0,0,0,0,0,0,1.71E+09,0, 2024-03-05 15:26:29.792
110,-67707.36786,-29296.9679,1939.773791,12352.66922,-8072.064289,-32909.30038,-49052.02079,-42068.9782,0.172,0.836,0.484,192,0,0,0,0,0,0,0,0,0,1.71E+09,0, 2024-03-05 15:26:29.792
111,-67707.09964,-29293.36927,1935.683422,12358.70419,-8074.545333,-32898.1245,-49041.24725,-41997.29615,0.172,0.836,0.484,192,0,0,0,0,0,0,0,0,0,1.71E+09,0, 2024-03-05 15:26:29.792
112,-67707.41257,-29289.94945,1939.103238,12355.50789,-8075.484106,-32910.01563,-49043.97417,-42060.77511,0.172,0.836,0.484,192,0,0,0,0,0,0,0,0,0,1.71E+09,0, 2024-03-05 15:26:29.792
113,-67702.47283,-29290.21767,1949.697965,12348.31063,-8064.040013,-32926.37711,-49050.59028,-42102.50582,0.172,0.836,0.484,192,0,0,0,0,0,0,0,0,0,1.71E+09,0, 2024-03-05 15:26:29.792
114,-67698.76244,-29289.99416,1952.715451,12350.38934,-8060.731955,-32920.85623,-49047.95278,-42055.00836,0.172,0.836,0.484,192,0,0,0,0,0,0,0,0,0,1.71E+09,0, 2024-03-05 15:26:29.792
115,-67711.90527,-29297.68316,1935.325794,12341.89568,-8076.802859,-32924.83484,-49039.19089,-42055.63421,0.172,0.836,0.484,192,0,0,0,0,0,0,0,0,0,1.71E+09,0, 2024-03-05 15:26:29.792
116,-67722.23177,-29306.04271,1921.154788,12328.84226,-8094.527792,-32939.98932,-49041.02374,-42099.71185,0.174,0.83,0.48,192,5,112,25,240,15,0,0,0,0,1.71E+09,0, 2024-03-05 15:26:29.792
117,-67708.93248,-29293.54808,1935.415201,12337.6265,-8082.748423,-32936.45775,-49045.13646,-42103.84692,0.174,0.83,0.48,192,0,0,0,0,0,0,0,0,0,1.71E+09,0, 2024-03-05 15:26:29.792
118,-67697.68956,-29282.79689,1959.532733,12345.60607,-8062.944777,-32934.93783,-49046.47756,-42101.90232,0.174,0.83,0.48,192,0,0,0,0,0,0,0,0,0,1.71E+09,0, 2024-03-05 15:26:29.792
119,-67701.51171,-29284.49563,1963.243122,12344.15321,-8057.669766,-32938.82703,-49046.25404,-42108.47373,0.174,0.83,0.48,192,0,0,0,0,0,0,0,0,0,1.71E+09,0, 2024-03-05 15:26:29.793
120,-67710.83238,-29289.21184,1945.585244,12337.78296,-8072.131344,-32942.85034,-49048.57863,-42110.37363,0.174,0.83,0.48,192,0,0,0,0,0,0,0,0,0,1.71E+09,0, 2024-03-05 15:26:29.793
121,-67708.37369,-29289.9718,1930.721334,12333.37967,-8088.291656,-32948.95237,-49054.88182,-42125.19284,0.174,0.83,0.48,192,0,0,0,0,0,0,0,0,0,1.71E+09,0, 2024-03-05 15:26:29.793
122,-67694.64972,-29282.03693,1939.684384,12340.33106,-8082.547257,-32945.84548,-49052.69135,-42136.48047,0.174,0.83,0.48,192,0,0,0,0,0,0,0,0,0,1.71E+09,0, 2024-03-05 15:26:29.793
123,-67688.61475,-29271.71043,1962.036128,12354.9491,-8062.475391,-32932.36738,-49041.24725,-42110.59715,0.174,0.83,0.48,192,0,0,0,0,0,0,0,0,0,1.71E+09,0, 2024-03-05 15:26:29.793
124,-67689.55352,-29268.87176,1971.133288,12363.59922,-8052.037126,-32918.88927,-49033.08887,-42082.501,0.174,0.83,0.48,192,0,0,0,0,0,0,0,0,0,1.71E+09,0, 2024-03-05 15:26:29.793
125,-67696.77314,-29276.449,1955.688233,12359.41945,-8060.687251,-32914.64244,-49040.04026,-42058.51758,0.174,0.83,0.48,192,0,0,0,0,0,0,0,0,0,1.71E+09,0, 2024-03-05 15:26:29.793
126,-67705.98205,-29282.8416,1939.840846,12352.93744,-8078.367481,-32917.39171,-49038.65445,-42068.12883,0.186,0.83,0.484,192,5,208,25,240,15,32,0,0,0,1.71E+09,0, 2024-03-05 15:26:29.793
127,-67706.87612,-29282.03693,1942.344241,12350.99284,-8079.529772,-32920.47625,-49050.88086,-42098.32604,0.186,0.83,0.484,192,0,0,0,0,0,0,0,0,0,1.71E+09,0, 2024-03-05 15:26:29.793
128,-67699.12007,-29276.47135,1962.237294,12358.86065,-8061.044879,-32913.36839,-49050.25501,-42093.78863,0.186,0.83,0.484,192,0,0,0,0,0,0,0,0,0,1.71E+09,0, 2024-03-05 15:26:29.793
129,-67696.81784,-29275.77845,1968.138155,12361.78873,-8050.137228,-32908.62982,-49043.25891,-42084.26679,0.186,0.83,0.484,192,0,0,0,0,0,0,0,0,0,1.71E+09,0, 2024-03-05 15:26:29.793
130,-67697.33193,-29278.23714,1956.761117,12360.49233,-8059.793181,-32905.32177,-49038.65445,-42088.75949,0.186,0.83,0.484,192,0,0,0,0,0,0,0,0,0,1.71E+09,0, 2024-03-05 15:26:29.793
131,-67705.8703,-29284.1827,1940.869026,12353.58564,-8075.975844,-32912.2061,-49043.28126,-42108.22786,0.186,0.83,0.484,192,0,0,0,0,0,0,0,0,0,1.71E+09,0, 2024-03-05 15:26:29.793
132,-67694.13563,-29274.05736,1949.943835,12365.25325,-8068.443306,-32901.65608,-49040.6214,-42083.59624,0.186,0.83,0.484,192,0,0,0,0,0,0,0,0,0,1.71E+09,0, 2024-03-05 15:26:29.793
133,-67692.45925,-29263.23912,1973.726091,12375.57976,-8045.823341,-32896.47047,-49039.325,-42088.87125,0.186,0.83,0.484,192,0,0,0,0,0,0,0,0,0,1.71E+09,0, 2024-03-05 15:26:29.793
134,-67702.29402,-29275.33141,1967.936989,12364.11331,-8052.35005,-32909.05451,-49046.18699,-42113.34641,0.186,0.83,0.484,192,0,0,0,0,0,0,0,0,0,1.71E+09,0, 2024-03-05 15:26:29.793
135,-67711.97232,-29289.30125,1947.865122,12351.73045,-8071.639606,-32915.51416,-49054.0548,-42106.26091,0.186,0.83,0.484,192,0,0,0,0,0,0,0,0,0,1.71E+09,0, 2024-03-05 15:26:29.793
136,-67716.77795,-29292.18463,1934.990517,12342.1639,-8085.27417,-32927.38294,-49058.21223,-42111.44651,0.188,0.83,0.488,192,5,224,25,240,15,64,0,0,0,1.71E+09,0, 2024-03-05 15:26:29.793
137,-67708.57486,-29284.56268,1945.026451,12347.23775,-8076.892266,-32925.88537,-49048.82449,-42095.55442,0.188,0.83,0.488,192,0,0,0,0,0,0,0,0,0,1.71E+09,0, 2024-03-05 15:26:29.793
138,-67699.03066,-29279.24297,1962.907846,12350.47875,-8062.877722,-32927.04766,-49038.90032,-42103.24342,0.188,0.83,0.488,192,0,0,0,0,0,0,0,0,0,1.71E+09,0, 2024-03-05 15:26:29.793
139,-67694.02387,-29278.3489,1966.729995,12351.30577,-8054.294652,-32925.66185,-49047.014,-42075.50491,0.188,0.83,0.488,192,0,0,0,0,0,0,0,0,0,1.71E+09,0, 2024-03-05 15:26:29.793
140,-67701.66817,-29282.931,1949.809724,12349.62938,-8066.208132,-32923.38198,-49049.15977,-42048.34754,0.188,0.83,0.488,192,0,0,0,0,0,0,0,0,0,1.71E+09,0, 2024-03-05 15:26:29.793
141,-67708.26193,-29290.35178,1933.627061,12339.70521,-8084.022472,-32938.55881,-49056.17822,-42082.65747,0.188,0.83,0.488,192,0,0,0,0,0,0,0,0,0,1.71E+09,0, 2024-03-05 15:26:29.793
142,-67696.90725,-29283.10982,1941.986614,12343.4156,-8079.105089,-32943.54325,-49064.62718,-42110.0607,0.188,0.83,0.488,192,0,0,0,0,0,0,0,0,0,1.71E+09,0, 2024-03-05 15:26:29.793
143,-67679.58464,-29268.8494,1968.272265,12359.64297,-8051.299519,-32932.09916,-49052.28902,-42094.50389,0.188,0.83,0.488,192,0,0,0,0,0,0,0,0,0,1.71E+09,0, 2024-03-05 15:26:29.793
144,-67676.20953,-29268.42472,1978.799937,12362.74986,-8037.329678,-32930.57924,-49036.62044,-42088.06659,0.188,0.83,0.488,192,0,0,0,0,0,0,0,0,0,1.71E+09,0, 2024-03-05 15:26:29.793
145,-67691.20755,-29277.61129,1963.936027,12354.88204,-8049.354917,-32935.98836,-49039.21324,-42074.40967,0.188,0.83,0.488,192,0,0,0,0,0,0,0,0,0,1.71E+09,0, 2024-03-05 15:26:29.793
146,-67696.57197,-29277.25366,1952.782506,12358.45832,-8062.140115,-32927.51705,-49045.33762,-42042.7149,0.188,0.83,0.488,192,0,0,0,0,0,0,0,0,0,1.71E+09,0, 2024-03-05 15:26:29.793
147,-67691.11814,-29271.53161,1957.990463,12363.2416,-8059.346147,-32926.95825,-49049.15977,-42076.51074,0.182,0.834,0.484,192,5,176,26,16,15,32,0,0,0,1.71E+09,0, 2024-03-05 15:26:29.793
148,-67683.47385,-29262.43445,1978.598771,12373.4787,-8039.631908,-32922.19733,-49044.64472,-42096.09086,0.182,0.834,0.484,192,0,0,0,0,0,0,0,0,0,1.71E+09,0, 2024-03-05 15:26:29.793
149,-67683.80912,-29261.65214,1981.906829,12376.96557,-8032.702867,-32918.62105,-49042.05192,-42101.20941,0.182,0.834,0.484,192,0,0,0,0,0,0,0,0,0,1.71E+09,0, 2024-03-05 15:26:29.793
150,-67696.14729,-29271.50926,1961.723204,12366.41554,-8048.729068,-32922.53261,-49042.81188,-42102.2823,0.182,0.834,0.484,192,0,0,0,0,0,0,0,0,0,1.71E+09,0, 2024-03-05 15:26:29.793
151,-67705.82559,-29276.73957,1941.092544,12354.88204,-8069.337376,-32932.65795,-49048.2657,-42143.25305,0.182,0.834,0.484,192,0,0,0,0,0,0,0,0,0,1.71E+09,0, 2024-03-05 15:26:29.793
152,-67704.6633,-29279.60059,1939.103238,12349.53998,-8074.098298,-32939.13995,-49054.59125,-42156.17235,0.182,0.834,0.484,192,0,0,0,0,0,0,0,0,0,1.71E+09,0, 2024-03-05 15:26:29.793
153,-67692.79452,-29272.31393,1961.097355,12360.42528,-8054.182894,-32927.5841,-49051.43965,-42104.11514,0.182,0.834,0.484,192,0,0,0,0,0,0,0,0,0,1.71E+09,0, 2024-03-05 15:26:29.793
154,-67694.04622,-29270.16816,1968.85341,12367.35432,-8047.544425,-32916.6094,-49047.10341,-42073.04622,0.182,0.834,0.484,192,0,0,0,0,0,0,0,0,0,1.71E+09,0, 2024-03-05 15:26:29.793
155,-67709.55833,-29280.9864,1946.836942,12354.77029,-8066.811629,-32924.81249,-49053.76423,-42090.21236,0.182,0.834,0.484,192,0,0,0,0,0,0,0,0,0,1.71E+09,0, 2024-03-05 15:26:29.793
156,-67712.06173,-29289.25655,1931.973032,12344.33202,-8076.355824,-32934.08846,-49064.53777,-42092.22401,0.182,0.834,0.484,192,0,0,0,0,0,0,0,0,0,1.71E+09,0, 2024-03-05 15:26:29.793
157,-67708.95484,-29284.62974,1938.790314,12346.83542,-8070.365557,-32935.09429,-49058.21223,-42097.74489,0.172,0.834,0.48,192,5,96,26,16,15,0,0,0,0,1.71E+09,0, 2024-03-05 15:26:29.793
158,-67697.53309,-29275.77845,1962.05848,12361.16288,-8049.421972,-32919.33631,-49049.91973,-42057.95879,0.172,0.834,0.48,192,0,0,0,0,0,0,0,0,0,1.71E+09,0, 2024-03-05 15:26:29.793
159,-67692.19103,-29268.02239,1976.162431,12372.89755,-8032.859329,-32901.70078,-49042.32014,-41994.45748,0.172,0.834,0.48,192,0,0,0,0,0,0,0,0,0,1.71E+09,0, 2024-03-05 15:26:29.793
160,-67704.37273,-29276.80663,1958.035166,12363.91215,-8045.04103,-32907.86986,-49043.66124,-42005.00751,0.172,0.834,0.48,192,0,0,0,0,0,0,0,0,0,1.71E+09,0, 2024-03-05 15:26:29.793
161,-67712.97815,-29283.26628,1936.733954,12354.12208,-8064.509399,-32916.78821,-49046.9693,-42022.59833,0.172,0.834,0.48,192,0,0,0,0,0,0,0,0,0,1.71E+09,0, 2024-03-05 15:26:29.793
162,-67705.46796,-29280.15939,1940.109067,12350.32229,-8066.878684,-32926.13124,-49052.24431,-42053.48844,0.172,0.834,0.48,192,0,0,0,0,0,0,0,0,0,1.71E+09,0, 2024-03-05 15:26:29.793
163,-67698.20365,-29272.29157,1961.902018,12356.849,-8047.611481,-32925.95243,-49048.57863,-42054.42721,0.172,0.834,0.48,192,0,0,0,0,0,0,0,0,0,1.71E+09,0, 2024-03-05 15:26:29.793
164,-67695.49909,-29274.28088,1967.936989,12352.4457,-8038.961356,-32937.06124,-49048.28805,-42092.26872,0.172,0.834,0.48,192,0,0,0,0,0,0,0,0,0,1.71E+09,0, 2024-03-05 15:26:29.793
165,-67703.74688,-29280.71818,1952.693099,12343.03562,-8050.316042,-32946.58309,-49046.52227,-42093.27454,0.172,0.834,0.48,192,0,0,0,0,0,0,0,0,0,1.71E+09,0, 2024-03-05 15:26:29.793
166,-67708.37369,-29283.62391,1940.980785,12339.14642,-8059.636719,-32951.65693,-49043.14715,-42090.27941,0.172,0.834,0.48,192,0,0,0,0,0,0,0,0,0,1.71E+09,0, 2024-03-05 15:26:29.793
167,-67711.12296,-29285.61321,1939.192645,12333.37967,-8062.944777,-32965.85029,-49046.34345,-42146.60581,0.174,0.834,0.484,192,5,112,26,16,15,32,0,0,0,1.71E+09,0, 2024-03-05 15:26:29.793
168,-67705.78089,-29280.60642,1952.916617,12336.12893,-8050.919539,-32968.75602,-49048.75744,-42179.35111,0.174,0.834,0.484,192,0,0,0,0,0,0,0,0,0,1.71E+09,0, 2024-03-05 15:26:29.793
169,-67702.18226,-29274.34793,1962.281997,12346.6566,-8038.067286,-32953.89211,-49044.04122,-42114.91103,0.174,0.834,0.484,192,0,0,0,0,0,0,0,0,0,1.71E+09,0, 2024-03-05 15:26:29.793
170,-67708.95484,-29276.62781,1951.195532,12349.83055,-8042.314117,-32940.68223,-49054.34538,-42047.87815,0.174,0.834,0.484,192,0,0,0,0,0,0,0,0,0,1.71E+09,0, 2024-03-05 15:26:29.793
171,-67710.22889,-29275.59963,1936.421029,12348.6012,-8056.351013,-32936.74832,-49057.34051,-42052.75083,0.174,0.834,0.484,192,0,0,0,0,0,0,0,0,0,1.71E+09,0, 2024-03-05 15:26:29.793
172,-67699.76827,-29261.00394,1948.98271,12361.47581,-8049.354917,-32923.0914,-49048.93625,-42048.81693,0.174,0.834,0.484,192,0,0,0,0,0,0,0,0,0,1.71E+09,0, 2024-03-05 15:26:29.793
173,-67690.71581,-29256.98063,1963.332529,12362.07931,-8037.933175,-32926.86885,-49050.45617,-42089.56416,0.174,0.834,0.484,192,0,0,0,0,0,0,0,0,0,1.71E+09,0, 2024-03-05 15:26:29.793
174,-67696.46021,-29262.61327,1961.119707,12355.19497,-8033.574585,-32934.02141,-49056.46879,-42125.46106,0.174,0.834,0.484,192,0,0,0,0,0,0,0,0,0,1.71E+09,0, 2024-03-05 15:26:29.793
175,-67707.43492,-29270.97282,1941.651337,12347.57302,-8046.873873,-32936.72597,-49061.20736,-42128.97028,0.174,0.834,0.484,192,0,0,0,0,0,0,0,0,0,1.71E+09,0, 2024-03-05 15:26:29.793
176,-67712.73228,-29278.3936,1921.713581,12340.93456,-8067.415126,-32940.03402,-49066.75059,-42133.35122,0.174,0.834,0.484,192,0,0,0,0,0,0,0,0,0,1.71E+09,0, 2024-03-05 15:26:29.793
177,-67705.19974,-29276.13607,1927.100352,12344.19791,-8067.839809,-32941.64335,-49064.2919,-42168.77874,0.182,0.838,0.482,192,5,176,26,48,15,16,0,0,0,1.71E+09,0, 2024-03-05 15:26:29.793
178,-67702.40577,-29271.33045,1943.35007,12350.14347,-8052.238292,-32938.44705,-49063.28607,-42168.73403,0.182,0.838,0.482,192,0,0,0,0,0,0,0,0,0,1.71E+09,0, 2024-03-05 15:26:29.793
179,-67709.78185,-29265.72016,1953.363651,12358.59243,-8041.755324,-32925.5948,-49061.6991,-42095.44266,0.182,0.838,0.482,192,0,0,0,0,0,0,0,0,0,1.71E+09,0, 2024-03-05 15:26:29.793
180,-67716.64384,-29266.27895,1944.288843,12364.15802,-8048.036164,-32908.9204,-49060.96149,-42004.82869,0.182,0.838,0.482,192,0,0,0,0,0,0,0,0,0,1.71E+09,0, 2024-03-05 15:26:29.793
181,-67717.67202,-29268.62589,1928.016773,12360.76055,-8064.107068,-32908.29455,-49054.03245,-41990.03184,0.182,0.838,0.482,192,0,0,0,0,0,0,0,0,0,1.71E+09,0, 2024-03-05 15:26:29.793
182,-67708.21723,-29262.94854,1933.202378,12360.20176,-8058.943815,-32915.38005,-49045.35997,-42036.00938,0.182,0.838,0.482,192,0,0,0,0,0,0,0,0,0,1.71E+09,0, 2024-03-05 15:26:29.793
183,-67697.75661,-29258.70171,1949.966186,12360.38057,-8041.665917,-32923.56079,-49054.68065,-42089.51945,0.182,0.838,0.482,192,0,0,0,0,0,0,0,0,0,1.71E+09,0, 2024-03-05 15:26:29.793
184,-67700.55058,-29266.48012,1957.498724,12356.17845,-8034.53571,-32929.64046,-49063.10726,-42095.12974,0.182,0.838,0.482,192,0,0,0,0,0,0,0,0,0,1.71E+09,0, 2024-03-05 15:26:29.793
185,-67715.99564,-29272.0457,1951.888436,12355.12791,-8039.855425,-32921.81735,-49066.34826,-42039.20568,0.182,0.838,0.482,192,0,0,0,0,0,0,0,0,0,1.71E+09,0, 2024-03-05 15:26:29.793
186,-67714.74394,-29273.81149,1943.059497,12356.96076,-8046.695059,-32915.91649,-49057.78754,-42014.10467,0.182,0.838,0.482,192,0,0,0,0,0,0,0,0,0,1.71E+09,0, 2024-03-05 15:26:29.793
187,-67702.40577,-29264.98255,1950.703794,12364.20272,-8041.017716,-32913.16723,-49052.26666,-42018.03857,0.186,0.838,0.484,192,5,208,26,48,15,32,0,0,0,1.71E+09,0, 2024-03-05 15:26:29.793
188,-67696.9296,-29256.95828,1971.200344,12368.29309,-8023.024562,-32921.68324,-49052.89251,-42076.68955,0.186,0.838,0.484,192,0,0,0,0,0,0,0,0,0,1.71E+09,0, 2024-03-05 15:26:29.793
189,-67706.27263,-29265.34018,1971.937951,12355.77611,-8017.727198,-32944.63848,-49062.28025,-42142.89542,0.186,0.838,0.484,192,0,0,0,0,0,0,0,0,0,1.71E+09,0, 2024-03-05 15:26:29.793
190,-67708.17252,-29269.05057,1959.845657,12357.89953,-8026.533786,-32939.87756,-49057.92165,-42090.94996,0.186,0.838,0.484,192,0,0,0,0,0,0,0,0,0,1.71E+09,0, 2024-03-05 15:26:29.793
191,-67707.36786,-29268.76,1945.249968,12360.22411,-8038.670783,-32936.07777,-49058.21223,-42061.71388,0.186,0.838,0.484,192,0,0,0,0,0,0,0,0,0,1.71E+09,0, 2024-03-05 15:26:29.793
192,-67705.13269,-29263.39558,1943.685346,12355.95493,-8043.185835,-32949.10883,-49062.79434,-42133.46298,0.186,0.838,0.484,192,0,0,0,0,0,0,0,0,0,1.71E+09,0, 2024-03-05 15:26:29.793
193,-67690.38054,-29250.52097,1963.511343,12366.86258,-8026.869062,-32942.49272,-49055.12769,-42128.70206,0.186,0.838,0.484,192,0,0,0,0,0,0,0,0,0,1.71E+09,0, 2024-03-05 15:26:29.793
194,-67691.60988,-29249.64926,1972.832021,12371.42234,-8014.150919,-32934.96018,-49048.37746,-42081.78575,0.186,0.838,0.484,192,0,0,0,0,0,0,0,0,0,1.71E+09,0, 2024-03-05 15:26:30.274
195,-67706.20557,-29263.0603,1957.275207,12359.3971,-8021.97403,-32941.621,-49062.05673,-42064.39609,0.186,0.838,0.484,192,0,0,0,0,0,0,0,0,0,1.71E+09,0, 2024-03-05 15:26:30.274
196,-67708.73132,-29269.34114,1937.784486,12349.58468,-8039.542501,-32946.29251,-49063.95663,-42063.9267,0.186,0.838,0.484,192,0,0,0,0,0,0,0,0,0,1.71E+09,0, 2024-03-05 15:26:30.274
197,-67709.1113,-29266.48012,1937.560968,12346.94717,-8040.369515,-32950.0029,-49060.04507,-42100.11418,0.186,0.834,0.484,192,5,208,26,16,15,32,0,0,0,1.71E+09,0, 2024-03-05 15:26:30.274
198,-67704.46214,-29261.42863,1954.078907,12351.90926,-8024.589184,-32950.18172,-49059.1957,-42118.97905,0.186,0.834,0.484,192,0,0,0,0,0,0,0,0,0,1.71E+09,0, 2024-03-05 15:26:30.274
199,-67706.69731,-29263.37323,1960.382099,12356.46902,-8014.687361,-32944.72789,-49061.98967,-42087.68661,0.186,0.834,0.484,192,0,0,0,0,0,0,0,0,0,1.71E+09,0, 2024-03-05 15:26:30.274
200,-67717.71672,-29270.41403,1947.552198,12354.79264,-8024.812701,-32939.0282,-49064.44836,-42046.69351,0.186,0.834,0.484,192,0,0,0,0,0,0,0,0,0,1.71E+09,0, 2024-03-05 15:26:30.274
201,-67719.41545,-29267.91063,1937.180988,12357.67601,-8034.580414,-32930.691,-49062.9508,-42032.72367,0.186,0.834,0.484,192,0,0,0,0,0,0,0,0,0,1.71E+09,0, 2024-03-05 15:26:30.274
202,-67706.42909,-29260.48985,1940.556102,12362.74986,-8033.820454,-32926.2877,-49060.58151,-42062.49619,0.186,0.834,0.484,192,0,0,0,0,0,0,0,0,0,1.71E+09,0, 2024-03-05 15:26:30.274
203,-67699.00831,-29256.39948,1955.241198,12364.78387,-8019.448283,-32927.96408,-49060.13448,-42084.17738,0.186,0.834,0.484,192,0,0,0,0,0,0,0,0,0,1.71E+09,0, 2024-03-05 15:26:30.274
204,-67705.37856,-29257.56177,1968.7193,12368.51661,-8005.724312,-32921.68324,-49048.98096,-42064.88783,0.186,0.834,0.484,192,0,0,0,0,0,0,0,0,0,1.71E+09,0, 2024-03-05 15:26:30.274
205,-67718.65549,-29269.47525,1954.838867,12361.14053,-8019.895318,-32921.48208,-49046.87989,-42034.26594,0.186,0.834,0.484,192,0,0,0,0,0,0,0,0,0,1.71E+09,0, 2024-03-05 15:26:30.274
206,-67732.75944,-29280.27115,1932.777695,12345.85194,-8040.794199,-32933.9767,-49070.32687,-42045.19594,0.186,0.834,0.484,192,0,0,0,0,0,0,0,0,0,1.71E+09,0, 2024-03-05 15:26:30.274
207,-67729.07141,-29277.81245,1932.509474,12341.38159,-8043.11878,-32940.81634,-49072.40559,-42062.31738,0.18,0.83,0.484,192,5,160,25,240,15,32,0,0,0,1.71E+09,0, 2024-03-05 15:26:30.274
208,-67726.14333,-29273.52092,1949.832076,12344.33202,-8030.266527,-32941.39748,-49059.37452,-42068.12883,0.18,0.83,0.484,192,0,0,0,0,0,0,0,0,0,1.71E+09,0, 2024-03-05 15:26:30.274
209,-67737.3192,-29282.59573,1955.174143,12336.91124,-8023.203376,-32954.4062,-49060.08977,-42106.8197,0.18,0.83,0.484,192,0,0,0,0,0,0,0,0,0,1.71E+09,0, 2024-03-05 15:26:30.274
210,-67747.601,-29297.88432,1941.003137,12325.37774,-8038.089638,-32962.56458,-49072.96438,-42101.45528,0.18,0.83,0.484,192,0,0,0,0,0,0,0,0,0,1.71E+09,0, 2024-03-05 15:26:30.274
211,-67750.01499,-29303.38285,1927.122703,12323.72371,-8053.579396,-32959.79297,-49077.45708,-42064.32904,0.18,0.83,0.484,192,0,0,0,0,0,0,0,0,0,1.71E+09,0, 2024-03-05 15:26:30.274
212,-67743.08595,-29300.92416,1930.967203,12325.84713,-8053.24412,-32961.93873,-49077.0324,-42082.4563,0.18,0.83,0.484,192,0,0,0,0,0,0,0,0,0,1.71E+09,0, 2024-03-05 15:26:30.274
213,-67728.73613,-29295.82796,1946.81459,12329.26695,-8044.415181,-32970.56651,-49068.60579,-42155.25593,0.18,0.83,0.484,192,0,0,0,0,0,0,0,0,0,1.71E+09,0, 2024-03-05 15:26:30.274
214,-67722.12001,-29291.15645,1955.643529,12338.14059,-8035.474483,-32967.43726,-49063.35313,-42166.83414,0.18,0.83,0.484,192,0,0,0,0,0,0,0,0,0,1.71E+09,0, 2024-03-05 15:26:30.274
215,-67715.01216,-29287.9825,1955.129439,12352.71392,-8034.938042,-32946.60544,-49055.70883,-42087.26193,0.18,0.83,0.484,192,0,0,0,0,0,0,0,0,0,1.71E+09,0, 2024-03-05 15:26:30.274
216,-67719.46016,-29286.6861,1943.417125,12358.57008,-8051.590091,-32939.18466,-49056.71466,-42093.25219,0.18,0.83,0.484,192,0,0,0,0,0,0,0,0,0,1.71E+09,0, 2024-03-05 15:26:30.274
217,-67716.8003,-29275.77845,1947.663957,12370.50591,-8054.473466,-32931.74153,-49053.63012,-42090.86056,0.176,0.836,0.48,192,5,128,26,32,15,0,0,0,0,1.71E+09,0, 2024-03-05 15:26:30.274
218,-67704.41743,-29263.28382,1974.240181,12388.00733,-8039.430742,-32918.33048,-49047.014,-42054.36016,0.176,0.836,0.48,192,0,0,0,0,0,0,0,0,0,1.71E+09,0, 2024-03-05 15:26:30.274
219,-67695.18616,-29260.10987,1988.545297,12395.24929,-8030.579451,-32913.72602,-49046.23169,-42070.85575,0.176,0.836,0.48,192,0,0,0,0,0,0,0,0,0,1.71E+09,0, 2024-03-05 15:26:30.274
220,-67706.54085,-29270.14581,1971.356806,12387.42618,-8047.075039,-32920.25273,-49047.014,-42107.91494,0.176,0.836,0.48,192,0,0,0,0,0,0,0,0,0,1.71E+09,0, 2024-03-05 15:26:30.274
221,-67720.13071,-29281.52284,1947.485143,12373.21047,-8073.450097,-32933.46261,-49052.1549,-42133.6418,0.176,0.836,0.48,192,0,0,0,0,0,0,0,0,0,1.71E+09,0, 2024-03-05 15:26:30.274
222,-67712.46406,-29277.43247,1947.663957,12372.49522,-8081.29556,-32936.99419,-49059.01689,-42140.36967,0.176,0.836,0.48,192,0,0,0,0,0,0,0,0,0,1.71E+09,0, 2024-03-05 15:26:30.274
223,-67699.00831,-29270.92812,1965.478297,12379.40191,-8070.343205,-32933.3732,-49056.78172,-42141.979,0.176,0.836,0.48,192,0,0,0,0,0,0,0,0,0,1.71E+09,0, 2024-03-05 15:26:30.274
224,-67696.25905,-29269.65407,1978.71053,12388.09674,-8061.044879,-32922.57731,-49054.41243,-42120.67778,0.176,0.836,0.48,192,0,0,0,0,0,0,0,0,0,1.71E+09,0, 2024-03-05 15:26:30.274
225,-67708.03841,-29282.931,1965.299483,12382.12882,-8075.394699,-32923.60549,-49046.23169,-42122.55533,0.176,0.836,0.48,192,0,0,0,0,0,0,0,0,0,1.71E+09,0, 2024-03-05 15:26:30.274
226,-67721.62828,-29295.58209,1944.601768,12369.58949,-8098.618162,-32930.31102,-49044.53296,-42108.45138,0.176,0.836,0.48,192,0,0,0,0,0,0,0,0,0,1.71E+09,0, 2024-03-05 15:26:30.274
227,-67709.156,-29294.62097,1945.741707,12367.42137,-8099.579287,-32932.99323,-49068.20346,-42116.05097,0.168,0.826,0.476,192,5,64,25,208,14,224,0,0,0,1.71E+09,0, 2024-03-05 15:26:30.274
228,-67706.47379,-29290.28473,1963.511343,12369.34362,-8081.988464,-32934.04376,-49067.59996,-42136.59223,0.168,0.826,0.476,192,0,0,0,0,0,0,0,0,0,1.71E+09,0, 2024-03-05 15:26:30.274
229,-67707.39021,-29282.2828,1981.817422,12380.09481,-8062.497742,-32918.21872,-49053.04897,-42067.30182,0.168,0.826,0.476,192,0,0,0,0,0,0,0,0,0,1.71E+09,0, 2024-03-05 15:26:30.274
230,-67718.0967,-29297.19142,1968.138155,12366.63906,-8077.160487,-32925.10306,-49055.3065,-42049.57688,0.168,0.826,0.476,192,0,0,0,0,0,0,0,0,0,1.71E+09,0, 2024-03-05 15:26:30.274
231,-67738.05681,-29313.30702,1942.165427,12345.33785,-8104.094339,-32945.77842,-49064.44836,-42097.54373,0.168,0.826,0.476,192,0,0,0,0,0,0,0,0,0,1.71E+09,0, 2024-03-05 15:26:30.274
232,-67731.93243,-29311.0495,1938.544445,12342.65564,-8108.497633,-32954.4509,-49062.43671,-42136.9275,0.168,0.826,0.476,192,0,0,0,0,0,0,0,0,0,1.71E+09,0, 2024-03-05 15:26:30.274
233,-67722.79057,-29308.68021,1956.582303,12344.28732,-8093.589019,-32960.24,-49060.87209,-42154.87595,0.168,0.826,0.476,192,0,0,0,0,0,0,0,0,0,1.71E+09,0, 2024-03-05 15:26:30.274
234,-67722.83527,-29304.6122,1968.920466,12349.76349,-8079.663882,-32955.99317,-49058.83808,-42124.18701,0.168,0.826,0.476,192,0,0,0,0,0,0,0,0,0,1.71E+09,0, 2024-03-05 15:26:30.274
235,-67726.88094,-29305.3498,1961.656149,12351.23871,-8082.726071,-32949.84644,-49056.11116,-42085.94317,0.168,0.826,0.476,192,0,0,0,0,0,0,0,0,0,1.71E+09,0, 2024-03-05 15:26:30.274
236,-67730.34546,-29310.93774,1944.132381,12345.22609,-8099.445176,-32955.72495,-49059.68744,-42099.22011,0.168,0.826,0.476,192,0,0,0,0,0,0,0,0,0,1.71E+09,0, 2024-03-05 15:26:30.274
237,-67722.85762,-29307.87555,1944.400602,12347.28245,-8103.379083,-32960.1953,-49064.40366,-42139.74382,0.174,0.826,0.478,192,5,112,25,208,14,240,0,0,0,1.71E+09,0, 2024-03-05 15:26:30.274
238,-67710.07242,-29296.23029,1963.779564,12359.82178,-8088.381063,-32955.72495,-49059.30746,-42156.93231,0.174,0.826,0.478,192,0,0,0,0,0,0,0,0,0,1.71E+09,0, 2024-03-05 15:26:30.274
239,-67703.07633,-29290.10591,1978.285847,12370.03653,-8074.143001,-32947.63362,-49053.54071,-42134.3347,0.174,0.826,0.478,192,0,0,0,0,0,0,0,0,0,1.71E+09,0, 2024-03-05 15:26:30.274
240,-67715.36979,-29294.17393,1971.177992,12372.89755,-8079.50742,-32938.40235,-49053.67482,-42087.19487,0.174,0.826,0.478,192,0,0,0,0,0,0,0,0,0,1.71E+09,0, 2024-03-05 15:26:30.274
241,-67731.35128,-29308.59081,1947.395736,12359.59826,-8104.787243,-32950.13701,-49065.11892,-42107.64672,0.174,0.826,0.478,192,0,0,0,0,0,0,0,0,0,1.71E+09,0, 2024-03-05 15:26:30.274
242,-67728.08793,-29306.66856,1940.444343,12357.22898,-8113.057388,-32958.80949,-49065.34243,-42160.32978,0.174,0.826,0.478,192,0,0,0,0,0,0,0,0,0,1.71E+09,0, 2024-03-05 15:26:30.274
243,-67719.21429,-29300.38772,1954.615349,12361.36405,-8102.663827,-32962.65399,-49060.26859,-42211.09059,0.174,0.826,0.478,192,0,0,0,0,0,0,0,0,0,1.71E+09,0, 2024-03-05 15:26:30.274
244,-67712.93345,-29299.42659,1964.785393,12363.68863,-8093.499612,-32956.73078,-49064.80599,-42202.95455,0.174,0.826,0.478,192,0,0,0,0,0,0,0,0,0,1.71E+09,0, 2024-03-05 15:26:30.274
245,-67722.00825,-29306.69091,1954.280073,12359.08417,-8097.83585,-32951.99221,-49078.75348,-42170.2316,0.174,0.826,0.478,192,0,0,0,0,0,0,0,0,0,1.71E+09,0, 2024-03-05 15:26:30.274
246,-67733.11707,-29314.60343,1937.270395,12352.91509,-8111.224545,-32950.87462,-49067.95759,-42115.26866,0.174,0.826,0.478,192,0,0,0,0,0,0,0,0,0,1.71E+09,0, 2024-03-05 15:26:30.274
247,-67728.3785,-29308.36729,1943.104201,12359.12888,-8110.352827,-32938.62586,-49058.5028,-42077.49421,0.18,0.832,0.48,192,5,160,26,0,15,0,0,0,0,1.71E+09,0, 2024-03-05 15:26:30.274
248,-67720.77891,-29304.85807,1958.661015,12362.95102,-8098.305237,-32935.29545,-49056.31233,-42088.53598,0.18,0.832,0.48,192,0,0,0,0,0,0,0,0,0,1.71E+09,0, 2024-03-05 15:26:30.274
249,-67719.01312,-29304.54514,1965.210076,12360.60409,-8089.386891,-32940.50341,-49046.34345,-42110.95477,0.18,0.832,0.48,192,0,0,0,0,0,0,0,0,0,1.71E+09,0, 2024-03-05 15:26:30.274
250,-67726.72447,-29310.71422,1952.58134,12355.21732,-8096.740615,-32943.07386,-49059.151,-42114.35224,0.18,0.832,0.48,192,0,0,0,0,0,0,0,0,0,1.71E+09,0, 2024-03-05 15:26:30.274
251,-67740.5155,-29326.65102,1924.753419,12337.6265,-8125.574365,-32957.87072,-49080.89925,-42146.91873,0.18,0.832,0.48,192,0,0,0,0,0,0,0,0,0,1.71E+09,0, 2024-03-05 15:26:30.274
252,-67736.42513,-29324.92993,1922.428837,12335.90541,-8129.8659,-32961.93873,-49082.46387,-42165.20246,0.18,0.832,0.48,192,0,0,0,0,0,0,0,0,0,1.71E+09,0, 2024-03-05 15:26:30.274
253,-67724.71282,-29317.59856,1939.952605,12340.264,-8112.833871,-32965.78323,-49082.50857,-42207.26844,0.18,0.832,0.48,192,0,0,0,0,0,0,0,0,0,1.71E+09,0, 2024-03-05 15:26:30.274
254,-67720.77891,-29311.6977,1961.857314,12350.81403,-8088.917504,-32952.26043,-49076.94299,-42124.34347,0.18,0.832,0.48,192,0,0,0,0,0,0,0,0,0,1.71E+09,0, 2024-03-05 15:26:30.274
255,-67731.97713,-29320.16901,1956.962282,12342.67799,-8089.386891,-32952.66276,-49069.61162,-42061.04333,0.18,0.832,0.48,192,0,0,0,0,0,0,0,0,0,1.71E+09,0, 2024-03-05 15:26:30.274
0,-67740.26963,-29330.60727,1936.063401,12323.76842,-8106.485976,-32970.58886,-49069.72338,-42090.32411,0.18,0.832,0.48,192,0,0,0,0,0,0,0,0,0,1.71E+09,0, 2024-03-05 15:26:30.274
1,-67734.88286,-29327.14275,1936.577491,12322.76259,-8108.028246,-32970.58886,-49066.39297,-42084.28914,0.176,0.832,0.478,192,5,128,26,0,14,240,0,0,0,1.71E+09,0, 2024-03-05 15:26:30.274
2,-67728.15498,-29323.63353,1947.19457,12322.13674,-8097.411167,-32978.32256,-49071.71268,-42109.43486,0.176,0.832,0.478,192,0,0,0,0,0,0,0,0,0,1.71E+09,0, 2024-03-05 15:26:30.274
3,-67725.69629,-29323.8347,1953.654224,12321.77911,-8090.370368,-32982.27882,-49068.20346,-42112.34058,0.176,0.832,0.478,192,0,0,0,0,0,0,0,0,0,1.71E+09,0, 2024-03-05 15:26:30.274
4,-67721.06948,-29323.70059,1946.948701,12319.43218,-8091.577362,-32984.89398,-49077.77,-42121.61656,0.176,0.832,0.478,192,0,0,0,0,0,0,0,0,0,1.71E+09,0, 2024-03-05 15:26:30.274
5,-67728.64672,-29329.24382,1928.083828,12310.46913,-8109.212888,-32994.86285,-49092.09747,-42151.79141,0.176,0.832,0.478,192,0,0,0,0,0,0,0,0,0,1.71E+09,0, 2024-03-05 15:26:30.274
6,-67726.07627,-29319.81138,1930.564872,12316.05706,-8111.492766,-32992.91825,-49090.28698,-42158.98867,0.176,0.832,0.478,192,0,0,0,0,0,0,0,0,0,1.71E+09,0, 2024-03-05 15:26:30.274
7,-67713.29107,-29309.57428,1951.03907,12326.36122,-8095.488917,-32992.98531,-49085.97309,-42189.52116,0.176,0.832,0.478,192,0,0,0,0,0,0,0,0,0,1.71E+09,0, 2024-03-05 15:26:30.274
8,-67707.77019,-29302.60054,1968.987521,12341.5604,-8076.512286,-32980.58009,-49077.23356,-42154.49597,0.176,0.832,0.478,192,0,0,0,0,0,0,0,0,0,1.71E+09,0, 2024-03-05 15:26:30.274
9,-67716.88971,-29308.09907,1963.444288,12345.47196,-8078.523943,-32973.40518,-49073.72434,-42114.84398,0.176,0.832,0.478,192,0,0,0,0,0,0,0,0,0,1.71E+09,0, 2024-03-05 15:26:30.274
10,-67724.82457,-29313.46349,1945.361727,12340.42047,-8093.611371,-32976.13209,-49075.66894,-42108.51843,0.176,0.832,0.478,192,0,0,0,0,0,0,0,0,0,1.71E+09,0, 2024-03-05 15:26:30.274
11,-67722.90232,-29312.54707,1938.522093,12338.52057,-8102.663827,-32980.31187,-49079.20052,-42131.38427,0.178,0.834,0.48,192,5,144,26,16,15,0,0,0,0,1.71E+09,0, 2024-03-05 15:26:30.274
12,-67719.79543,-29306.98148,1950.52498,12342.83445,-8094.550144,-32982.43528,-49080.49692,-42176.78066,0.178,0.834,0.48,192,0,0,0,0,0,0,0,0,0,1.71E+09,0, 2024-03-05 15:26:30.274
13,-67718.61079,-29302.60054,1957.856352,12342.87916,-8086.436461,-32985.54218,-49084.67669,-42214.44335,0.178,0.834,0.48,192,0,0,0,0,0,0,0,0,0,1.71E+09,0, 2024-03-05 15:26:30.274
14,-67716.57678,-29304.03105,1952.246064,12344.57789,-8089.610408,-32973.22637,-49085.52606,-42153.17722,0.178,0.834,0.48,192,0,0,0,0,0,0,0,0,0,1.71E+09,0, 2024-03-05 15:26:30.274
15,-67724.15402,-29308.99314,1931.727163,12339.68286,-8108.922316,-32969.35951,-49090.82342,-42128.34443,0.178,0.834,0.48,192,0,0,0,0,0,0,0,0,0,1.71E+09,0, 2024-03-05 15:26:30.274
16,-67721.22594,-29304.79101,1927.703849,12339.74991,-8114.286734,-32968.28663,-49085.30254,-42130.73607,0.178,0.834,0.48,192,0,0,0,0,0,0,0,0,0,1.71E+09,0, 2024-03-05 15:26:30.274
17,-67712.50876,-29298.48782,1940.354936,12341.87333,-8103.244973,-32970.87943,-49082.79915,-42163.12375,0.178,0.834,0.48,192,0,0,0,0,0,0,0,0,0,1.71E+09,0, 2024-03-05 15:26:30.274
18,-67715.81682,-29297.83962,1947.462791,12342.23096,-8096.114766,-32969.67244,-49091.40457,-42174.18786,0.178,0.834,0.48,192,0,0,0,0,0,0,0,0,0,1.71E+09,0, 2024-03-05 15:26:30.274
19,-67719.66132,-29298.57723,1942.388945,12346.43308,-8100.920391,-32957.20016,-49092.27629,-42137.46394,0.178,0.834,0.48,192,0,0,0,0,0,0,0,0,0,1.71E+09,0, 2024-03-05 15:26:30.274
20,-67730.90425,-29308.52375,1922.026506,12338.90055,-8120.25465,-32957.31192,-49093.37152,-42110.26187,0.178,0.834,0.48,192,0,0,0,0,0,0,0,0,0,1.71E+09,0, 2024-03-05 15:26:30.274
21,-67728.22204,-29305.68508,1923.255852,12342.65564,-8118.690028,-32949.53352,-49089.54937,-42062.56325,0.178,0.834,0.48,192,0,0,0,0,0,0,0,0,0,1.71E+09,0, 2024-03-05 15:26:30.274
22,-67720.95772,-29299.58305,1939.550273,12341.38159,-8108.296467,-32957.24487,-49092.52216,-42112.5194,0.174,0.832,0.476,192,5,112,26,0,14,224,0,0,0,1.71E+09,0, 2024-03-05 15:26:30.274
23,-67715.03451,-29299.80657,1954.414183,12337.6712,-8093.723129,-32964.688,-49089.12469,-42122.64474,0.174,0.832,0.476,192,0,0,0,0,0,0,0,0,0,1.71E+09,0, 2024-03-05 15:26:30.274
24,-67727.66325,-29311.45183,1948.848599,12328.0823,-8090.415071,-32971.25941,-49082.44152,-42086.63608,0.174,0.832,0.476,192,0,0,0,0,0,0,0,0,0,1.71E+09,0, 2024-03-05 15:26:30.274
25,-67733.07237,-29319.09613,1932.576529,12318.4934,-8102.485013,-32980.37892,-49078.55232,-42103.26577,0.174,0.832,0.476,192,0,0,0,0,0,0,0,0,0,1.71E+09,0, 2024-03-05 15:26:30.274
26,-67731.01601,-29317.08447,1927.636794,12313.3078,-8111.582173,-32991.5995,-49065.85652,-42138.35801,0.174,0.832,0.476,192,0,0,0,0,0,0,0,0,0,1.71E+09,0, 2024-03-05 15:26:30.274
27,-67718.16375,-29303.71813,1946.054631,12320.10273,-8095.958304,-32993.83467,-49059.30746,-42152.28315,0.174,0.832,0.476,192,0,0,0,0,0,0,0,0,0,1.71E+09,0, 2024-03-05 15:26:30.274
28,-67716.2415,-29299.94068,1960.985596,12325.95889,-8081.742594,-32992.87355,-49063.84487,-42144.84002,0.174,0.832,0.476,192,0,0,0,0,0,0,0,0,0,1.71E+09,0, 2024-03-05 15:26:30.274
29,-67723.52817,-29303.94164,1961.589093,12329.57987,-8079.395661,-32986.41389,-49065.61066,-42113.07819,0.174,0.832,0.476,192,0,0,0,0,0,0,0,0,0,1.71E+09,0, 2024-03-05 15:26:30.274
30,-67732.91591,-29309.99897,1947.932178,12324.93071,-8092.806708,-32987.33032,-49073.2773,-42107.11027,0.174,0.832,0.476,192,0,0,0,0,0,0,0,0,0,1.71E+09,0, 2024-03-05 15:26:30.274
31,-67732.62533,-29307.29441,1942.053669,12323.76842,-8099.534583,-32989.0961,-49074.75252,-42127.31625,0.174,0.832,0.476,192,0,0,0,0,0,0,0,0,0,1.71E+09,0, 2024-03-05 15:26:30.274
32,-67724.4893,-29304.85807,1952.558989,12324.70719,-8089.051615,-32994.95226,-49071.44446,-42170.54453,0.184,0.832,0.478,192,5,192,26,0,14,240,0,0,0,1.71E+09,0, 2024-03-05 15:26:30.274
33,-67722.5447,-29304.56749,1961.611445,12325.08717,-8076.624045,-32997.67917,-49069.36575,-42189.47645,0.184,0.832,0.478,192,0,0,0,0,0,0,0,0,0,1.71E+09,0, 2024-03-05 15:26:30.274
34,-67734.92756,-29313.88817,1948.647433,12317.95696,-8085.095356,-33001.59073,-49072.15972,-42205.59206,0.184,0.832,0.478,192,0,0,0,0,0,0,0,0,0,1.71E+09,0, 2024-03-05 15:26:30.274
35,-67743.04125,-29319.96784,1930.453113,12315.34181,-8099.132252,-32996.7851,-49068.89636,-42183.46383,0.184,0.832,0.478,192,0,0,0,0,0,0,0,0,0,1.71E+09,0, 2024-03-05 15:26:30.274
36,-67744.80703,-29316.61508,1924.015811,12320.59447,-8104.049635,-32986.10097,-49070.05865,-42158.87691,0.184,0.832,0.478,192,0,0,0,0,0,0,0,0,0,1.71E+09,0, 2024-03-05 15:26:30.274
37,-67732.46887,-29301.75117,1942.098372,12338.81114,-8086.034129,-32965.51501,-49064.33661,-42100.87414,0.184,0.832,0.478,192,0,0,0,0,0,0,0,0,0,1.71E+09,0, 2024-03-05 15:26:30.274
38,-67728.44556,-29298.73369,1950.055593,12341.87333,-8080.513249,-32964.50918,-49061.43088,-42109.01017,0.184,0.832,0.478,192,0,0,0,0,0,0,0,0,0,1.71E+09,0, 2024-03-05 15:26:30.274
39,-67736.44748,-29305.32745,1941.539579,12341.24748,-8084.849487,-32959.36828,-49062.66022,-42091.48641,0.184,0.832,0.478,192,0,0,0,0,0,0,0,0,0,1.71E+09,0, 2024-03-05 15:26:30.274
40,-67742.21423,-29311.60829,1923.211148,12335.90541,-8101.210964,-32958.63068,-49064.31425,-42065.84895,0.184,0.832,0.478,192,0,0,0,0,0,0,0,0,0,1.71E+09,0, 2024-03-05 15:26:30.274
41,-67736.55924,-29308.43434,1920.081904,12333.33496,-8109.481109,-32964.19626,-49067.15293,-42080.89168,0.184,0.832,0.478,192,0,0,0,0,0,0,0,0,0,1.71E+09,0, 2024-03-05 15:26:30.274
42,-67737.09568,-29304.52279,1937.672727,12331.32331,-8097.679388,-32973.87457,-49067.64466,-42117.86146,0.178,0.834,0.478,192,5,144,26,16,14,240,0,0,0,1.71E+09,0, 2024-03-05 15:26:30.274
43,-67736.13456,-29307.29441,1953.922445,12324.57308,-8083.664844,-32983.37406,-49070.32687,-42133.86531,0.178,0.834,0.478,192,0,0,0,0,0,0,0,0,0,1.71E+09,0, 2024-03-05 15:26:30.274
44,-67741.2084,-29316.1904,1954.637701,12315.14064,-8080.110917,-32989.58784,-49066.57178,-42117.97322,0.178,0.834,0.478,192,0,0,0,0,0,0,0,0,0,1.71E+09,0, 2024-03-05 15:26:30.274
45,-67750.01499,-29328.79678,1935.504608,12297.50512,-8095.623028,-33005.27877,-49067.4882,-42127.53977,0.178,0.834,0.478,192,0,0,0,0,0,0,0,0,0,1.71E+09,0, 2024-03-05 15:26:30.274
46,-67741.8566,-29322.27007,1930.274299,12298.37683,-8101.121557,-33005.61404,-49058.07812,-42138.8274,0.178,0.834,0.478,192,0,0,0,0,0,0,0,0,0,1.71E+09,0, 2024-03-05 15:26:30.274
47,-67731.28423,-29307.96496,1947.731012,12310.96087,-8084.827135,-32997.47801,-49053.71953,-42137.19572,0.178,0.834,0.478,192,0,0,0,0,0,0,0,0,0,1.71E+09,0, 2024-03-05 15:26:30.274
48,-67724.64576,-29299.5607,1964.226599,12320.37095,-8064.799972,-32992.09124,-49054.54654,-42124.96932,0.178,0.834,0.478,192,0,0,0,0,0,0,0,0,0,1.71E+09,0, 2024-03-05 15:26:30.274
49,-67727.1268,-29300.70064,1958.21398,12321.6897,-8068.823286,-32992.2924,-49054.74771,-42128.67971,0.178,0.834,0.478,192,0,0,0,0,0,0,0,0,0,1.71E+09,0, 2024-03-05 15:26:30.274
50,-67730.56897,-29305.08158,1938.253872,12318.53811,-8085.005949,-32996.11455,-49057.87695,-42139.31914,0.178,0.834,0.478,192,0,0,0,0,0,0,0,0,0,1.71E+09,0, 2024-03-05 15:26:30.274
51,-67723.59523,-29299.47129,1935.616366,12326.02594,-8089.655112,-32990.43721,-49042.99069,-42130.75842,0.178,0.834,0.478,192,0,0,0,0,0,0,0,0,0,1.71E+09,0, 2024-03-05 15:26:30.274
52,-67713.51459,-29286.7308,1956.872875,12341.35924,-8076.825211,-32981.72003,-49036.6875,-42126.0422,0.178,0.834,0.48,192,5,144,26,16,15,0,0,0,0,1.71E+09,0, 2024-03-05 15:26:30.274
53,-67701.89168,-29272.20217,1978.621123,12358.65949,-8056.328661,-32971.03589,-49045.40468,-42112.5641,0.178,0.834,0.48,192,0,0,0,0,0,0,0,0,0,1.71E+09,0, 2024-03-05 15:26:30.274
54,-67704.39508,-29274.95143,1971.937951,12356.11139,-8057.60271,-32975.32743,-49049.22683,-42120.34251,0.178,0.834,0.48,192,0,0,0,0,0,0,0,0,0,1.71E+09,0, 2024-03-05 15:26:30.274
55,-67716.59913,-29282.931,1948.625082,12343.61676,-8078.635702,-32985.22925,-49053.16073,-42133.48533,0.178,0.834,0.48,192,0,0,0,0,0,0,0,0,0,1.71E+09,0, 2024-03-05 15:26:30.274
56,-67722.29883,-29288.92127,1939.214997,12335.54779,-8091.018568,-32989.23021,-49048.48922,-42141.44255,0.178,0.834,0.48,192,0,0,0,0,0,0,0,0,0,1.71E+09,0, 2024-03-05 15:26:30.274
57,-67718.27551,-29284.00389,1957.297558,12338.14059,-8076.17701,-32986.39154,-49036.19576,-42159.61452,0.178,0.834,0.48,192,0,0,0,0,0,0,0,0,0,1.71E+09,0, 2024-03-05 15:26:30.274
58,-67711.83821,-29282.97571,1975.536582,12340.8675,-8057.826228,-32981.34005,-49026.07042,-42124.58934,0.178,0.834,0.48,192,0,0,0,0,0,0,0,0,0,1.71E+09,0, 2024-03-05 15:26:30.274
59,-67730.18899,-29291.78229,1971.826192,12338.45351,-8054.65228,-32974.63453,-49022.04711,-42063.05499,0.178,0.834,0.48,192,0,0,0,0,0,0,0,0,0,1.71E+09,0, 2024-03-05 15:26:30.754
60,-67742.61656,-29301.55001,1954.235369,12329.04343,-8068.152734,-32975.48389,-49026.18218,-42054.8519,0.178,0.834,0.48,192,0,0,0,0,0,0,0,0,0,1.71E+09,0, 2024-03-05 15:26:30.754
61,-67746.50577,-29308.21083,1941.092544,12318.11342,-8080.423842,-32986.41389,-49038.5874,-42102.72933,0.178,0.834,0.48,192,0,0,0,0,0,0,0,0,0,1.71E+09,0, 2024-03-05 15:26:30.754
62,-67736.6263,-29303.4052,1949.273282,12320.79563,-8075.417051,-32989.0961,-49037.62627,-42129.03734,0.178,0.828,0.48,192,5,144,25,224,15,0,0,0,0,1.71E+09,0, 2024-03-05 15:26:30.754
63,-67724.06462,-29290.03886,1964.852448,12335.01134,-8059.323795,-32975.34978,-49034.04999,-42094.74976,0.178,0.828,0.48,192,0,0,0,0,0,0,0,0,0,1.71E+09,0, 2024-03-05 15:26:30.754
64,-67733.56411,-29295.62679,1952.96132,12331.9268,-8069.136211,-32975.95328,-49040.84492,-42085.25027,0.178,0.828,0.48,192,0,0,0,0,0,0,0,0,0,1.71E+09,0, 2024-03-05 15:26:30.754
65,-67741.34251,-29303.67342,1929.469637,12326.24946,-8089.141022,-32977.22733,-49046.29875,-42069.15701,0.178,0.828,0.48,192,0,0,0,0,0,0,0,0,0,1.71E+09,0, 2024-03-05 15:26:30.754
66,-67735.86634,-29297.88432,1922.33943,12326.89766,-8098.841679,-32977.69671,-49046.03053,-42074.61084,0.178,0.828,0.48,192,0,0,0,0,0,0,0,0,0,1.71E+09,0, 2024-03-05 15:26:30.754
67,-67720.6895,-29280.62877,1939.930253,12339.21347,-8085.698853,-32969.98536,-49041.15785,-42070.69928,0.178,0.828,0.48,192,0,0,0,0,0,0,0,0,0,1.71E+09,0, 2024-03-05 15:26:30.754
68,-67714.74394,-29276.02431,1955.174143,12338.05118,-8073.114821,-32975.19332,-49042.72247,-42092.22401,0.178,0.828,0.48,192,0,0,0,0,0,0,0,0,0,1.71E+09,0, 2024-03-05 15:26:30.754
69,-67716.66619,-29280.15939,1953.900093,12330.38453,-8073.137173,-32981.04948,-49042.02956,-42096.40379,0.178,0.828,0.48,192,0,0,0,0,0,0,0,0,0,1.71E+09,0, 2024-03-05 15:26:30.754
70,-67722.07531,-29287.46841,1933.068267,12318.09107,-8088.336359,-32989.47608,-49038.81091,-42101.00825,0.178,0.828,0.48,192,0,0,0,0,0,0,0,0,0,1.71E+09,0, 2024-03-05 15:26:30.754
71,-67725.04809,-29284.38387,1928.352049,12317.57698,-8090.213906,-32988.76083,-49033.71472,-42088.64773,0.178,0.828,0.48,192,0,0,0,0,0,0,0,0,0,1.71E+09,0, 2024-03-05 15:26:30.754
72,-67717.38144,-29278.08068,1949.161523,12324.55073,-8075.171182,-32986.41389,-49026.91979,-42091.46405,0.18,0.83,0.476,192,5,160,25,240,14,224,0,0,0,1.71E+09,0, 2024-03-05 15:26:30.754
73,-67715.23568,-29277.76775,1968.473431,12325.5342,-8056.820399,-32988.71612,-49021.33185,-42096.85082,0.18,0.83,0.476,192,0,0,0,0,0,0,0,0,0,1.71E+09,0, 2024-03-05 15:26:30.754
74,-67731.75362,-29289.48007,1962.259646,12317.59933,-8058.720298,-32995.51105,-49020.54954,-42099.04129,0.18,0.83,0.476,192,0,0,0,0,0,0,0,0,0,1.71E+09,0, 2024-03-05 15:26:30.754
75,-67740.98489,-29295.91737,1945.898169,12310.96087,-8068.018623,-32997.65682,-49027.03154,-42089.22888,0.18,0.83,0.476,192,0,0,0,0,0,0,0,0,0,1.71E+09,0, 2024-03-05 15:26:30.754
76,-67735.77693,-29293.79395,1939.684384,12311.89964,-8073.427746,-32996.47218,-49028.30559,-42084.69147,0.18,0.83,0.476,192,0,0,0,0,0,0,0,0,0,1.71E+09,0, 2024-03-05 15:26:30.754
77,-67721.9412,-29287.08843,1952.715451,12315.65473,-8061.246045,-32998.685,-49024.23758,-42123.4941,0.18,0.83,0.476,192,0,0,0,0,0,0,0,0,0,1.71E+09,0, 2024-03-05 15:26:30.754
78,-67717.00146,-29281.5899,1964.695986,12318.76163,-8048.259681,-32999.9814,-49012.14528,-42144.23652,0.18,0.83,0.476,192,0,0,0,0,0,0,0,0,0,1.71E+09,0, 2024-03-05 15:26:30.754
79,-67721.38241,-29283.06511,1959.219808,12319.36512,-8051.970071,-32998.90852,-49011.22886,-42132.68067,0.18,0.83,0.476,192,0,0,0,0,0,0,0,0,0,1.71E+09,0, 2024-03-05 15:26:30.754
80,-67738.05681,-29295.17976,1935.884587,12309.95504,-8068.62212,-33004.83173,-49020.1025,-42118.86729,0.18,0.83,0.476,192,0,0,0,0,0,0,0,0,0,1.71E+09,0, 2024-03-05 15:26:30.754
81,-67741.63309,-29298.93485,1922.272375,12305.37293,-8078.702757,-33012.1631,-49012.72643,-42134.73703,0.18,0.83,0.476,192,0,0,0,0,0,0,0,0,0,1.71E+09,0, 2024-03-05 15:26:30.754
82,-67728.49026,-29283.84743,1938.812666,12324.50602,-8065.001138,-32992.2924,-48997.16961,-42095.57677,0.182,0.828,0.478,192,5,176,25,224,14,240,0,0,0,1.71E+09,0, 2024-03-05 15:26:30.754
83,-67719.95189,-29282.17104,1953.698928,12328.66345,-8051.791257,-32986.48095,-49001.32704,-42089.83238,0.182,0.828,0.478,192,0,0,0,0,0,0,0,0,0,1.71E+09,0, 2024-03-05 15:26:30.754
84,-67728.06558,-29288.47424,1950.972015,12322.8967,-8052.908844,-32990.12428,-49001.93054,-42111.62533,0.182,0.828,0.478,192,0,0,0,0,0,0,0,0,0,1.71E+09,0, 2024-03-05 15:26:30.754
85,-67739.80024,-29296.9232,1929.827265,12314.0007,-8069.046804,-32991.30893,-49020.08015,-42086.81489,0.182,0.828,0.478,192,0,0,0,0,0,0,0,0,0,1.71E+09,0, 2024-03-05 15:26:30.754
86,-67737.38625,-29294.39745,1917.399695,12309.75387,-8081.317911,-32993.11942,-49022.80706,-42091.03937,0.182,0.828,0.478,192,0,0,0,0,0,0,0,0,0,1.71E+09,0, 2024-03-05 15:26:30.754
87,-67733.60881,-29290.39649,1932.375363,12314.89477,-8075.215885,-32989.52079,-49022.96353,-42099.086,0.182,0.828,0.478,192,0,0,0,0,0,0,0,0,0,1.71E+09,0, 2024-03-05 15:26:30.754
88,-67721.27065,-29278.23714,1964.651282,12335.7266,-8045.55512,-32966.16321,-49012.92759,-42046.44764,0.182,0.828,0.478,192,0,0,0,0,0,0,0,0,0,1.71E+09,0, 2024-03-05 15:26:30.754
89,-67718.54373,-29278.03597,1972.809669,12345.51666,-8033.060495,-32950.80757,-49003.45045,-41993.04932,0.182,0.828,0.478,192,0,0,0,0,0,0,0,0,0,1.71E+09,0, 2024-03-05 15:26:30.754
90,-67737.25214,-29294.59861,1949.787372,12327.72467,-8050.114876,-32967.2361,-49008.59135,-42018.19504,0.182,0.828,0.478,192,0,0,0,0,0,0,0,0,0,1.71E+09,0, 2024-03-05 15:26:30.754
91,-67735.12873,-29294.17393,1938.723259,12321.77911,-8062.631853,-32974.54512,-49001.77407,-42015.82575,0.182,0.828,0.478,192,0,0,0,0,0,0,0,0,0,1.71E+09,0, 2024-03-05 15:26:30.754
92,-67716.97911,-29278.86299,1954.972977,12331.21155,-8050.226635,-32971.37117,-48996.58847,-42005.45454,0.18,0.826,0.484,192,5,160,25,208,15,32,0,0,0,1.71E+09,0, 2024-03-05 15:26:30.754
93,-67709.22306,-29265.36253,1973.614332,12339.36993,-8030.355934,-32972.77933,-48994.50976,-42039.85388,0.18,0.826,0.484,192,0,0,0,0,0,0,0,0,0,1.71E+09,0, 2024-03-05 15:26:30.754
94,-67705.53502,-29264.2673,1974.083719,12341.89568,-8026.958469,-32976.89205,-48995.38147,-42051.90147,0.18,0.826,0.484,192,0,0,0,0,0,0,0,0,0,1.71E+09,0, 2024-03-05 15:26:30.754
95,-67714.16279,-29266.8601,1956.783468,12340.30871,-8042.403524,-32981.3177,-48997.61665,-42047.11819,0.18,0.826,0.484,192,0,0,0,0,0,0,0,0,0,1.71E+09,0, 2024-03-05 15:26:30.754
96,-67703.9704,-29257.18179,1951.910788,12347.64008,-8048.706716,-32978.50138,-48991.93931,-42040.7703,0.18,0.826,0.484,192,0,0,0,0,0,0,0,0,0,1.71E+09,0, 2024-03-05 15:26:30.754
97,-67688.83827,-29245.26831,1965.344186,12356.2008,-8038.827245,-32980.62479,-48989.12299,-42062.27268,0.18,0.826,0.484,192,0,0,0,0,0,0,0,0,0,1.71E+09,0, 2024-03-05 15:26:30.754
98,-67680.65753,-29238.62985,1983.605562,12360.7829,-8023.471597,-32981.04948,-48988.6983,-42082.56806,0.18,0.826,0.484,192,0,0,0,0,0,0,0,0,0,1.71E+09,0, 2024-03-05 15:26:30.754
99,-67690.44759,-29245.64829,1977.615294,12352.78098,-8024.767998,-32988.42555,-48991.76049,-42108.7643,0.18,0.826,0.484,192,0,0,0,0,0,0,0,0,0,1.71E+09,0, 2024-03-05 15:26:30.754
100,-67706.98788,-29262.16623,1949.049765,12332.64206,-8047.767943,-33003.02124,-48989.65943,-42121.32598,0.18,0.826,0.484,192,0,0,0,0,0,0,0,0,0,1.71E+09,0, 2024-03-05 15:26:30.754
101,-67708.48545,-29265.49664,1938.969128,12326.96472,-8055.345184,-33001.85895,-48983.66916,-42079.93055,0.18,0.826,0.484,192,0,0,0,0,0,0,0,0,0,1.71E+09,0, 2024-03-05 15:26:30.754
102,-67692.14632,-29252.86791,1960.538561,12342.67799,-8033.842806,-32981.58592,-48971.46511,-42024.34176,0.182,0.83,0.482,192,5,176,25,240,15,16,0,0,0,1.71E+09,0, 2024-03-05 15:26:30.754
103,-67689.84409,-29248.75519,1974.709567,12346.67895,-8024.03039,-32979.06017,-48970.41458,-42038.98216,0.182,0.83,0.482,192,0,0,0,0,0,0,0,0,0,1.71E+09,0, 2024-03-05 15:26:30.754
104,-67700.59528,-29253.56081,1971.312102,12342.85681,-8021.97403,-32982.0553,-48977.56713,-42038.73629,0.182,0.83,0.482,192,0,0,0,0,0,0,0,0,0,1.71E+09,0, 2024-03-05 15:26:30.754
105,-67716.10739,-29268.2012,1948.647433,12328.41758,-8036.077981,-32993.00766,-48979.73525,-42052.10263,0.182,0.83,0.482,192,0,0,0,0,0,0,0,0,0,1.71E+09,0, 2024-03-05 15:26:30.754
106,-67723.52817,-29275.82315,1934.342317,12317.12995,-8048.88553,-33002.84243,-48973.45441,-42079.17059,0.182,0.83,0.482,192,0,0,0,0,0,0,0,0,0,1.71E+09,0, 2024-03-05 15:26:30.754
107,-67715.03451,-29272.24687,1944.802933,12316.05706,-8041.308289,-33005.81521,-48971.04042,-42089.29593,0.182,0.83,0.482,192,0,0,0,0,0,0,0,0,0,1.71E+09,0, 2024-03-05 15:26:30.754
108,-67703.05398,-29267.79887,1961.767907,12319.45453,-8021.705809,-33003.7812,-48963.77611,-42066.60891,0.182,0.83,0.482,192,0,0,0,0,0,0,0,0,0,1.71E+09,0, 2024-03-05 15:26:30.754
109,-67701.93639,-29262.9709,1964.830096,12325.73537,-8014.352085,-32993.00766,-48959.30576,-42026.21931,0.182,0.83,0.482,192,0,0,0,0,0,0,0,0,0,1.71E+09,0, 2024-03-05 15:26:30.754
110,-67716.17445,-29273.00683,1942.053669,12312.81606,-8034.580414,-33002.61891,-48969.29699,-42038.57983,0.182,0.83,0.482,192,0,0,0,0,0,0,0,0,0,1.71E+09,0, 2024-03-05 15:26:30.754
111,-67717.47085,-29275.42082,1925.021639,12305.37293,-8052.193588,-33010.1738,-48975.15315,-42062.31738,0.182,0.83,0.482,192,0,0,0,0,0,0,0,0,0,1.71E+09,0, 2024-03-05 15:26:30.754
112,-67704.50684,-29265.89897,1932.397715,12310.55853,-8049.690193,-33007.64805,-48978.93059,-42068.48646,0.18,0.834,0.484,192,5,160,26,16,15,32,0,0,0,1.71E+09,0, 2024-03-05 15:26:30.754
113,-67687.65362,-29252.7338,1952.268416,12324.08134,-8033.596937,-32995.51105,-48978.12593,-42064.88783,0.18,0.834,0.484,192,0,0,0,0,0,0,0,0,0,1.71E+09,0, 2024-03-05 15:26:30.754
114,-67690.5817,-29255.81834,1951.061422,12320.63917,-8036.502664,-33001.16605,-48980.98695,-42116.18508,0.18,0.834,0.484,192,0,0,0,0,0,0,0,0,0,1.71E+09,0, 2024-03-05 15:26:30.754
115,-67692.07927,-29259.32756,1937.20334,12318.69457,-8049.958414,-32996.76275,-48983.44564,-42081.42812,0.18,0.834,0.484,192,0,0,0,0,0,0,0,0,0,1.71E+09,0, 2024-03-05 15:26:30.754
116,-67691.07344,-29258.67936,1932.107142,12321.91322,-8060.866065,-32989.0961,-48977.85771,-42024.72174,0.18,0.834,0.484,192,0,0,0,0,0,0,0,0,0,1.71E+09,0, 2024-03-05 15:26:30.754
117,-67682.69154,-29251.97384,1948.356861,12334.34079,-8051.590091,-32978.79195,-48966.90535,-42000.00072,0.18,0.834,0.484,192,0,0,0,0,0,0,0,0,0,1.71E+09,0, 2024-03-05 15:26:30.754
118,-67670.44278,-29244.15073,1975.022492,12346.67895,-8026.042047,-32973.82986,-48961.36212,-42021.61485,0.18,0.834,0.484,192,0,0,0,0,0,0,0,0,0,1.71E+09,0, 2024-03-05 15:26:30.754
119,-67670.19691,-29243.07784,1977.928219,12349.65174,-8026.176158,-32974.79099,-48954.58954,-42052.12498,0.18,0.834,0.484,192,0,0,0,0,0,0,0,0,0,1.71E+09,0, 2024-03-05 15:26:30.754
120,-67679.11526,-29245.89416,1961.186762,12347.953,-8044.929271,-32976.37796,-48950.29801,-42062.00445,0.18,0.834,0.484,192,0,0,0,0,0,0,0,0,0,1.71E+09,0, 2024-03-05 15:26:30.754
121,-67676.61186,-29250.90095,1944.691175,12345.60607,-8063.525923,-32981.13888,-48946.45351,-42063.65848,0.18,0.834,0.484,192,0,0,0,0,0,0,0,0,0,1.71E+09,0, 2024-03-05 15:26:30.754
122,-67660.33979,-29239.41216,1958.281035,12360.80526,-8059.39085,-32967.79489,-48944.53126,-42039.25038,0.182,0.84,0.478,192,5,176,26,64,14,240,0,0,0,1.71E+09,0, 2024-03-05 15:26:30.754
123,-67646.41466,-29228.72802,1980.319855,12372.45052,-8043.297594,-32963.25749,-48944.53126,-42068.70998,0.182,0.84,0.478,192,0,0,0,0,0,0,0,0,0,1.71E+09,0, 2024-03-05 15:26:30.754
124,-67652.40492,-29233.39954,1979.001102,12367.7343,-8045.644527,-32973.58399,-48943.05604,-42112.6088,0.182,0.84,0.478,192,0,0,0,0,0,0,0,0,0,1.71E+09,0, 2024-03-05 15:26:30.754
125,-67662.86554,-29241.04383,1961.92437,12360.15706,-8061.424859,-32973.60634,-48936.8199,-42077.87419,0.182,0.84,0.478,192,0,0,0,0,0,0,0,0,0,1.71E+09,0, 2024-03-05 15:26:30.754
126,-67656.09296,-29234.8524,1961.231465,12367.19786,-8065.582283,-32961.20113,-48933.5789,-42039.25038,0.182,0.84,0.478,192,0,0,0,0,0,0,0,0,0,1.71E+09,0, 2024-03-05 15:26:30.754
127,-67649.32038,-29228.79508,1971.468564,12368.44955,-8060.240216,-32963.4363,-48931.52254,-42078.45534,0.182,0.84,0.478,192,0,0,0,0,0,0,0,0,0,1.71E+09,0, 2024-03-05 15:26:30.754
128,-67643.28541,-29223.76594,1988.142966,12370.10358,-8044.638699,-32962.8328,-48919.16203,-42094.57095,0.182,0.84,0.478,192,0,0,0,0,0,0,0,0,0,1.71E+09,0, 2024-03-05 15:26:30.754
129,-67642.95013,-29225.8223,1991.003989,12368.24839,-8042.470579,-32958.74243,-48912.59061,-42078.70121,0.182,0.84,0.478,192,0,0,0,0,0,0,0,0,0,1.71E+09,0, 2024-03-05 15:26:30.754
130,-67655.78004,-29238.33927,1969.61337,12353.45153,-8061.871894,-32966.52084,-48922.31362,-42088.58068,0.182,0.84,0.478,192,0,0,0,0,0,0,0,0,0,1.71E+09,0, 2024-03-05 15:26:30.754
131,-67658.99869,-29246.11768,1949.876779,12340.28636,-8081.004987,-32976.84735,-48928.32624,-42102.34935,0.182,0.84,0.478,192,0,0,0,0,0,0,0,0,0,1.71E+09,0, 2024-03-05 15:26:30.754
132,-67646.92875,-29240.30623,1957.968111,12344.26497,-8076.199362,-32970.27593,-48926.02401,-42074.7226,0.176,0.834,0.48,192,5,128,26,16,15,0,0,0,0,1.71E+09,0, 2024-03-05 15:26:30.754
133,-67641.2067,-29235.12062,1974.642512,12347.79654,-8063.145943,-32966.29732,-48920.41372,-42072.91211,0.176,0.834,0.48,192,0,0,0,0,0,0,0,0,0,1.71E+09,0, 2024-03-05 15:26:30.754
134,-67644.78298,-29236.17115,1974.173126,12342.96856,-8063.190647,-32970.74532,-48914.24464,-42091.95579,0.176,0.834,0.48,192,0,0,0,0,0,0,0,0,0,1.71E+09,0, 2024-03-05 15:26:30.754
135,-67650.61678,-29245.0448,1952.179009,12328.6858,-8077.674577,-32981.76473,-48927.81215,-42113.27936,0.176,0.834,0.48,192,0,0,0,0,0,0,0,0,0,1.71E+09,0, 2024-03-05 15:26:30.754
136,-67653.76838,-29251.97384,1936.152808,12318.00167,-8093.968999,-32990.52662,-48933.26598,-42123.91879,0.176,0.834,0.48,192,0,0,0,0,0,0,0,0,0,1.71E+09,0, 2024-03-05 15:26:30.754
137,-67642.03371,-29245.7377,1947.306329,12323.34373,-8087.218772,-32988.00087,-48927.00749,-42126.26572,0.176,0.834,0.48,192,0,0,0,0,0,0,0,0,0,1.71E+09,0, 2024-03-05 15:26:30.754
138,-67631.6178,-29233.75717,1970.954474,12330.18337,-8068.711527,-32986.5033,-48920.45843,-42115.67099,0.176,0.834,0.48,192,0,0,0,0,0,0,0,0,0,1.71E+09,0, 2024-03-05 15:26:30.754
139,-67629.80731,-29227.7222,1981.236277,12338.14059,-8060.731955,-32973.29342,-48919.13967,-42050.02392,0.176,0.834,0.48,192,0,0,0,0,0,0,0,0,0,1.71E+09,0, 2024-03-05 15:26:30.754
140,-67631.77426,-29230.42676,1966.841753,12333.08909,-8071.30433,-32972.44405,-48917.12802,-42040.94911,0.176,0.834,0.48,192,0,0,0,0,0,0,0,0,0,1.71E+09,0, 2024-03-05 15:26:30.754
141,-67634.34471,-29233.22072,1951.754326,12325.08717,-8085.564743,-32981.09418,-48908.18732,-42054.82954,0.176,0.834,0.48,192,0,0,0,0,0,0,0,0,0,1.71E+09,0, 2024-03-05 15:26:30.754
142,-67627.10275,-29228.16923,1958.661015,12330.07161,-8079.239199,-32979.4178,-48902.46527,-42037.41754,0.178,0.836,0.48,192,5,144,26,32,15,0,0,0,0,1.71E+09,0, 2024-03-05 15:26:30.754
143,-67616.1951,-29219.67557,1978.822288,12335.21251,-8060.843713,-32982.94937,-48914.08818,-42074.58849,0.178,0.836,0.48,192,0,0,0,0,0,0,0,0,0,1.71E+09,0, 2024-03-05 15:26:30.754
144,-67617.5362,-29218.28976,1979.87282,12337.80531,-8059.055574,-32981.27299,-48911.29421,-42080.48935,0.178,0.836,0.48,192,0,0,0,0,0,0,0,0,0,1.71E+09,0, 2024-03-05 15:26:30.754
145,-67623.70528,-29224.36943,1961.589093,12336.75478,-8073.695966,-32975.43919,-48909.2155,-42037.574,0.178,0.836,0.48,192,0,0,0,0,0,0,0,0,0,1.71E+09,0, 2024-03-05 15:26:30.755
146,-67618.36322,-29222.46954,1952.737803,12337.22417,-8084.871839,-32972.91344,-48908.72376,-42035.89762,0.178,0.836,0.48,192,0,0,0,0,0,0,0,0,0,1.71E+09,0, 2024-03-05 15:26:30.755
147,-67612.73058,-29214.73583,1959.778602,12338.49822,-8084.648321,-32976.95911,-48910.10957,-42088.8936,0.178,0.836,0.48,192,0,0,0,0,0,0,0,0,0,1.71E+09,0, 2024-03-05 15:26:30.755
148,-67602.24761,-29202.06239,1980.722187,12348.35533,-8066.610463,-32971.43823,-48907.42736,-42106.41737,0.178,0.836,0.48,192,0,0,0,0,0,0,0,0,0,1.71E+09,0, 2024-03-05 15:26:30.755
149,-67600.07949,-29199.06726,1990.579306,12353.36213,-8058.385021,-32964.33037,-48896.13973,-42098.70602,0.178,0.836,0.48,192,0,0,0,0,0,0,0,0,0,1.71E+09,0, 2024-03-05 15:26:30.755
