Sample Index, EXG Channel 0, EXG Channel 1, EXG Channel 2, EXG Channel 3, EXG Channel 4, EXG Channel 5, EXG Channel 6, EXG Channel 7, Accel Channel 0, Accel Channel 1, Accel Channel 2, Other, Other, Other, Other, Other, Other, Other, Analog Channel 0, Analog Channel 1, Analog Channel 2, Timestamp, Other, Timestamp (Formatted)
0,1705.013419,11879.12516,-5363.770469,-8551.688022,-6437.950604,32113.69003,-10587.14963,4012.78633,0.164,0.942,0.146,192,5,32,29,112,4,144,0,0,0,1.71E+09,0, 2024-03-05 16:07:01.432
1,3140.151875,11828.65492,-5048.365003,-8299.113309,-6342.553358,32178.42068,-10627.91921,3958.851571,0.164,0.942,0.146,192,0,0,0,0,0,0,0,0,0,1.71E+09,0, 2024-03-05 16:07:01.432
2,3189.169251,11755.74353,-4566.394337,-8069.739708,-6166.64513,32749.86538,-10644.68302,3940.38903,0.164,0.942,0.146,192,0,0,0,0,0,0,0,0,0,1.71E+09,0, 2024-03-05 16:07:01.432
3,1813.240565,11766.27121,-4594.222259,-8184.784136,-6152.228254,33014.17476,-10618.33031,3972.776708,0.164,0.942,0.146,192,0,0,0,0,0,0,0,0,0,1.71E+09,0, 2024-03-05 16:07:01.432
4,839.598577,11840.41194,-5121.835187,-8511.454882,-6332.718591,32597.35943,-10584.53448,4016.854348,0.164,0.942,0.146,192,0,0,0,0,0,0,0,0,0,1.71E+09,0, 2024-03-05 16:07:01.432
5,1705.818082,11870.49739,-5365.71507,-8554.906673,-6445.97488,32128.15161,-10598.10199,4001.76692,0.164,0.942,0.146,192,0,0,0,0,0,0,0,0,0,1.71E+09,0, 2024-03-05 16:07:01.432
6,3156.580407,11817.65787,-5045.481628,-8302.555478,-6351.315242,32190.71414,-10633.35069,3952.101344,0.164,0.942,0.146,192,0,0,0,0,0,0,0,0,0,1.71E+09,0, 2024-03-05 16:07:01.432
7,3200.56864,11748.36746,-4575.335035,-8080.848525,-6177.441022,32740.81293,-10644.39245,3937.349193,0.164,0.942,0.146,192,0,0,0,0,0,0,0,0,0,1.71E+09,0, 2024-03-05 16:07:01.432
8,1809.351362,11759.72214,-4609.801425,-8196.407044,-6162.577112,32994.59463,-10618.73265,3966.384109,0.164,0.942,0.146,192,0,0,0,0,0,0,0,0,0,1.71E+09,0, 2024-03-05 16:07:01.432
9,825.8522541,11839.09319,-5127.758399,-8514.38296,-6337.390105,32584.95421,-10581.22642,4011.221708,0.164,0.942,0.146,192,0,0,0,0,0,0,0,0,0,1.71E+09,0, 2024-03-05 16:07:01.432
10,1684.181593,11871.74909,-5373.292312,-8560.338147,-6458.91654,32112.95242,-10596.49266,3996.51426,0.168,0.95,0.142,192,5,64,29,176,4,112,0,0,0,1.71E+09,0, 2024-03-05 16:07:01.432
11,3126.919642,11821.9941,-5064.815887,-8309.75274,-6360.792382,32159.93579,-10629.52854,3952.928359,0.168,0.95,0.142,192,0,0,0,0,0,0,0,0,0,1.71E+09,0, 2024-03-05 16:07:01.432
12,3219.52292,11740.87962,-4573.189267,-8075.417051,-6186.605237,32730.68759,-10651.83558,3929.23551,0.168,0.95,0.142,192,0,0,0,0,0,0,0,0,0,1.71E+09,0, 2024-03-05 16:07:01.432
13,1847.014051,11753.59777,-4596.613895,-8188.695692,-6168.165048,33001.30016,-10622.24187,3963.299568,0.168,0.95,0.142,192,0,0,0,0,0,0,0,0,0,1.71E+09,0, 2024-03-05 16:07:01.432
14,856.9211789,11833.34879,-5112.469806,-8512.348951,-6336.317222,32601.65097,-10583.88628,4010.774673,0.168,0.95,0.142,192,0,0,0,0,0,0,0,0,0,1.71E+09,0, 2024-03-05 16:07:01.432
15,1706.108654,11867.16698,-5361.557646,-8563.981481,-6447.338336,32134.4101,-10597.87847,3998.570621,0.168,0.95,0.142,192,0,0,0,0,0,0,0,0,0,1.71E+09,0, 2024-03-05 16:07:01.432
16,3138.251977,11828.52081,-5065.665253,-8323.923746,-6355.427963,32167.35657,-10626.26518,3956.214065,0.168,0.95,0.142,192,0,0,0,0,0,0,0,0,0,1.71E+09,0, 2024-03-05 16:07:01.432
17,3223.836806,11753.24014,-4580.900619,-8088.403414,-6179.20681,32723.31151,-10647.43229,3930.3978,0.168,0.95,0.142,192,0,0,0,0,0,0,0,0,0,1.71E+09,0, 2024-03-05 16:07:01.432
18,1855.507714,11758.15752,-4599.430215,-8193.478965,-6162.621816,33000.40609,-10623.60533,3961.53378,0.168,0.95,0.142,192,0,0,0,0,0,0,0,0,0,1.71E+09,0, 2024-03-05 16:07:01.432
19,854.9095219,11835.94159,-5114.57087,-8510.270239,-6328.292945,32608.5353,-10584.55683,4007.310153,0.168,0.95,0.142,192,0,0,0,0,0,0,0,0,0,1.71E+09,0, 2024-03-05 16:07:01.432
20,1677.99016,11874.56541,-5371.839448,-8563.869722,-6440.230482,32131.1691,-10588.53544,4000.984609,0.166,0.946,0.142,192,5,48,29,144,4,112,0,0,0,1.71E+09,0, 2024-03-05 16:07:01.432
21,3119.700029,11823.49167,-5080.439756,-8321.80033,-6357.104344,32164.29438,-10624.07471,3949.240321,0.166,0.946,0.142,192,0,0,0,0,0,0,0,0,0,1.71E+09,0, 2024-03-05 16:07:01.432
22,3216.885414,11753.41895,-4601.732445,-8091.823231,-6184.437118,32712.40386,-10642.02316,3924.832216,0.166,0.946,0.142,192,0,0,0,0,0,0,0,0,0,1.71E+09,0, 2024-03-05 16:07:01.432
23,1856.804115,11764.19249,-4604.414654,-8185.968779,-6161.414821,32994.66169,-10615.89397,3964.931245,0.166,0.946,0.142,192,0,0,0,0,0,0,0,0,0,1.71E+09,0, 2024-03-05 16:07:01.432
24,852.9649202,11840.81427,-5106.12191,-8496.143937,-6325.744847,32610.61401,-10575.48202,4013.434531,0.166,0.946,0.142,192,0,0,0,0,0,0,0,0,0,1.71E+09,0, 2024-03-05 16:07:01.432
25,1656.733651,11876.30884,-5373.046443,-8557.991214,-6447.964185,32131.83965,-10586.7026,4002.102196,0.166,0.946,0.142,192,0,0,0,0,0,0,0,0,0,1.71E+09,0, 2024-03-05 16:07:01.432
26,3099.650514,11833.10292,-5088.933419,-8323.253193,-6362.625225,32147.53057,-10621.97365,3954.180056,0.166,0.946,0.142,192,0,0,0,0,0,0,0,0,0,1.71E+09,0, 2024-03-05 16:07:01.432
27,3237.359612,11760.86208,-4594.512832,-8080.356786,-6175.004682,32708.06762,-10641.95611,3927.693239,0.166,0.946,0.142,192,0,0,0,0,0,0,0,0,0,1.71E+09,0, 2024-03-05 16:07:01.432
28,1894.690322,11763.81251,-4593.395244,-8180.336139,-6151.445943,32995.82398,-10621.57132,3954.895312,0.166,0.946,0.142,192,0,0,0,0,0,0,0,0,0,1.71E+09,0, 2024-03-05 16:07:01.432
29,858.1058214,11846.49162,-5113.989724,-8508.504451,-6323.800245,32591.99501,-10569.4694,4018.866005,0.166,0.946,0.142,192,0,0,0,0,0,0,0,0,0,1.71E+09,0, 2024-03-05 16:07:01.432
30,1652.486819,11876.01827,-5375.952169,-8559.86876,-6440.811627,32113.2877,-10584.46742,4001.141071,0.17,0.944,0.14,192,5,80,29,128,4,96,0,0,0,1.71E+09,0, 2024-03-05 16:07:01.432
31,3133.468703,11823.62578,-5072.482535,-8310.803272,-6354.019803,32152.62677,-10629.05915,3945.954614,0.17,0.944,0.14,192,0,0,0,0,0,0,0,0,0,1.71E+09,0, 2024-03-05 16:07:01.432
32,3290.713226,11748.32275,-4577.927837,-8072.757193,-6173.909446,32712.47091,-10651.05327,3918.841948,0.17,0.944,0.14,192,0,0,0,0,0,0,0,0,0,1.71E+09,0, 2024-03-05 16:07:01.432
33,1933.671765,11760.19153,-4588.075529,-8180.582008,-6153.83758,32992.65003,-10620.0961,3954.023594,0.17,0.944,0.14,192,0,0,0,0,0,0,0,0,0,1.71E+09,0, 2024-03-05 16:07:01.432
34,887.3419031,11835.53926,-5106.658352,-8507.319809,-6325.27546,32603.59557,-10579.25946,4005.186737,0.17,0.944,0.14,192,0,0,0,0,0,0,0,0,0,1.71E+09,0, 2024-03-05 16:07:01.432
35,1656.063098,11871.21265,-5379.349635,-8569.591769,-6446.556025,32119.59089,-10590.07771,3992.937981,0.17,0.944,0.14,192,0,0,0,0,0,0,0,0,0,1.71E+09,0, 2024-03-05 16:07:01.432
36,3102.623296,11829.0349,-5101.316285,-8335.189025,-6367.408498,32128.41983,-10624.14177,3947.362774,0.17,0.944,0.14,192,0,0,0,0,0,0,0,0,0,1.71E+09,0, 2024-03-05 16:07:01.432
37,3274.776432,11752.27901,-4601.978314,-8084.938894,-6185.644112,32690.49915,-10645.35357,3921.747675,0.17,0.944,0.14,192,0,0,0,0,0,0,0,0,0,1.71E+09,0, 2024-03-05 16:07:01.432
38,1932.554177,11755.31885,-4596.390378,-8182.034872,-6159.380813,32991.26422,-10619.17968,3953.978891,0.17,0.944,0.14,192,0,0,0,0,0,0,0,0,0,1.71E+09,0, 2024-03-05 16:07:01.432
39,899.9035835,11823.8493,-5091.369759,-8497.149765,-6326.035419,32635.24564,-10585.92028,3996.670723,0.17,0.944,0.14,192,0,0,0,0,0,0,0,0,0,1.71E+09,0, 2024-03-05 16:07:01.432
40,1648.26234,11870.38563,-5375.169858,-8571.245798,-6440.766924,32136.75703,-10584.60153,3998.458862,0.174,0.942,0.142,192,5,112,29,112,4,112,0,0,0,1.71E+09,0, 2024-03-05 16:07:01.432
41,3106.065465,11824.87748,-5095.705997,-8331.523339,-6359.831257,32140.89211,-10628.3886,3939.807885,0.174,0.942,0.142,192,0,0,0,0,0,0,0,0,0,1.71E+09,0, 2024-03-05 16:07:01.432
42,3277.637455,11755.31885,-4607.655657,-8093.209039,-6187.007569,32684.50888,-10644.01247,3924.988678,0.174,0.942,0.142,192,0,0,0,0,0,0,0,0,0,1.71E+09,0, 2024-03-05 16:07:01.432
43,1926.04982,11761.77851,-4602.447701,-8187.376939,-6152.027089,32978.05434,-10615.93868,3960.796173,0.174,0.942,0.142,192,0,0,0,0,0,0,0,0,0,1.71E+09,0, 2024-03-05 16:07:01.432
44,877.6635978,11829.16901,-5092.174422,-8496.05453,-6313.138463,32629.16596,-10586.27791,3996.89424,0.174,0.942,0.142,192,0,0,0,0,0,0,0,0,0,1.71E+09,0, 2024-03-05 16:07:01.432
45,1636.438267,11868.30692,-5367.816134,-8560.539312,-6441.638642,32156.91831,-10597.05145,3985.36074,0.174,0.942,0.142,192,0,0,0,0,0,0,0,0,0,1.71E+09,0, 2024-03-05 16:07:01.432
46,3112.055732,11819.98245,-5098.231745,-8326.337734,-6369.911894,32161.14279,-10638.0669,3932.118885,0.174,0.942,0.142,192,0,0,0,0,0,0,0,0,0,1.71E+09,0, 2024-03-05 16:07:01.432
47,3313.377895,11750.49087,-4604.369951,-8079.865048,-6185.599409,32706.39124,-10650.51683,3914.215137,0.174,0.942,0.142,192,0,0,0,0,0,0,0,0,0,1.71E+09,0, 2024-03-05 16:07:01.432
48,1974.62016,11757.48697,-4588.746081,-8170.501372,-6146.193283,33009.19032,-10623.38181,3946.982795,0.174,0.942,0.142,192,0,0,0,0,0,0,0,0,0,1.71E+09,0, 2024-03-05 16:07:01.432
49,883.2738856,11838.86967,-5095.370721,-8495.048701,-6309.249259,32637.43611,-10577.1584,4005.589069,0.174,0.942,0.142,192,0,0,0,0,0,0,0,0,0,1.71E+09,0, 2024-03-05 16:07:01.432
50,1630.805627,11870.028,-5366.676195,-8558.304138,-6433.793179,32166.10487,-10595.41978,3985.785423,0.17,0.944,0.142,192,5,80,29,128,4,112,0,0,0,1.71E+09,0, 2024-03-05 16:07:01.432
51,3111.429883,11821.07768,-5101.24923,-8330.875138,-6361.015899,32163.15444,-10638.60335,3929.682544,0.17,0.944,0.142,192,0,0,0,0,0,0,0,0,0,1.71E+09,0, 2024-03-05 16:07:01.432
52,3342.390459,11748.59098,-4597.731483,-8077.898094,-6182.02313,32720.13756,-10654.13781,3914.617469,0.17,0.944,0.142,192,0,0,0,0,0,0,0,0,0,1.71E+09,0, 2024-03-05 16:07:01.432
53,2009.555937,11758.64926,-4580.699453,-8167.707404,-6151.825923,33030.17861,-10624.74526,3950.760239,0.17,0.944,0.142,192,0,0,0,0,0,0,0,0,0,1.71E+09,0, 2024-03-05 16:07:01.432
54,902.5187376,11837.2827,-5089.603971,-8492.455899,-6315.79832,32657.53033,-10579.57239,4005.007923,0.17,0.944,0.142,192,0,0,0,0,0,0,0,0,0,1.71E+09,0, 2024-03-05 16:07:01.432
55,1600.47431,11882.8579,-5385.965751,-8569.122382,-6439.582281,32157.54415,-10580.84644,4001.006961,0.17,0.944,0.142,192,0,0,0,0,0,0,0,0,0,1.71E+09,0, 2024-03-05 16:07:01.432
56,3072.940179,11840.5237,-5121.522262,-8335.390191,-6366.134449,32146.70356,-10619.11263,3948.614472,0.17,0.944,0.142,192,0,0,0,0,0,0,0,0,0,1.71E+09,0, 2024-03-05 16:07:01.432
57,3329.001764,11760.23623,-4609.801425,-8074.455926,-6187.968694,32706.4583,-10645.063,3920.540681,0.17,0.944,0.142,192,0,0,0,0,0,0,0,0,0,1.71E+09,0, 2024-03-05 16:07:01.432
58,2010.740579,11757.08464,-4580.922971,-8155.74922,-6153.412897,33030.53624,-10628.52271,3944.144123,0.17,0.944,0.142,192,0,0,0,0,0,0,0,0,0,1.71E+09,0, 2024-03-05 16:07:01.432
59,909.1572057,11831.04656,-5080.372701,-8481.32473,-6317.228832,32674.89763,-10583.57335,3999.978781,0.17,0.944,0.142,192,0,0,0,0,0,0,0,0,0,1.71E+09,0, 2024-03-05 16:07:01.432
60,1615.874662,11864.10479,-5367.391451,-8557.521827,-6446.936005,32189.55185,-10600.02424,3984.064339,0.17,0.944,0.142,192,5,80,29,128,4,112,0,0,0,1.71E+09,0, 2024-03-05 16:07:01.432
61,3100.119901,11823.73754,-5110.167576,-8333.646754,-6377.064452,32171.24577,-10633.59656,3937.863283,0.17,0.944,0.142,192,0,0,0,0,0,0,0,0,0,1.71E+09,0, 2024-03-05 16:07:01.432
62,3370.710119,11750.04384,-4601.330114,-8076.892266,-6187.991045,32720.42814,-10654.6072,3911.622335,0.17,0.944,0.142,192,0,0,0,0,0,0,0,0,0,1.71E+09,0, 2024-03-05 16:07:01.432
63,2034.187559,11763.32078,-4587.561439,-8166.25454,-6154.306967,33026.51292,-10627.44983,3944.166475,0.17,0.944,0.142,192,0,0,0,0,0,0,0,0,0,1.71E+09,0, 2024-03-05 16:07:01.432
64,933.274738,11826.66562,-5075.924704,-8479.223666,-6314.278402,32687.14639,-10596.4256,3985.49485,0.17,0.944,0.142,192,0,0,0,0,0,0,0,0,0,1.71E+09,0, 2024-03-05 16:07:01.432
65,1608.967973,11872.19612,-5378.410861,-8565.680214,-6442.823284,32189.4848,-10595.62094,3989.272295,0.17,0.944,0.142,192,0,0,0,0,0,0,0,0,0,1.71E+09,0, 2024-03-05 16:07:01.432
66,3079.690406,11832.74529,-5127.534882,-8343.727391,-6370.627149,32159.98049,-10626.55576,3943.674736,0.17,0.944,0.142,192,0,0,0,0,0,0,0,0,0,1.71E+09,0, 2024-03-05 16:07:01.432
67,3355.354471,11756.95053,-4622.273698,-8087.218772,-6192.14847,32706.21243,-10646.15824,3915.0198,0.17,0.944,0.142,192,0,0,0,0,0,0,0,0,0,1.71E+09,0, 2024-03-05 16:07:01.432
68,2027.727905,11762.80669,-4595.988047,-8168.422659,-6147.199112,33018.35454,-10616.56453,3947.742754,0.17,0.944,0.142,192,0,0,0,0,0,0,0,0,0,1.71E+09,0, 2024-03-05 16:07:01.432
69,907.3467144,11834.53343,-5083.993683,-8481.101213,-6301.157928,32682.07254,-10577.87366,3996.626019,0.17,0.944,0.142,192,0,0,0,0,0,0,0,0,0,1.71E+09,0, 2024-03-05 16:07:01.432
70,1574.546286,11875.21361,-5384.021149,-8562.238045,-6433.189682,32193.19519,-10590.74826,3986.277161,0.172,0.95,0.148,192,5,96,29,176,4,160,0,0,0,1.71E+09,0, 2024-03-05 16:07:01.432
71,3071.330854,11837.46151,-5131.200568,-8337.133627,-6366.313263,32169.54704,-10630.69083,3936.54453,0.172,0.95,0.148,192,0,0,0,0,0,0,0,0,0,1.71E+09,0, 2024-03-05 16:07:01.432
72,3385.19405,11755.22944,-4611.678971,-8067.258664,-6178.960941,32731.58166,-10657.04354,3904.425073,0.172,0.95,0.148,192,0,0,0,0,0,0,0,0,0,1.71E+09,0, 2024-03-05 16:07:01.432
73,2085.373054,11761.55499,-4574.619779,-8150.541264,-6142.81817,33056.08428,-10629.32737,3939.226739,0.172,0.95,0.148,192,0,0,0,0,0,0,0,0,0,1.71E+09,0, 2024-03-05 16:07:01.432
74,938.9744328,11833.5276,-5075.321206,-8473.322806,-6300.93441,32703.75373,-10587.12728,3989.942847,0.172,0.95,0.148,192,0,0,0,0,0,0,0,0,0,1.71E+09,0, 2024-03-05 16:07:01.432
75,1606.442226,11868.21751,-5371.2136,-8555.800743,-6426.506511,32215.92691,-10604.1146,3972.396728,0.172,0.95,0.148,192,0,0,0,0,0,0,0,0,0,1.71E+09,0, 2024-03-05 16:07:01.432
76,3093.548488,11829.07961,-5136.408524,-8344.21913,-6367.56496,32170.57522,-10642.04551,3922.373524,0.172,0.95,0.148,192,0,0,0,0,0,0,0,0,0,1.71E+09,0, 2024-03-05 16:07:01.432
77,3410.69739,11757.41991,-4625.402942,-8078.255722,-6178.648016,32714.92961,-10661.42448,3901.899326,0.172,0.95,0.148,192,0,0,0,0,0,0,0,0,0,1.71E+09,0, 2024-03-05 16:07:01.432
78,2108.618868,11763.6784,-4579.179535,-8152.821142,-6128.401295,33042.51677,-10632.65778,3938.019745,0.172,0.95,0.148,192,0,0,0,0,0,0,0,0,0,1.71E+09,0, 2024-03-05 16:07:01.432
79,960.1862383,11831.78417,-5063.251264,-8468.874808,-6280.661378,32711.53214,-10592.04466,3986.992417,0.172,0.95,0.148,192,0,0,0,0,0,0,0,0,0,1.71E+09,0, 2024-03-05 16:07:01.432
80,1596.450996,11874.00661,-5371.951207,-8557.968862,-6413.363685,32216.61982,-10598.21374,3980.711577,0.172,0.944,0.14,192,5,96,29,128,4,96,0,0,0,1.71E+09,0, 2024-03-05 16:07:01.432
81,3072.69431,11839.96491,-5144.67867,-8347.773057,-6351.53876,32159.55581,-10635.87643,3930.174283,0.172,0.944,0.14,192,0,0,0,0,0,0,0,0,0,1.71E+09,0, 2024-03-05 16:07:01.432
82,3399.633276,11762.58317,-4632.980184,-8083.7319,-6169.439098,32693.53899,-10658.56345,3902.45812,0.172,0.944,0.14,192,0,0,0,0,0,0,0,0,0,1.71E+09,0, 2024-03-05 16:07:01.432
83,2104.215575,11761.28677,-4582.219372,-8154.966909,-6122.791007,33021.64024,-10632.47897,3932.252995,0.172,0.944,0.14,192,0,0,0,0,0,0,0,0,0,1.71E+09,0, 2024-03-05 16:07:01.432
84,949.5244562,11830.01838,-5065.777012,-8473.099288,-6283.880029,32695.21537,-10595.75505,3977.247057,0.172,0.944,0.14,192,0,0,0,0,0,0,0,0,0,1.71E+09,0, 2024-03-05 16:07:01.432
85,1570.902952,11871.36911,-5376.287446,-8565.724917,-6421.432665,32197.59848,-10602.1253,3972.240266,0.172,0.944,0.14,192,0,0,0,0,0,0,0,0,0,1.71E+09,0, 2024-03-05 16:07:01.432
86,3036.439781,11833.30409,-5159.1626,-8357.585473,-6362.446411,32135.61709,-10635.38469,3928.922585,0.172,0.944,0.14,192,0,0,0,0,0,0,0,0,0,1.71E+09,0, 2024-03-05 16:07:01.432
87,3396.973419,11753.32955,-4633.248405,-8084.871839,-6178.268037,32685.64882,-10661.35742,3897.317218,0.172,0.944,0.14,192,0,0,0,0,0,0,0,0,0,1.71E+09,0, 2024-03-05 16:07:01.432
88,2112.038685,11748.50157,-4577.346692,-8156.889159,-6134.793894,33025.37299,-10640.74911,3921.345344,0.172,0.944,0.14,192,0,0,0,0,0,0,0,0,0,1.71E+09,0, 2024-03-05 16:07:01.432
89,956.274683,11815.33328,-5061.038442,-8477.144954,-6302.051997,32706.59241,-10605.54512,3968.015786,0.172,0.944,0.14,192,0,0,0,0,0,0,0,0,0,1.71E+09,0, 2024-03-05 16:07:01.432
90,1563.146897,11860.12618,-5376.175687,-8570.75406,-6426.730028,32204.68398,-10609.859,3965.713556,0.166,0.946,0.14,192,5,48,29,144,4,96,0,0,0,1.71E+09,0, 2024-03-05 16:07:01.912
91,3035.948042,11821.9941,-5153.328795,-8364.603921,-6365.262731,32141.4062,-10641.64318,3921.412399,0.166,0.946,0.14,192,0,0,0,0,0,0,0,0,0,1.71E+09,0, 2024-03-05 16:07:01.912
92,3411.479701,11743.29361,-4626.565233,-8088.068138,-6183.140717,32691.7732,-10668.68879,3886.990713,0.166,0.946,0.14,192,0,0,0,0,0,0,0,0,0,1.71E+09,0, 2024-03-05 16:07:01.913
93,2137.34086,11741.68429,-4567.668386,-8154.631633,-6139.666574,33042.38266,-10645.21946,3913.879861,0.166,0.946,0.14,192,0,0,0,0,0,0,0,0,0,1.71E+09,0, 2024-03-05 16:07:01.913
94,964.4777732,11816.09324,-5050.108439,-8474.350986,-6293.938314,32727.55834,-10600.24775,3968.954559,0.166,0.946,0.14,192,0,0,0,0,0,0,0,0,0,1.71E+09,0, 2024-03-05 16:07:01.913
95,1532.480303,11866.27291,-5381.47305,-8580.36531,-6425.970069,32213.40116,-10599.33133,3966.741737,0.166,0.946,0.14,192,0,0,0,0,0,0,0,0,0,1.71E+09,0, 2024-03-05 16:07:01.913
96,3003.381551,11824.31869,-5169.086774,-8374.863371,-6374.583408,32142.16615,-10640.43619,3917.053809,0.166,0.946,0.14,192,0,0,0,0,0,0,0,0,0,1.71E+09,0, 2024-03-05 16:07:01.913
97,3400.05796,11744.83588,-4642.770248,-8093.723129,-6188.393377,32684.17361,-10664.71018,3891.639875,0.166,0.946,0.14,192,0,0,0,0,0,0,0,0,0,1.71E+09,0, 2024-03-05 16:07:01.913
98,2146.281558,11742.19838,-4567.690738,-8149.647194,-6136.939661,33037.10765,-10641.53142,3919.24428,0.166,0.946,0.14,192,0,0,0,0,0,0,0,0,0,1.71E+09,0, 2024-03-05 16:07:01.913
99,978.9840554,11811.0641,-5035.155122,-8462.057526,-6293.915962,32734.7109,-10604.13696,3966.674682,0.166,0.946,0.14,192,0,0,0,0,0,0,0,0,0,1.71E+09,0, 2024-03-05 16:07:01.913
100,1543.007975,11864.06009,-5367.190286,-8567.244836,-6429.501644,32225.53816,-10602.54998,3968.127545,0.16,0.944,0.144,192,5,0,29,128,4,128,0,0,0,1.71E+09,0, 2024-03-05 16:07:01.913
101,3012.769283,11830.46542,-5169.265588,-8368.649586,-6378.740833,32136.55587,-10638.0669,3922.127655,0.16,0.944,0.144,192,0,0,0,0,0,0,0,0,0,1.71E+09,0, 2024-03-05 16:07:01.913
102,3402.069617,11758.47045,-4657.231826,-8094.23722,-6191.410862,32659.87726,-10661.24566,3893.137442,0.16,0.944,0.144,192,0,0,0,0,0,0,0,0,0,1.71E+09,0, 2024-03-05 16:07:01.913
103,2133.004622,11755.09533,-4586.913238,-8154.318709,-6139.040725,33010.39732,-10637.57517,3922.954669,0.16,0.944,0.144,192,0,0,0,0,0,0,0,0,0,1.71E+09,0, 2024-03-05 16:07:01.913
104,950.1950085,11818.88721,-5052.500075,-8465.097364,-6293.826555,32715.15312,-10601.56651,3968.172248,0.16,0.944,0.144,192,0,0,0,0,0,0,0,0,0,1.71E+09,0, 2024-03-05 16:07:01.913
105,1502.976001,11865.78117,-5379.819021,-8567.870685,-6432.474426,32213.91525,-10605.54512,3963.545437,0.16,0.944,0.144,192,0,0,0,0,0,0,0,0,0,1.71E+09,0, 2024-03-05 16:07:01.913
106,2974.994835,11830.62188,-5184.844754,-8375.064537,-6388.262676,32120.03793,-10642.64901,3916.115036,0.16,0.944,0.144,192,0,0,0,0,0,0,0,0,0,1.71E+09,0, 2024-03-05 16:07:01.913
107,3407.635201,11750.17795,-4651.710946,-8089.588057,-6190.852069,32661.55364,-10669.3817,3886.498974,0.16,0.944,0.144,192,0,0,0,0,0,0,0,0,0,1.71E+09,0, 2024-03-05 16:07:01.913
108,2166.241666,11743.85241,-4570.417651,-8148.931938,-6138.772504,33023.56249,-10645.35357,3914.930393,0.16,0.944,0.144,192,0,0,0,0,0,0,0,0,0,1.71E+09,0, 2024-03-05 16:07:01.913
109,955.1347441,11818.35077,-5045.839256,-8464.426811,-6291.345512,32722.05981,-10598.45961,3975.347158,0.16,0.944,0.144,192,0,0,0,0,0,0,0,0,0,1.71E+09,0, 2024-03-05 16:07:01.913
110,1488.156794,11866.36232,-5375.348672,-8568.854161,-6419.890394,32218.47501,-10600.47127,3973.581371,0.16,0.942,0.144,192,5,0,29,112,4,128,0,0,0,1.71E+09,0, 2024-03-05 16:07:01.913
111,2967.886981,11824.07282,-5181.179068,-8379.579589,-6375.946865,32125.24588,-10640.70441,3919.668963,0.16,0.942,0.144,192,0,0,0,0,0,0,0,0,0,1.71E+09,0, 2024-03-05 16:07:01.913
112,3419.503977,11748.00983,-4655.48839,-8099.221659,-6194.540107,32664.45937,-10666.90065,3888.890611,0.16,0.942,0.144,192,0,0,0,0,0,0,0,0,0,1.71E+09,0, 2024-03-05 16:07:01.913
113,2186.313532,11745.12646,-4569.478878,-8148.462552,-6131.731705,33035.11835,-10641.71024,3915.735056,0.16,0.942,0.144,192,0,0,0,0,0,0,0,0,0,1.71E+09,0, 2024-03-05 16:07:01.913
114,980.0345874,11811.91347,-5035.557453,-8460.559959,-6281.220172,32752.25702,-10599.93483,3966.78644,0.16,0.942,0.144,192,0,0,0,0,0,0,0,0,0,1.71E+09,0, 2024-03-05 16:07:01.913
115,1483.664093,11864.59653,-5383.64117,-8577.057252,-6421.544423,32235.41763,-10600.69479,3965.221818,0.16,0.942,0.144,192,0,0,0,0,0,0,0,0,0,1.71E+09,0, 2024-03-05 16:07:01.913
116,2948.15039,11828.72198,-5202.167356,-8386.575685,-6376.170382,32126.69875,-10637.12813,3915.444483,0.16,0.942,0.144,192,0,0,0,0,0,0,0,0,0,1.71E+09,0, 2024-03-05 16:07:01.913
117,3422.677925,11745.86406,-4664.227922,-8097.165298,-6188.661598,32667.90154,-10670.40988,3876.977131,0.16,0.942,0.144,192,0,0,0,0,0,0,0,0,0,1.71E+09,0, 2024-03-05 16:07:01.913
118,2209.648753,11741.41607,-4567.623683,-8143.791037,-6133.408086,33045.15428,-10647.23112,3906.369675,0.16,0.942,0.144,192,0,0,0,0,0,0,0,0,0,1.71E+09,0, 2024-03-05 16:07:01.913
119,986.0025032,11812.40521,-5030.237738,-8460.403497,-6285.310541,32758.89549,-10603.82403,3960.013862,0.16,0.942,0.144,192,0,0,0,0,0,0,0,0,0,1.71E+09,0, 2024-03-05 16:07:01.913
120,1483.529983,11866.42937,-5369.894847,-8573.32451,-6421.522072,32249.07455,-10605.85804,3958.44924,0.162,0.946,0.138,192,5,16,29,144,4,80,0,0,0,1.71E+09,0, 2024-03-05 16:07:01.913
121,2941.668384,11837.99795,-5200.245106,-8393.214153,-6380.908952,32125.84938,-10635.98819,3917.523195,0.162,0.946,0.138,192,0,0,0,0,0,0,0,0,0,1.71E+09,0, 2024-03-05 16:07:01.913
122,3442.34746,11748.9486,-4654.773135,-8090.862106,-6191.142641,32670.47199,-10674.79082,3874.138459,0.162,0.946,0.138,192,0,0,0,0,0,0,0,0,0,1.71E+09,0, 2024-03-05 16:07:01.913
123,2239.130704,11741.9078,-4552.84918,-8134.559767,-6135.039763,33051.88215,-10654.22722,3904.00039,0.162,0.946,0.138,192,0,0,0,0,0,0,0,0,0,1.71E+09,0, 2024-03-05 16:07:01.913
124,994.9655527,11816.71909,-5023.509863,-8451.21693,-6284.952913,32766.60684,-10603.64522,3965.713556,0.162,0.946,0.138,192,0,0,0,0,0,0,0,0,0,1.71E+09,0, 2024-03-05 16:07:01.913
125,1478.74671,11859.67915,-5370.475992,-8569.457658,-6419.130435,32256.31651,-10613.41293,3954.35887,0.162,0.946,0.138,192,0,0,0,0,0,0,0,0,0,1.71E+09,0, 2024-03-05 16:07:01.913
126,2955.168838,11831.62771,-5201.228583,-8389.414357,-6383.434699,32132.68901,-10644.54891,3914.483358,0.162,0.946,0.138,192,0,0,0,0,0,0,0,0,0,1.71E+09,0, 2024-03-05 16:07:01.913
127,3462.709899,11748.16629,-4664.83142,-8093.745481,-6196.998798,32662.98415,-10672.26507,3875.993654,0.162,0.946,0.138,192,0,0,0,0,0,0,0,0,0,1.71E+09,0, 2024-03-05 16:07:01.913
128,2259.403737,11733.43649,-4563.801535,-8141.019421,-6140.89592,33042.38266,-10654.98717,3898.434806,0.162,0.946,0.138,192,0,0,0,0,0,0,0,0,0,1.71E+09,0, 2024-03-05 16:07:01.913
129,998.4077213,11808.89598,-5035.088066,-8462.593968,-6291.278457,32754.31338,-10610.23898,3953.509504,0.162,0.946,0.138,192,0,0,0,0,0,0,0,0,0,1.71E+09,0, 2024-03-05 16:07:01.913
130,1471.929428,11857.44397,-5381.227181,-8576.833734,-6431.133322,32248.82868,-10616.69864,3947.653347,0.162,0.946,0.138,192,0,0,0,0,0,0,0,0,0,1.71E+09,0, 2024-03-05 16:07:01.913
131,2953.492457,11827.91732,-5209.543432,-8396.857488,-6394.85644,32124.39652,-10648.84045,3904.939163,0.164,0.944,0.142,192,5,32,29,128,4,112,0,0,0,1.71E+09,0, 2024-03-05 16:07:01.913
132,3487.945019,11747.78631,-4667.871257,-8097.299409,-6204.866613,32657.7762,-10675.88606,3869.064613,0.164,0.944,0.142,192,0,0,0,0,0,0,0,0,0,1.71E+09,0, 2024-03-05 16:07:01.913
133,2278.223905,11741.75134,-4571.736404,-8145.042735,-6144.785123,33036.79473,-10652.93081,3899.194765,0.164,0.944,0.142,192,0,0,0,0,0,0,0,0,0,1.71E+09,0, 2024-03-05 16:07:01.913
134,999.570012,11816.62969,-5041.346555,-8465.879675,-6291.211401,32753.10639,-10607.17679,3958.248074,0.164,0.944,0.142,192,0,0,0,0,0,0,0,0,0,1.71E+09,0, 2024-03-05 16:07:01.913
135,1439.899378,11858.09217,-5394.906449,-8587.67433,-6432.362668,32238.18925,-10617.95033,3948.301548,0.164,0.944,0.142,192,0,0,0,0,0,0,0,0,0,1.71E+09,0, 2024-03-05 16:07:01.913
136,2921.663573,11829.61605,-5221.971002,-8403.451252,-6387.390958,32112.036,-10647.63345,3907.822538,0.164,0.944,0.142,192,0,0,0,0,0,0,0,0,0,1.71E+09,0, 2024-03-05 16:07:01.913
137,3471.963521,11755.85529,-4675.023815,-8099.48988,-6190.539144,32643.29227,-10671.371,3876.485393,0.164,0.944,0.142,192,0,0,0,0,0,0,0,0,0,1.71E+09,0, 2024-03-05 16:07:01.913
138,2282.962475,11747.76396,-4565.500267,-8135.252671,-6127.462521,33035.09599,-10653.51196,3899.798262,0.164,0.944,0.142,192,0,0,0,0,0,0,0,0,0,1.71E+09,0, 2024-03-05 16:07:01.913
139,1000.553489,11819.73658,-5033.635203,-8458.145971,-6277.398023,32756.14622,-10609.859,3958.873923,0.164,0.944,0.142,192,0,0,0,0,0,0,0,0,0,1.71E+09,0, 2024-03-05 16:07:01.913
140,1427.225939,11866.85406,-5392.201888,-8584.299217,-6420.873871,32235.10471,-10614.32935,3956.839914,0.164,0.944,0.142,192,0,0,0,0,0,0,0,0,0,1.71E+09,0, 2024-03-05 16:07:01.913
141,2899.758863,11836.38863,-5234.040944,-8408.92743,-6386.116908,32095.16044,-10642.69372,3915.511538,0.166,0.94,0.14,192,5,48,29,96,4,96,0,0,0,1.71E+09,0, 2024-03-05 16:07:01.913
142,3477.819679,11744.47825,-4681.170545,-8099.847507,-6193.087243,32639.2019,-10679.7082,3868.595227,0.166,0.94,0.14,192,0,0,0,0,0,0,0,0,0,1.71E+09,0, 2024-03-05 16:07:01.913
143,2298.094606,11739.51617,-4568.048366,-8135.453836,-6128.98244,33034.91718,-10657.11059,3898.971248,0.166,0.94,0.14,192,0,0,0,0,0,0,0,0,0,1.71E+09,0, 2024-03-05 16:07:01.913
144,1027.777914,11807.62193,-5015.195014,-8442.49975,-6274.604055,32780.91196,-10612.94354,3953.040117,0.166,0.94,0.14,192,0,0,0,0,0,0,0,0,0,1.71E+09,0, 2024-03-05 16:07:01.913
145,1424.364915,11862.04843,-5385.56342,-8578.107784,-6423.690191,32253.96958,-10612.09418,3952.548379,0.166,0.94,0.14,192,0,0,0,0,0,0,0,0,0,1.71E+09,0, 2024-03-05 16:07:01.913
146,2883.777366,11836.16511,-5243.696897,-8415.923526,-6398.05274,32093.97579,-10650.11449,3903.888631,0.166,0.94,0.14,192,0,0,0,0,0,0,0,0,0,1.71E+09,0, 2024-03-05 16:07:01.913
147,3459.401841,11756.25762,-4700.214231,-8110.665752,-6208.219374,32621.78989,-10680.80344,3865.063651,0.166,0.94,0.14,192,0,0,0,0,0,0,0,0,0,1.71E+09,0, 2024-03-05 16:07:01.913
148,2316.534795,11740.65611,-4560.02409,-8129.150644,-6131.150559,33044.23786,-10655.38951,3897.250163,0.166,0.94,0.14,192,0,0,0,0,0,0,0,0,0,1.71E+09,0, 2024-03-05 16:07:01.913
149,1048.922664,11804.31387,-5004.421473,-8437.224738,-6273.084137,32801.40851,-10613.25647,3954.291815,0.166,0.94,0.14,192,0,0,0,0,0,0,0,0,0,1.71E+09,0, 2024-03-05 16:07:01.913
150,1439.429991,11853.44301,-5375.080451,-8576.453754,-6421.589127,32278.89178,-10620.07375,3950.581425,0.166,0.94,0.14,192,0,0,0,0,0,0,0,0,0,1.71E+09,0, 2024-03-05 16:07:01.913
151,2888.337122,11840.479,-5243.741601,-8421.176186,-6390.117871,32106.02338,-10642.98429,3916.874995,0.172,0.942,0.138,192,5,96,29,112,4,80,0,0,0,1.71E+09,0, 2024-03-05 16:07:01.913
152,3460.362966,11766.67354,-4713.245298,-8117.348923,-6192.237877,32615.91138,-10666.40892,3881.022797,0.172,0.942,0.138,192,0,0,0,0,0,0,0,0,0,1.71E+09,0, 2024-03-05 16:07:01.913
153,2322.972098,11743.56183,-4568.09307,-8129.910604,-6116.130187,33041.71211,-10654.0484,3893.852698,0.172,0.942,0.138,192,0,0,0,0,0,0,0,0,0,1.71E+09,0, 2024-03-05 16:07:01.913
154,1055.91876,11801.25169,-4994.787871,-8433.469645,-6258.77902,32819.37931,-10618.37502,3946.334594,0.172,0.942,0.138,192,0,0,0,0,0,0,0,0,0,1.71E+09,0, 2024-03-05 16:07:01.913
155,1401.946116,11862.60722,-5383.440004,-8586.936723,-6407.507528,32275.33785,-10609.61313,3956.616397,0.172,0.942,0.138,192,0,0,0,0,0,0,0,0,0,1.71E+09,0, 2024-03-05 16:07:01.913
156,2835.832874,11844.30115,-5262.04768,-8428.909889,-6380.596027,32092.58999,-10638.6257,3917.880823,0.172,0.942,0.138,192,0,0,0,0,0,0,0,0,0,1.71E+09,0, 2024-03-05 16:07:01.913
157,3466.196771,11751.11672,-4702.985847,-8107.625915,-6191.388511,32628.83069,-10683.26213,3864.236637,0.172,0.942,0.138,192,0,0,0,0,0,0,0,0,0,1.71E+09,0, 2024-03-05 16:07:01.913
158,2346.664947,11742.10897,-4552.066869,-8119.718208,-6116.487815,33055.39138,-10661.67035,3889.181183,0.172,0.942,0.138,192,0,0,0,0,0,0,0,0,0,1.71E+09,0, 2024-03-05 16:07:01.913
159,1029.700164,11815.26623,-5008.377732,-8440.041058,-6260.075421,32798.23456,-10607.98146,3957.68928,0.172,0.942,0.138,192,0,0,0,0,0,0,0,0,0,1.71E+09,0, 2024-03-05 16:07:01.913
160,1363.81404,11869.96095,-5389.474975,-8581.058214,-6405.585278,32267.04535,-10606.6627,3959.253902,0.172,0.942,0.138,192,0,0,0,0,0,0,0,0,0,1.71E+09,0, 2024-03-05 16:07:01.913
161,2827.920357,11831.47124,-5248.793095,-8421.042075,-6385.714577,32104.57052,-10646.44881,3907.19669,0.164,0.946,0.138,192,5,32,29,144,4,80,0,0,0,1.71E+09,0, 2024-03-05 16:07:01.913
162,3476.210353,11744.65707,-4697.017932,-8108.922316,-6198.786938,32631.02116,-10685.49731,3857.754631,0.164,0.946,0.138,192,0,0,0,0,0,0,0,0,0,1.71E+09,0, 2024-03-05 16:07:01.913
163,2359.047813,11731.38013,-4559.577055,-8132.592813,-6134.995059,33051.90451,-10668.48763,3879.279361,0.164,0.946,0.138,192,0,0,0,0,0,0,0,0,0,1.71E+09,0, 2024-03-05 16:07:01.913
164,1047.939187,11803.79978,-4999.504089,-8441.672735,-6274.849924,32812.94201,-10619.78318,3941.707783,0.164,0.946,0.138,192,0,0,0,0,0,0,0,0,0,1.71E+09,0, 2024-03-05 16:07:01.913
165,1373.805269,11857.51103,-5383.283542,-8588.166069,-6425.232461,32285.15026,-10619.4032,3945.060545,0.164,0.946,0.138,192,0,0,0,0,0,0,0,0,0,1.71E+09,0, 2024-03-05 16:07:01.913
166,2801.321781,11832.41002,-5271.502468,-8440.979831,-6404.490042,32090.9136,-10648.08049,3900.222945,0.164,0.946,0.138,192,0,0,0,0,0,0,0,0,0,1.71E+09,0, 2024-03-05 16:07:01.913
167,3461.659367,11740.90198,-4713.133539,-8121.998086,-6207.347656,32612.06688,-10687.19604,3852.949006,0.164,0.946,0.138,192,0,0,0,0,0,0,0,0,0,1.71E+09,0, 2024-03-05 16:07:01.913
168,2339.266519,11735.4705,-4566.461392,-8137.912528,-6131.329373,33027.31759,-10661.20096,3886.744843,0.164,0.946,0.138,192,0,0,0,0,0,0,0,0,0,1.71E+09,0, 2024-03-05 16:07:01.913
169,1034.416382,11799.99999,-4989.177583,-8433.648459,-6266.624482,32808.58342,-10616.72099,3943.294757,0.164,0.946,0.138,192,0,0,0,0,0,0,0,0,0,1.71E+09,0, 2024-03-05 16:07:01.913
170,1332.141618,11863.5907,-5385.853992,-8586.221467,-6418.906917,32269.32523,-10604.00285,3958.873923,0.164,0.946,0.138,192,0,0,0,0,0,0,0,0,0,1.71E+09,0, 2024-03-05 16:07:01.913
171,2762.675615,11844.72583,-5279.213819,-8435.928337,-6397.002208,32070.21589,-10634.64709,3916.763236,0.164,0.94,0.142,192,5,32,29,96,4,112,0,0,0,1.71E+09,0, 2024-03-05 16:07:01.913
172,3456.116135,11746.3558,-4708.216156,-8107.69297,-6202.765549,32605.18254,-10683.32919,3858.671052,0.164,0.94,0.142,192,0,0,0,0,0,0,0,0,0,1.71E+09,0, 2024-03-05 16:07:01.913
173,2384.595857,11726.86508,-4538.834636,-8111.492766,-6128.535405,33053.67029,-10668.91231,3880.55341,0.164,0.94,0.142,192,0,0,0,0,0,0,0,0,0,1.71E+09,0, 2024-03-05 16:07:01.913
174,1076.057682,11795.97667,-4967.027005,-8418.896308,-6266.848,32833.10328,-10623.53827,3940.031402,0.164,0.94,0.142,192,0,0,0,0,0,0,0,0,0,1.71E+09,0, 2024-03-05 16:07:01.913
175,1355.186266,11856.84047,-5371.906504,-8580.074737,-6418.370476,32288.68184,-10617.12332,3946.356946,0.164,0.94,0.142,192,0,0,0,0,0,0,0,0,0,1.71E+09,0, 2024-03-05 16:07:01.913
176,2779.618237,11838.80262,-5279.772613,-8441.426866,-6406.12172,32075.15562,-10639.98915,3913.499881,0.164,0.94,0.142,192,0,0,0,0,0,0,0,0,0,1.71E+09,0, 2024-03-05 16:07:01.913
177,3458.686585,11754.29067,-4728.198615,-8117.661848,-6202.430272,32583.05431,-10674.67906,3869.489297,0.164,0.94,0.142,192,0,0,0,0,0,0,0,0,0,1.71E+09,0, 2024-03-05 16:07:01.913
178,2397.626924,11725.85925,-4549.094087,-8115.940763,-6121.114626,33034.26898,-10669.51581,3878.742919,0.164,0.94,0.142,192,0,0,0,0,0,0,0,0,0,1.71E+09,0, 2024-03-05 16:07:01.913
179,1083.009074,11793.49563,-4977.197048,-8425.378314,-6262.265892,32820.83217,-10621.97365,3936.857454,0.164,0.94,0.142,192,0,0,0,0,0,0,0,0,0,1.71E+09,0, 2024-03-05 16:07:01.913
180,1353.487534,11849.75497,-5379.394338,-8584.522734,-6418.728103,32291.56521,-10624.03001,3936.119847,0.164,0.94,0.142,192,0,0,0,0,0,0,0,0,0,1.71E+09,0, 2024-03-05 16:07:01.913
181,2785.496746,11827.67145,-5285.606418,-8444.757276,-6411.083807,32088.43256,-10653.08728,3899.015951,0.168,0.938,0.142,192,5,64,29,80,4,112,0,0,0,1.71E+09,0, 2024-03-05 16:07:01.913
182,3478.937266,11755.9894,-4741.4532,-8126.066104,-6213.829662,32588.30697,-10680.49052,3862.448497,0.168,0.938,0.142,192,0,0,0,0,0,0,0,0,0,1.71E+09,0, 2024-03-05 16:07:01.913
183,2400.867927,11739.33735,-4569.63534,-8122.355714,-6127.618984,33025.70826,-10662.65382,3885.783718,0.168,0.938,0.142,192,0,0,0,0,0,0,0,0,0,1.71E+09,0, 2024-03-05 16:07:01.913
184,1090.161632,11796.02138,-4974.313673,-8415.744712,-6255.806238,32835.00318,-10623.87355,3936.253957,0.168,0.938,0.142,192,0,0,0,0,0,0,0,0,0,1.71E+09,0, 2024-03-05 16:07:01.913
185,1323.759714,11860.46146,-5388.893829,-8584.902714,-6412.782539,32287.34073,-10611.96007,3948.837989,0.168,0.938,0.142,192,0,0,0,0,0,0,0,0,0,1.71E+09,0, 2024-03-05 16:07:01.913
186,2770.409318,11831.40419,-5284.60059,-8438.185863,-6403.3054,32087.58319,-10647.94638,3899.910021,0.168,0.938,0.142,192,0,0,0,0,0,0,0,0,0,1.71E+09,0, 2024-03-05 16:07:01.913
187,3479.741929,11759.20805,-4743.911891,-8124.792054,-6213.114406,32578.02517,-10675.1708,3863.700195,0.168,0.938,0.142,192,0,0,0,0,0,0,0,0,0,1.71E+09,0, 2024-03-05 16:07:01.913
188,2399.638581,11744.52296,-4576.43027,-8127.451912,-6128.155426,33008.2292,-10654.16016,3887.929486,0.168,0.938,0.142,192,0,0,0,0,0,0,0,0,0,1.71E+09,0, 2024-03-05 16:07:01.913
189,1081.623266,11795.97667,-4974.425432,-8416.661133,-6257.348509,32828.96821,-10620.92312,3935.225777,0.168,0.938,0.142,192,0,0,0,0,0,0,0,0,0,1.71E+09,0, 2024-03-05 16:07:01.913
190,1319.714048,11858.94154,-5380.914257,-8582.041691,-6415.509452,32291.47581,-10616.87745,3942.534797,0.168,0.938,0.142,192,0,0,0,0,0,0,0,0,0,1.71E+09,0, 2024-03-05 16:07:01.913
191,2750.82919,11842.4683,-5296.335256,-8444.399648,-6406.25583,32070.93115,-10641.46437,3908.381332,0.178,0.94,0.148,192,5,144,29,96,4,160,0,0,0,1.71E+09,0, 2024-03-05 16:07:01.913
192,3485.955714,11764.59482,-4741.766124,-8117.6842,-6209.940459,32571.81139,-10670.76751,3866.538866,0.178,0.94,0.148,192,0,0,0,0,0,0,0,0,0,1.71E+09,0, 2024-03-05 16:07:01.913
193,2446.465486,11740.54435,-4555.866665,-8110.576345,-6127.686039,33026.78114,-10658.13877,3884.487317,0.178,0.94,0.148,192,0,0,0,0,0,0,0,0,0,1.71E+09,0, 2024-03-05 16:07:01.913
194,1117.766037,11798.81535,-4957.706327,-8407.385159,-6255.381555,32843.83212,-10620.11845,3932.297699,0.178,0.94,0.148,192,0,0,0,0,0,0,0,0,0,1.71E+09,0, 2024-03-05 16:07:01.913
195,1334.756772,11859.36622,-5367.458507,-8577.593693,-6413.140167,32309.71483,-10614.88815,3941.976004,0.178,0.94,0.148,192,0,0,0,0,0,0,0,0,0,1.71E+09,0, 2024-03-05 16:07:01.913
196,2754.830152,11838.95908,-5293.071901,-8446.187788,-6404.981781,32083.7834,-10637.88809,3910.214175,0.178,0.94,0.148,192,0,0,0,0,0,0,0,0,0,1.71E+09,0, 2024-03-05 16:07:01.913
197,3496.03635,11764.48307,-4749.209255,-8123.383894,-6210.923935,32570.78321,-10669.15818,3872.618541,0.178,0.94,0.148,192,0,0,0,0,0,0,0,0,0,1.71E+09,0, 2024-03-05 16:07:01.913
198,2458.758945,11744.47825,-4560.135849,-8112.18567,-6121.069923,33018.98039,-10655.03188,3891.461061,0.178,0.94,0.148,192,0,0,0,0,0,0,0,0,0,1.71E+09,0, 2024-03-05 16:07:01.913
199,1109.630002,11803.66567,-4961.215551,-8412.011971,-6250.598282,32837.35011,-10611.93772,3945.887559,0.178,0.94,0.148,192,0,0,0,0,0,0,0,0,0,1.71E+09,0, 2024-03-05 16:07:01.913
200,1294.300114,11862.76369,-5377.62855,-8585.819135,-6409.45213,32300.12593,-10606.05921,3950.693184,0.178,0.94,0.148,192,0,0,0,0,0,0,0,0,0,1.71E+09,0, 2024-03-05 16:07:01.913
201,2741.799085,11833.25938,-5286.567543,-8442.522102,-6405.160595,32094.82516,-10645.44298,3901.765216,0.182,0.932,0.142,192,5,176,29,32,4,112,0,0,0,1.71E+09,0, 2024-03-05 16:07:01.913
202,3529.496912,11752.52488,-4729.517368,-8113.59383,-6212.64502,32603.48381,-10682.99391,3856.234712,0.182,0.932,0.142,192,0,0,0,0,0,0,0,0,0,1.71E+09,0, 2024-03-05 16:07:01.913
203,2492.26421,11738.33153,-4553.318566,-8116.365447,-6129.36242,33045.84718,-10660.79863,3882.900343,0.182,0.932,0.142,192,0,0,0,0,0,0,0,0,0,1.71E+09,0, 2024-03-05 16:07:01.913
204,1135.714488,11799.37414,-4950.218493,-8409.016837,-6251.47,32866.51914,-10618.24091,3936.723344,0.182,0.932,0.142,192,0,0,0,0,0,0,0,0,0,1.71E+09,0, 2024-03-05 16:07:01.913
205,1299.820995,11864.44007,-5371.839448,-8583.159278,-6404.802967,32322.65649,-10606.55094,3949.575597,0.182,0.932,0.142,192,0,0,0,0,0,0,0,0,0,1.71E+09,0, 2024-03-05 16:07:01.913
206,2731.7408,11841.03779,-5294.413006,-8443.192654,-6401.89724,32097.99911,-10645.15241,3899.932373,0.182,0.932,0.142,192,0,0,0,0,0,0,0,0,0,1.71E+09,0, 2024-03-05 16:07:01.913
207,3528.200511,11757.64343,-4738.927452,-8116.857185,-6216.668334,32589.04458,-10686.23491,3848.322195,0.182,0.932,0.142,192,0,0,0,0,0,0,0,0,0,1.71E+09,0, 2024-03-05 16:07:01.913
208,2500.489652,11735.98459,-4556.157238,-8118.868842,-6133.966879,33025.84237,-10667.19123,3871.098622,0.182,0.932,0.142,192,0,0,0,0,0,0,0,0,0,1.71E+09,0, 2024-03-05 16:07:01.913
209,1125.142112,11803.30805,-4962.824877,-8419.05277,-6258.220227,32835.62903,-10618.46442,3930.420152,0.182,0.932,0.142,192,0,0,0,0,0,0,0,0,0,1.71E+09,0, 2024-03-05 16:07:01.913
210,1268.528553,11863.47894,-5390.592562,-8595.072758,-6418.862214,32295.09679,-10611.84831,3939.249091,0.182,0.932,0.142,192,0,0,0,0,0,0,0,0,0,1.71E+09,0, 2024-03-05 16:07:02.393
211,2679.817698,11849.68792,-5320.743361,-8460.291739,-6414.525976,32061.11873,-10637.39635,3905.050922,0.172,0.934,0.138,192,5,96,29,48,4,80,0,0,0,1.71E+09,0, 2024-03-05 16:07:02.393
212,3517.091694,11754.6483,-4743.017822,-8116.03017,-6217.025962,32574.56065,-10690.88408,3843.65068,0.172,0.934,0.138,192,0,0,0,0,0,0,0,0,0,1.71E+09,0, 2024-03-05 16:07:02.393
213,2508.446873,11731.73776,-4557.051308,-8120.321705,-6136.760847,33017.8628,-10674.09792,3866.807087,0.172,0.934,0.138,192,0,0,0,0,0,0,0,0,0,1.71E+09,0, 2024-03-05 16:07:02.393
214,1139.111953,11794.30029,-4950.665528,-8413.666,-6261.59534,32845.41909,-10628.92504,3922.485283,0.172,0.934,0.138,192,0,0,0,0,0,0,0,0,0,1.71E+09,0, 2024-03-05 16:07:02.393
215,1272.775385,11857.57808,-5381.517754,-8588.18842,-6421.387961,32313.64874,-10617.99504,3933.996431,0.172,0.934,0.138,192,0,0,0,0,0,0,0,0,0,1.71E+09,0, 2024-03-05 16:07:02.393
216,2680.823526,11840.74722,-5327.493587,-8463.733907,-6428.67463,32075.71442,-10647.0076,3892.690407,0.172,0.934,0.138,192,0,0,0,0,0,0,0,0,0,1.71E+09,0, 2024-03-05 16:07:02.393
217,3493.756472,11763.6784,-4776.321921,-8137.532549,-6241.121142,32554.51114,-10684.67029,3845.036488,0.172,0.934,0.138,192,0,0,0,0,0,0,0,0,0,1.71E+09,0, 2024-03-05 16:07:02.393
218,2500.824928,11738.95737,-4569.098898,-8124.456778,-6147.400278,33001.97071,-10665.82777,3866.762384,0.172,0.934,0.138,192,0,0,0,0,0,0,0,0,0,1.71E+09,0, 2024-03-05 16:07:02.393
219,1133.658127,11797.96598,-4944.876426,-8410.380293,-6262.668224,32843.07216,-10618.62089,3926.150969,0.172,0.934,0.138,192,0,0,0,0,0,0,0,0,0,1.71E+09,0, 2024-03-05 16:07:02.393
220,1243.226378,11860.68497,-5373.605236,-8591.608237,-6423.600784,32316.26389,-10610.26133,3938.779704,0.172,0.934,0.138,192,0,0,0,0,0,0,0,0,0,1.71E+09,0, 2024-03-05 16:07:02.393
221,2632.811979,11845.73166,-5330.376962,-8472.920474,-6430.59688,32070.84174,-10638.33513,3904.827405,0.156,0.944,0.142,192,4,224,29,128,4,112,0,0,0,1.71E+09,0, 2024-03-05 16:07:02.393
222,3460.92176,11760.28094,-4780.233476,-8142.516988,-6232.113389,32548.00678,-10680.04348,3853.954834,0.156,0.944,0.142,192,0,0,0,0,0,0,0,0,0,1.71E+09,0, 2024-03-05 16:07:02.393
223,2506.457568,11741.50547,-4551.776296,-8113.839699,-6127.730742,33015.33705,-10661.87151,3875.747785,0.156,0.944,0.142,192,0,0,0,0,0,0,0,0,0,1.71E+09,0, 2024-03-05 16:07:02.393
224,1153.506476,11800.51408,-4916.579117,-8392.342435,-6241.99286,32869.67073,-10619.69377,3930.576614,0.156,0.944,0.142,192,0,0,0,0,0,0,0,0,0,1.71E+09,0, 2024-03-05 16:07:02.393
225,1246.802657,11863.25542,-5351.298195,-8578.308949,-6409.049798,32334.16764,-10614.75403,3939.226739,0.156,0.944,0.142,192,0,0,0,0,0,0,0,0,0,1.71E+09,0, 2024-03-05 16:07:02.393
226,2628.900424,11852.03485,-5318.575241,-8462.504561,-6419.957449,32073.92628,-10641.44202,3904.156852,0.156,0.944,0.142,192,0,0,0,0,0,0,0,0,0,1.71E+09,0, 2024-03-05 16:07:02.393
227,3482.468841,11763.92427,-4768.945845,-8127.630726,-6226.704267,32547.33623,-10685.13968,3849.260968,0.156,0.944,0.142,192,0,0,0,0,0,0,0,0,0,1.71E+09,0, 2024-03-05 16:07:02.393
228,2532.676164,11739.38206,-4550.144619,-8108.564688,-6131.150559,33000.04846,-10671.95215,3864.862486,0.156,0.944,0.142,192,0,0,0,0,0,0,0,0,0,1.71E+09,0, 2024-03-05 16:07:02.393
229,1168.683311,11791.90866,-4916.176786,-8392.65536,-6245.636194,32853.30926,-10636.83756,3912.047018,0.156,0.944,0.142,192,0,0,0,0,0,0,0,0,0,1.71E+09,0, 2024-03-05 16:07:02.393
230,1234.106867,11865.33414,-5362.76464,-8583.360444,-6415.822377,32311.36886,-10620.63254,3933.772914,0.156,0.944,0.142,192,0,0,0,0,0,0,0,0,0,1.71E+09,0, 2024-03-05 16:07:02.393
231,2612.136616,11854.27002,-5333.126227,-8464.091535,-6428.987554,32056.17899,-10640.45854,3903.016913,0.158,0.932,0.138,192,4,240,29,32,4,80,0,0,0,1.71E+09,0, 2024-03-05 16:07:02.393
232,3469.482478,11771.83679,-4785.374377,-8132.68222,-6238.52834,32524.87272,-10678.3671,3856.234712,0.158,0.932,0.138,192,0,0,0,0,0,0,0,0,0,1.71E+09,0, 2024-03-05 16:07:02.393
233,2523.936632,11740.81257,-4565.723785,-8114.286734,-6144.628661,32981.3177,-10666.85595,3869.869276,0.158,0.932,0.138,192,0,0,0,0,0,0,0,0,0,1.71E+09,0, 2024-03-05 16:07:02.393
234,1161.195476,11788.44414,-4921.429446,-8393.728244,-6257.527322,32851.54347,-10633.28363,3911.845852,0.158,0.932,0.138,192,0,0,0,0,0,0,0,0,0,1.71E+09,0, 2024-03-05 16:07:02.393
235,1232.050506,11849.79967,-5360.417707,-8583.271037,-6428.562871,32327.08214,-10630.73553,3917.567899,0.158,0.932,0.138,192,0,0,0,0,0,0,0,0,0,1.71E+09,0, 2024-03-05 16:07:02.393
236,2616.495206,11832.1865,-5335.629622,-8474.01571,-6448.746496,32070.68528,-10662.16208,3877.98296,0.158,0.932,0.138,192,0,0,0,0,0,0,0,0,0,1.71E+09,0, 2024-03-05 16:07:02.393
237,3479.63017,11760.97384,-4802.920497,-8151.055354,-6260.947139,32520.55884,-10694.01332,3833.547692,0.158,0.932,0.138,192,0,0,0,0,0,0,0,0,0,1.71E+09,0, 2024-03-05 16:07:02.393
238,2568.506011,11733.74942,-4558.973558,-8116.097226,-6149.769562,32999.95905,-10679.23882,3850.669128,0.158,0.932,0.138,192,0,0,0,0,0,0,0,0,0,1.71E+09,0, 2024-03-05 16:07:02.393
239,1202.546203,11789.9417,-4908.934821,-8392.901229,-6262.467058,32878.49967,-10638.31277,3902.21225,0.158,0.932,0.138,192,0,0,0,0,0,0,0,0,0,1.71E+09,0, 2024-03-05 16:07:02.393
240,1218.661811,11861.6014,-5368.173762,-8596.63738,-6430.619232,32330.88193,-10614.55287,3929.615489,0.158,0.932,0.138,192,0,0,0,0,0,0,0,0,0,1.71E+09,0, 2024-03-05 16:07:02.393
241,2556.078441,11849.08442,-5361.691756,-8495.026349,-6444.700831,32048.33353,-10637.44106,3899.664152,0.162,0.942,0.132,192,5,16,29,112,4,32,0,0,0,1.71E+09,0, 2024-03-05 16:07:02.393
242,3468.454298,11763.25372,-4795.879697,-8144.126313,-6241.501122,32533.5005,-10687.79954,3838.219206,0.162,0.942,0.132,192,0,0,0,0,0,0,0,0,0,1.71E+09,0, 2024-03-05 16:07:02.393
243,2599.753749,11729.14496,-4541.382735,-8103.557897,-6133.899824,33028.7928,-10683.61976,3844.120067,0.162,0.942,0.132,192,0,0,0,0,0,0,0,0,0,1.71E+09,0, 2024-03-05 16:07:02.393
244,1249.90955,11782.29741,-4885.756062,-8380.652473,-6247.424334,32921.28091,-10645.26417,3894.098567,0.162,0.942,0.132,192,0,0,0,0,0,0,0,0,0,1.71E+09,0, 2024-03-05 16:07:02.393
245,1237.034945,11860.05913,-5359.881265,-8598.69374,-6425.657144,32362.15202,-10623.80649,3921.345344,0.162,0.942,0.132,192,0,0,0,0,0,0,0,0,0,1.71E+09,0, 2024-03-05 16:07:02.393
246,2555.877275,11861.35553,-5372.934684,-8504.302323,-6438.66586,32055.59785,-10640.25738,3900.446463,0.162,0.942,0.132,192,0,0,0,0,0,0,0,0,0,1.71E+09,0, 2024-03-05 16:07:02.393
247,3476.94796,11772.28382,-4816.622116,-8152.351755,-6236.851959,32527.30906,-10689.14064,3836.878101,0.162,0.942,0.132,192,0,0,0,0,0,0,0,0,0,1.71E+09,0, 2024-03-05 16:07:02.393
248,2616.29404,11735.44815,-4554.525561,-8107.469452,-6133.005754,33021.68495,-10686.21256,3841.460209,0.162,0.942,0.132,192,0,0,0,0,0,0,0,0,0,1.71E+09,0, 2024-03-05 16:07:02.393
249,1253.686995,11785.87369,-4891.813385,-8384.742842,-6246.284395,32911.24498,-10639.56447,3901.340532,0.162,0.942,0.132,192,0,0,0,0,0,0,0,0,0,1.71E+09,0, 2024-03-05 16:07:02.393
250,1238.688974,11856.05816,-5356.506152,-8592.681121,-6418.973973,32367.27057,-10622.82301,3929.459027,0.162,0.942,0.132,192,0,0,0,0,0,0,0,0,0,1.71E+09,0, 2024-03-05 16:07:02.393
251,2599.016142,11839.24965,-5348.236006,-8490.93598,-6443.806761,32088.34315,-10658.4517,3885.962532,0.172,0.948,0.134,192,5,96,29,160,4,48,0,0,0,1.71E+09,0, 2024-03-05 16:07:02.393
252,3510.788502,11759.1857,-4813.649334,-8163.706441,-6257.616729,32531.42178,-10692.82868,3838.420372,0.172,0.948,0.134,192,0,0,0,0,0,0,0,0,0,1.71E+09,0, 2024-03-05 16:07:02.393
253,2643.630224,11734.75525,-4558.303005,-8114.398493,-6140.51594,33020.81323,-10677.51773,3854.603035,0.172,0.948,0.134,192,0,0,0,0,0,0,0,0,0,1.71E+09,0, 2024-03-05 16:07:02.393
254,1282.319579,11789.31585,-4887.343036,-8381.25597,-6244.272738,32924.81249,-10633.99889,3912.382294,0.172,0.948,0.134,192,0,0,0,0,0,0,0,0,0,1.71E+09,0, 2024-03-05 16:07:02.393
255,1241.617053,11857.93571,-5356.215579,-8594.402205,-6418.54929,32371.38329,-10622.26422,3926.061562,0.172,0.948,0.134,192,0,0,0,0,0,0,0,0,0,1.71E+09,0, 2024-03-05 16:07:02.393
0,2582.118223,11853.59947,-5364.999815,-8497.552097,-6447.785371,32074.798,-10651.00856,3892.288076,0.172,0.948,0.134,192,0,0,0,0,0,0,0,0,0,1.71E+09,0, 2024-03-05 16:07:02.393
1,3513.180138,11773.46847,-4828.021506,-8156.464476,-6257.88495,32521.85524,-10692.09107,3839.113276,0.172,0.948,0.134,192,0,0,0,0,0,0,0,0,0,1.71E+09,0, 2024-03-05 16:07:02.393
2,2697.162652,11735.69402,-4543.416744,-8091.800879,-6135.710315,33041.22037,-10683.75387,3846.802276,0.172,0.948,0.134,192,0,0,0,0,0,0,0,0,0,1.71E+09,0, 2024-03-05 16:07:02.393
3,1326.061943,11787.23714,-4878.625855,-8365.900322,-6244.920939,32944.97376,-10641.2632,3900.580573,0.172,0.948,0.134,192,0,0,0,0,0,0,0,0,0,1.71E+09,0, 2024-03-05 16:07:02.393
4,1263.521762,11859.7462,-5356.193227,-8586.13206,-6417.968144,32393.2433,-10624.94643,3920.004239,0.172,0.948,0.134,192,0,0,0,0,0,0,0,0,0,1.71E+09,0, 2024-03-05 16:07:02.393
5,2573.870429,11854.04651,-5377.785012,-8502.201259,-6448.165351,32077.3908,-10645.04065,3896.4455,0.172,0.934,0.138,192,5,96,29,48,4,80,0,0,0,1.71E+09,0, 2024-03-05 16:07:02.393
6,3514.74476,11775.94951,-4834.972898,-8158.878465,-6255.873293,32520.91646,-10688.80536,3842.75661,0.172,0.934,0.138,192,0,0,0,0,0,0,0,0,0,1.71E+09,0, 2024-03-05 16:07:02.393
7,2713.233556,11731.35778,-4546.56834,-8094.438385,-6136.380868,33050.49635,-10690.68291,3845.371764,0.172,0.934,0.138,192,0,0,0,0,0,0,0,0,0,1.71E+09,0, 2024-03-05 16:07:02.393
8,1347.698432,11775.03309,-4868.724032,-8361.832304,-6243.065744,32975.77446,-10651.34384,3897.160756,0.172,0.934,0.138,192,0,0,0,0,0,0,0,0,0,1.71E+09,0, 2024-03-05 16:07:02.393
9,1254.826934,11856.23698,-5357.355518,-8594.379854,-6417.65522,32412.24228,-10626.28753,3923.021725,0.172,0.934,0.138,192,0,0,0,0,0,0,0,0,0,1.71E+09,0, 2024-03-05 16:07:02.393
10,2559.520609,11847.38569,-5384.758757,-8513.667704,-6449.282938,32086.91264,-10652.52848,3884.934352,0.172,0.934,0.138,192,0,0,0,0,0,0,0,0,0,1.71E+09,0, 2024-03-05 16:07:02.393
11,3524.154845,11761.48793,-4836.112837,-8164.801677,-6260.120125,32534.05929,-10699.5342,3825.165787,0.172,0.934,0.138,192,0,0,0,0,0,0,0,0,0,1.71E+09,0, 2024-03-05 16:07:02.393
12,2724.588242,11729.32377,-4550.234026,-8099.065196,-6141.253548,33054.16203,-10685.18438,3839.850883,0.172,0.934,0.138,192,0,0,0,0,0,0,0,0,0,1.71E+09,0, 2024-03-05 16:07:02.393
13,1343.876284,11783.12442,-4873.68612,-8365.900322,-6241.367011,32971.37117,-10642.02316,3890.902268,0.172,0.934,0.138,192,0,0,0,0,0,0,0,0,0,1.71E+09,0, 2024-03-05 16:07:02.393
14,1253.128201,11851.14078,-5352.952224,-8589.909505,-6416.492929,32419.93128,-10629.86381,3908.537794,0.172,0.934,0.138,192,0,0,0,0,0,0,0,0,0,1.71E+09,0, 2024-03-05 16:07:02.393
15,2559.922941,11842.31184,-5386.21162,-8510.337294,-6445.930176,32091.36064,-10652.66259,3879.771099,0.172,0.934,0.138,192,0,0,0,0,0,0,0,0,0,1.71E+09,0, 2024-03-05 16:07:02.393
16,3547.825342,11754.87182,-4837.118666,-8160.823066,-6255.180389,32540.22837,-10701.25529,3819.913127,0.172,0.936,0.144,192,5,96,29,64,4,128,0,0,0,1.71E+09,0, 2024-03-05 16:07:02.393
17,2759.054632,11726.4851,-4550.636357,-8098.238182,-6136.559681,33060.21935,-10687.73248,3840.32027,0.172,0.936,0.144,192,0,0,0,0,0,0,0,0,0,1.71E+09,0, 2024-03-05 16:07:02.393
18,1389.250325,11776.06127,-4861.213846,-8358.479543,-6229.989973,32993.74527,-10647.74521,3892.310428,0.172,0.936,0.144,192,0,0,0,0,0,0,0,0,0,1.71E+09,0, 2024-03-05 16:07:02.393
19,1263.901742,11849.24088,-5353.175742,-8592.435252,-6407.440473,32428.67082,-10629.41678,3914.751579,0.172,0.936,0.144,192,0,0,0,0,0,0,0,0,0,1.71E+09,0, 2024-03-05 16:07:02.393
20,2575.211534,11842.71417,-5376.354501,-8504.77171,-6436.922423,32107.81152,-10660.86568,3877.044186,0.172,0.936,0.144,192,0,0,0,0,0,0,0,0,0,1.71E+09,0, 2024-03-05 16:07:02.393
21,3556.587226,11772.08266,-4845.165294,-8162.208874,-6248.564273,32533.00876,-10697.03081,3827.624479,0.172,0.936,0.144,192,0,0,0,0,0,0,0,0,0,1.71E+09,0, 2024-03-05 16:07:02.393
22,2783.596847,11733.41414,-4549.116439,-8090.929161,-6123.126283,33056.24074,-10687.50896,3833.190064,0.172,0.936,0.144,192,0,0,0,0,0,0,0,0,0,1.71E+09,0, 2024-03-05 16:07:02.393
23,1400.984991,11784.59964,-4855.715317,-8351.997537,-6221.406903,32992.38181,-10643.43132,3892.131614,0.172,0.936,0.144,192,0,0,0,0,0,0,0,0,0,1.71E+09,0, 2024-03-05 16:07:02.393
24,1246.95912,11859.41092,-5356.059117,-8592.994045,-6411.664952,32423.12758,-10624.87938,3918.305507,0.172,0.936,0.144,192,0,0,0,0,0,0,0,0,0,1.71E+09,0, 2024-03-05 16:07:02.393
25,2526.797655,11850.87256,-5397.923934,-8517.623963,-6443.695002,32086.62207,-10652.0591,3880.285189,0.172,0.936,0.144,192,0,0,0,0,0,0,0,0,0,1.71E+09,0, 2024-03-05 16:07:02.393
26,3532.268528,11778.98935,-4853.860122,-8167.52859,-6254.509837,32520.82706,-10697.00845,3825.45636,0.166,0.93,0.14,192,5,48,29,16,4,96,0,0,0,1.71E+09,0, 2024-03-05 16:07:02.393
27,2776.891324,11744.4112,-4552.513904,-8093.030225,-6135.956184,33051.43512,-10688.78301,3834.41941,0.166,0.93,0.14,192,0,0,0,0,0,0,0,0,0,1.71E+09,0, 2024-03-05 16:07:02.393
28,1388.624476,11788.22062,-4860.431535,-8360.535903,-6236.270813,32988.71612,-10649.39924,3886.990713,0.166,0.93,0.14,192,0,0,0,0,0,0,0,0,0,1.71E+09,0, 2024-03-05 16:07:02.393
29,1217.968907,11860.30499,-5361.289425,-8600.638342,-6412.603726,32423.26169,-10629.50619,3910.907079,0.166,0.93,0.14,192,0,0,0,0,0,0,0,0,0,1.71E+09,0, 2024-03-05 16:07:02.393
30,2508.558632,11842.28949,-5401.388455,-8524.642411,-6455.675537,32090.37716,-10662.27384,3867.388233,0.166,0.93,0.14,192,0,0,0,0,0,0,0,0,0,1.71E+09,0, 2024-03-05 16:07:02.393
31,3524.065438,11766.1371,-4867.964073,-8181.431375,-6274.02291,32511.14875,-10705.54682,3813.632287,0.166,0.93,0.14,192,0,0,0,0,0,0,0,0,0,1.71E+09,0, 2024-03-05 16:07:02.393
32,2797.611391,11729.99432,-4558.191247,-8102.485013,-6141.119437,33045.69072,-10693.72275,3829.882005,0.166,0.93,0.14,192,0,0,0,0,0,0,0,0,0,1.71E+09,0, 2024-03-05 16:07:02.393
33,1429.55052,11779.68225,-4847.691041,-8356.40083,-6232.940404,33000.31668,-10647.67815,3884.174393,0.166,0.93,0.14,192,0,0,0,0,0,0,0,0,0,1.71E+09,0, 2024-03-05 16:07:02.393
34,1258.649082,11853.10773,-5335.294346,-8592.614066,-6416.671743,32449.18972,-10631.31668,3903.978038,0.166,0.93,0.14,192,0,0,0,0,0,0,0,0,0,1.71E+09,0, 2024-03-05 16:07:02.393
35,2522.304955,11849.86673,-5397.298085,-8531.526748,-6463.543351,32094.91457,-10655.47891,3873.534962,0.166,0.93,0.14,192,0,0,0,0,0,0,0,0,0,1.71E+09,0, 2024-03-05 16:07:02.393
36,3545.277243,11778.74348,-4868.366405,-8187.332235,-6269.530209,32503.03507,-10693.00749,3824.271718,0.168,0.934,0.132,192,5,64,29,48,4,32,0,0,0,1.71E+09,0, 2024-03-05 16:07:02.393
37,2840.750258,11736.36457,-4539.035802,-8091.957342,-6133.072809,33054.60907,-10692.4487,3820.293107,0.168,0.934,0.132,192,0,0,0,0,0,0,0,0,0,1.71E+09,0, 2024-03-05 16:07:02.393
38,1477.584419,11783.57146,-4822.366514,-8342.453342,-6231.152264,33027.38464,-10656.66356,3866.650625,0.168,0.934,0.132,192,0,0,0,0,0,0,0,0,0,1.71E+09,0, 2024-03-05 16:07:02.393
39,1268.394443,11850.73845,-5333.774428,-8595.117461,-6419.018676,32460.85733,-10641.37496,3889.851736,0.168,0.934,0.132,192,0,0,0,0,0,0,0,0,0,1.71E+09,0, 2024-03-05 16:07:02.393
40,2496.846318,11855.83465,-5418.264022,-8546.971804,-6470.539447,32076.89906,-10659.34577,3867.052956,0.168,0.934,0.132,192,0,0,0,0,0,0,0,0,0,1.71E+09,0, 2024-03-05 16:07:02.393
41,3511.079074,11784.17495,-4898.027169,-8204.520727,-6279.879067,32466.10999,-10694.01332,3821.61186,0.168,0.934,0.132,192,0,0,0,0,0,0,0,0,0,1.71E+09,0, 2024-03-05 16:07:02.393
42,2829.23911,11743.07009,-4551.06104,-8096.405339,-6140.493589,33032.30203,-10692.94044,3825.210491,0.168,0.934,0.132,192,0,0,0,0,0,0,0,0,0,1.71E+09,0, 2024-03-05 16:07:02.393
43,1461.826439,11789.36056,-4821.584203,-8340.866368,-6228.425351,33016.16407,-10650.62858,3878.720567,0.168,0.934,0.132,192,0,0,0,0,0,0,0,0,0,1.71E+09,0, 2024-03-05 16:07:02.393
44,1224.808541,11857.1087,-5335.33905,-8600.548935,-6419.376304,32446.86514,-10634.46827,3898.725378,0.168,0.934,0.132,192,0,0,0,0,0,0,0,0,0,1.71E+09,0, 2024-03-05 16:07:02.393
45,2460.278864,11854.27002,-5418.979277,-8549.050516,-6471.411165,32068.04777,-10658.40699,3869.511648,0.168,0.934,0.132,192,0,0,0,0,0,0,0,0,0,1.71E+09,0, 2024-03-05 16:07:02.393
46,3521.383228,11769.55691,-4885.487841,-8196.921134,-6280.862544,32481.24212,-10704.71981,3806.993819,0.17,0.944,0.13,192,5,80,29,128,4,16,0,0,0,1.71E+09,0, 2024-03-05 16:07:02.393
47,2850.070935,11732.2742,-4546.769505,-8099.422824,-6146.506208,33043.38849,-10695.98027,3815.778055,0.17,0.944,0.13,192,0,0,0,0,0,0,0,0,0,1.71E+09,0, 2024-03-05 16:07:02.393
48,1478.634951,11776.08362,-4815.593936,-8340.307574,-6225.318459,33035.2301,-10652.59554,3870.42807,0.17,0.944,0.13,192,0,0,0,0,0,0,0,0,0,1.71E+09,0, 2024-03-05 16:07:02.393
49,1228.38482,11851.34195,-5328.968803,-8598.894906,-6407.708693,32472.23437,-10631.20492,3900.66998,0.17,0.944,0.13,192,0,0,0,0,0,0,0,0,0,1.71E+09,0, 2024-03-05 16:07:02.393
50,2440.251701,11859.90266,-5418.308725,-8552.939719,-6457.798953,32075.73677,-10648.05813,3879.14525,0.17,0.944,0.13,192,0,0,0,0,0,0,0,0,0,1.71E+09,0, 2024-03-05 16:07:02.393
51,3494.739949,11784.37612,-4898.608315,-8199.648046,-6268.882009,32467.92048,-10693.00749,3823.757627,0.17,0.944,0.13,192,0,0,0,0,0,0,0,0,0,1.71E+09,0, 2024-03-05 16:07:02.393
52,2861.716194,11733.61531,-4544.534331,-8084.24599,-6130.01062,33052.86563,-10697.56725,3819.30963,0.17,0.944,0.13,192,0,0,0,0,0,0,0,0,0,1.71E+09,0, 2024-03-05 16:07:02.393
53,1503.400684,11774.63076,-4806.005038,-8326.918879,-6220.691648,33059.05706,-10658.96579,3871.031567,0.17,0.944,0.13,192,0,0,0,0,0,0,0,0,0,1.71E+09,0, 2024-03-05 16:07:02.393
54,1226.59668,11851.99015,-5328.410009,-8594.670426,-6409.563888,32483.03026,-10633.93183,3902.346361,0.17,0.944,0.13,192,0,0,0,0,0,0,0,0,0,1.71E+09,0, 2024-03-05 16:07:02.393
55,2421.878567,11858.22628,-5426.221243,-8551.777429,-6464.862104,32078.6872,-10653.48961,3875.591323,0.17,0.944,0.13,192,0,0,0,0,0,0,0,0,0,1.71E+09,0, 2024-03-05 16:07:02.393
56,3500.77492,11778.27409,-4897.066044,-8200.653875,-6278.180334,32467.40639,-10704.6751,3809.653677,0.184,0.944,0.124,192,5,192,29,128,3,224,0,0,0,1.71E+09,0, 2024-03-05 16:07:02.393
57,2882.436261,11741.46077,-4544.981366,-8085.542391,-6134.74919,33043.72377,-10697.32138,3820.024886,0.184,0.944,0.124,192,0,0,0,0,0,0,0,0,0,1.71E+09,0, 2024-03-05 16:07:02.393
58,1543.678527,11777.04475,-4791.521107,-8312.054969,-6217.852976,33074.34566,-10665.67131,3862.627311,0.184,0.944,0.124,192,0,0,0,0,0,0,0,0,0,1.71E+09,0, 2024-03-05 16:07:02.393
59,1248.434335,11857.8463,-5324.721971,-8590.758871,-6412.067284,32495.99427,-10634.64709,3903.598059,0.184,0.944,0.124,192,0,0,0,0,0,0,0,0,0,1.71E+09,0, 2024-03-05 16:07:02.393
60,2413.07198,11861.26612,-5441.666298,-8563.288577,-6467.387851,32068.85243,-10654.49544,3876.127765,0.184,0.944,0.124,192,0,0,0,0,0,0,0,0,0,1.71E+09,0, 2024-03-05 16:07:02.393
61,3486.670969,11783.12442,-4923.619917,-8211.270954,-6280.035529,32446.97689,-10702.97637,3813.229956,0.184,0.944,0.124,192,0,0,0,0,0,0,0,0,0,1.71E+09,0, 2024-03-05 16:07:02.393
62,2932.973556,11726.64156,-4530.43038,-8068.62212,-6128.60246,33067.886,-10716.29801,3800.668275,0.184,0.944,0.124,192,0,0,0,0,0,0,0,0,0,1.71E+09,0, 2024-03-05 16:07:02.393
63,1595.445167,11771.59092,-4775.293741,-8305.327094,-6221.026924,33100.43014,-10677.78595,3850.557369,0.184,0.944,0.124,192,0,0,0,0,0,0,0,0,0,1.71E+09,0, 2024-03-05 16:07:02.393
64,1279.324446,11855.36526,-5306.907631,-8583.673368,-6407.52988,32522.23522,-10638.44688,3892.355131,0.184,0.944,0.124,192,0,0,0,0,0,0,0,0,0,1.71E+09,0, 2024-03-05 16:07:02.393
65,2427.4218,11864.17185,-5435.877196,-8563.668557,-6469.868895,32084.16338,-10654.11546,3875.591323,0.184,0.944,0.124,192,0,0,0,0,0,0,0,0,0,1.71E+09,0, 2024-03-05 16:07:02.393
66,3509.112121,11788.66765,-4919.283678,-8210.84627,-6281.84602,32457.50457,-10702.95402,3813.006438,0.186,0.938,0.126,192,5,208,29,80,3,240,0,0,0,1.71E+09,0, 2024-03-05 16:07:02.393
67,2939.164989,11740.47729,-4543.953186,-8077.182839,-6138.101952,33061.06872,-10704.94332,3813.073494,0.186,0.938,0.126,192,0,0,0,0,0,0,0,0,0,1.71E+09,0, 2024-03-05 16:07:02.393
68,1594.908726,11777.46943,-4780.904029,-8306.288219,-6219.015267,33100.56425,-10673.04738,3857.307596,0.186,0.938,0.126,192,0,0,0,0,0,0,0,0,0,1.71E+09,0, 2024-03-05 16:07:02.393
69,1259.789021,11859.23211,-5312.160291,-8587.920199,-6406.948734,32528.00197,-10640.45854,3898.054826,0.186,0.938,0.126,192,0,0,0,0,0,0,0,0,0,1.71E+09,0, 2024-03-05 16:07:02.393
70,2423.286727,11864.10479,-5428.8811,-8559.73465,-6465.040918,32103.0506,-10661.53624,3871.07627,0.186,0.938,0.126,192,0,0,0,0,0,0,0,0,0,1.71E+09,0, 2024-03-05 16:07:02.393
71,3522.389057,11784.37612,-4921.720019,-8213.349666,-6278.873238,32469.55216,-10710.30774,3807.910241,0.186,0.938,0.126,192,0,0,0,0,0,0,0,0,0,1.71E+09,0, 2024-03-05 16:07:02.393
72,2941.578977,11744.23239,-4562.549837,-8093.141984,-6134.190397,33050.96573,-10701.36704,3818.639078,0.186,0.938,0.126,192,0,0,0,0,0,0,0,0,0,1.71E+09,0, 2024-03-05 16:07:02.393
73,1611.314906,11777.53648,-4773.23738,-8303.360141,-6201.312685,33108.72264,-10665.98423,3863.342567,0.186,0.938,0.126,192,0,0,0,0,0,0,0,0,0,1.71E+09,0, 2024-03-05 16:07:02.393
74,1260.303111,11857.22045,-5310.059227,-8594.33515,-6400.578487,32528.96309,-10637.99985,3893.338608,0.186,0.938,0.126,192,0,0,0,0,0,0,0,0,0,1.71E+09,0, 2024-03-05 16:07:02.873
75,2378.270314,11873.71604,-5454.518551,-8579.739461,-6463.386889,32068.31599,-10646.71703,3880.285189,0.186,0.938,0.126,192,0,0,0,0,0,0,0,0,0,1.71E+09,0, 2024-03-05 16:07:02.873
76,3488.503812,11793.0486,-4938.886158,-8223.743227,-6277.845058,32430.28014,-10696.47201,3819.868424,0.178,0.946,0.126,192,5,144,29,144,3,240,0,0,0,1.71E+09,0, 2024-03-05 16:07:02.873
77,2966.031786,11737.52686,-4544.802552,-8080.870876,-6131.709353,33046.98712,-10704.27277,3810.659505,0.178,0.946,0.126,192,0,0,0,0,0,0,0,0,0,1.71E+09,0, 2024-03-05 16:07:02.873
78,1624.368325,11778.56467,-4774.13145,-8306.735254,-6214.924898,33097.2562,-10669.06877,3856.838209,0.178,0.946,0.126,192,0,0,0,0,0,0,0,0,0,1.71E+09,0, 2024-03-05 16:07:02.873
79,1257.106812,11853.9571,-5314.283706,-8594.893944,-6412.357856,32522.32462,-10642.96194,3885.694311,0.178,0.946,0.126,192,0,0,0,0,0,0,0,0,0,1.71E+09,0, 2024-03-05 16:07:02.873
80,2388.820337,11859.99207,-5450.942272,-8582.086394,-6479.569552,32068.51716,-10658.40699,3865.287169,0.178,0.946,0.126,192,0,0,0,0,0,0,0,0,0,1.71E+09,0, 2024-03-05 16:07:02.874
81,3505.312324,11786.41013,-4939.93669,-8230.82873,-6295.748805,32422.92642,-10705.50212,3809.385456,0.178,0.946,0.126,192,0,0,0,0,0,0,0,0,0,1.71E+09,0, 2024-03-05 16:07:02.874
82,2984.53903,11741.95251,-4552.402145,-8083.418975,-6142.840522,33038.44876,-10702.7305,3813.073494,0.178,0.946,0.126,192,0,0,0,0,0,0,0,0,0,1.71E+09,0, 2024-03-05 16:07:02.874
83,1647.032994,11776.62006,-4770.644578,-8298.375702,-6213.092054,33105.16871,-10669.29229,3858.849866,0.178,0.946,0.126,192,0,0,0,0,0,0,0,0,0,1.71E+09,0, 2024-03-05 16:07:02.874
84,1266.874524,11852.23601,-5305.052436,-8585.75208,-6407.507528,32533.83577,-10642.04551,3893.182146,0.178,0.946,0.126,192,0,0,0,0,0,0,0,0,0,1.71E+09,0, 2024-03-05 16:07:02.874
85,2400.867927,11858.96389,-5437.039487,-8573.391565,-6472.104069,32077.83783,-10661.20096,3866.360052,0.178,0.946,0.126,192,0,0,0,0,0,0,0,0,0,1.71E+09,0, 2024-03-05 16:07:02.874
86,3515.057685,11787.05833,-4938.103847,-8234.114436,-6290.652608,32412.89048,-10710.86654,3800.824738,0.178,0.94,0.136,192,5,144,29,96,4,64,0,0,0,1.71E+09,0, 2024-03-05 16:07:02.874
87,3005.68378,11741.1702,-4554.279691,-8088.425766,-6140.180664,33021.41673,-10716.56623,3800.310648,0.178,0.94,0.136,192,0,0,0,0,0,0,0,0,0,1.71E+09,0, 2024-03-05 16:07:02.874
88,1667.663654,11777.87176,-4764.587255,-8297.056949,-6204.19606,33101.7936,-10674.63436,3853.753669,0.178,0.94,0.136,192,0,0,0,0,0,0,0,0,0,1.71E+09,0, 2024-03-05 16:07:02.874
89,1296.602344,11836.54509,-5284.846459,-8580.36531,-6395.661103,32550.04079,-10660.08337,3870.003387,0.178,0.94,0.136,192,0,0,0,0,0,0,0,0,0,1.71E+09,0, 2024-03-05 16:07:02.874
90,2425.968936,11846.40221,-5429.350487,-8578.57717,-6470.83002,32086.15268,-10676.33309,3852.636081,0.178,0.94,0.136,192,0,0,0,0,0,0,0,0,0,1.71E+09,0, 2024-03-05 16:07:02.874
91,3549.546426,11783.63851,-4940.69665,-8234.874396,-6286.606942,32415.03625,-10718.19791,3802.322305,0.178,0.94,0.136,192,0,0,0,0,0,0,0,0,0,1.71E+09,0, 2024-03-05 16:07:02.874
92,3065.050014,11735.76107,-4547.73063,-8081.139097,-6133.85512,33040.86274,-10723.8529,3795.527374,0.178,0.94,0.136,192,0,0,0,0,0,0,0,0,0,1.71E+09,0, 2024-03-05 16:07:02.874
93,1715.92107,11775.36837,-4764.721366,-8294.821774,-6210.253383,33125.12882,-10685.51966,3845.818799,0.178,0.94,0.136,192,0,0,0,0,0,0,0,0,0,1.71E+09,0, 2024-03-05 16:07:02.874
94,1280.486736,11855.87935,-5312.719084,-8596.950304,-6405.540574,32538.12731,-10650.40507,3885.604904,0.178,0.94,0.136,192,0,0,0,0,0,0,0,0,0,1.71E+09,0, 2024-03-05 16:07:02.874
95,2403.97482,11856.01346,-5448.438877,-8584.120403,-6471.47822,32078.32957,-10669.85108,3855.452401,0.178,0.94,0.136,192,0,0,0,0,0,0,0,0,0,1.71E+09,0, 2024-03-05 16:07:02.874
96,3546.841865,11783.12442,-4956.72285,-8243.725687,-6295.860564,32408.666,-10717.59441,3795.527374,0.19,0.936,0.136,192,5,240,29,64,4,64,0,0,0,1.71E+09,0, 2024-03-05 16:07:02.874
97,3071.129688,11732.14009,-4557.945378,-8084.536563,-6139.755981,33040.14749,-10722.48944,3793.001627,0.19,0.936,0.136,192,0,0,0,0,0,0,0,0,0,1.71E+09,0, 2024-03-05 16:07:02.874
98,1713.194157,11765.04186,-4769.25877,-8299.806213,-6208.219374,33127.83338,-10686.1008,3838.040392,0.19,0.936,0.136,192,0,0,0,0,0,0,0,0,0,1.71E+09,0, 2024-03-05 16:07:02.874
99,1268.99794,11842.24479,-5315.267183,-8600.1019,-6398.522126,32547.00095,-10656.88707,3874.943122,0.19,0.936,0.136,192,0,0,0,0,0,0,0,0,0,1.71E+09,0, 2024-03-05 16:07:02.874
100,2390.943753,11846.73749,-5456.440801,-8590.87063,-6463.722165,32078.50839,-10680.64698,3845.528227,0.19,0.936,0.136,192,0,0,0,0,0,0,0,0,0,1.71E+09,0, 2024-03-05 16:07:02.874
101,3540.024583,11780.41986,-4969.753917,-8251.347631,-6282.74009,32393.55622,-10721.88595,3790.699397,0.19,0.936,0.136,192,0,0,0,0,0,0,0,0,0,1.71E+09,0, 2024-03-05 16:07:02.874
102,3091.112148,11723.19939,-4561.253436,-8087.039958,-6124.422684,33036.41475,-10729.32908,3784.954999,0.19,0.936,0.136,192,0,0,0,0,0,0,0,0,0,1.71E+09,0, 2024-03-05 16:07:02.874
103,1737.758724,11758.5375,-4766.777726,-8294.419443,-6191.410862,33142.47377,-10695.22031,3835.045258,0.19,0.936,0.136,192,0,0,0,0,0,0,0,0,0,1.71E+09,0, 2024-03-05 16:07:02.874
104,1274.675283,11844.99405,-5313.166119,-8597.66556,-6379.433737,32563.36243,-10653.48961,3883.012102,0.19,0.936,0.136,192,0,0,0,0,0,0,0,0,0,1.71E+09,0, 2024-03-05 16:07:02.874
105,2380.52784,11853.51006,-5456.329042,-8587.495516,-6443.180912,32091.27123,-10672.06391,3857.799334,0.19,0.936,0.136,192,0,0,0,0,0,0,0,0,0,1.71E+09,0, 2024-03-05 16:07:02.874
106,3549.099392,11774.02726,-4964.478906,-8243.144541,-6270.267817,32412.26463,-10725.194,3789.917086,0.198,0.932,0.134,192,6,48,29,32,4,48,0,0,0,1.71E+09,0, 2024-03-05 16:07:02.874
107,3098.421168,11723.46762,-4566.707261,-8083.977769,-6119.594707,33046.24951,-10729.53024,3785.73731,0.198,0.932,0.134,192,0,0,0,0,0,0,0,0,0,1.71E+09,0, 2024-03-05 16:07:02.874
108,1745.961815,11756.12351,-4761.770935,-8284.718786,-6183.475993,33157.42709,-10698.26015,3829.971412,0.198,0.932,0.134,192,0,0,0,0,0,0,0,0,0,1.71E+09,0, 2024-03-05 16:07:02.874
109,1281.55962,11832.07474,-5302.593744,-8590.602409,-6381.512449,32589.35751,-10672.26507,3864.370747,0.198,0.932,0.134,192,0,0,0,0,0,0,0,0,0,1.71E+09,0, 2024-03-05 16:07:02.874
110,2347.402554,11849.10677,-5473.85281,-8604.214621,-6461.35288,32079.9836,-10683.48565,3847.986918,0.198,0.932,0.134,192,0,0,0,0,0,0,0,0,0,1.71E+09,0, 2024-03-05 16:07:02.874
111,3489.844917,11784.7561,-4998.095929,-8267.910274,-6285.824631,32364.4319,-10723.2047,3793.381607,0.198,0.932,0.134,192,0,0,0,0,0,0,0,0,0,1.71E+09,0, 2024-03-05 16:07:02.874
112,3059.797354,11733.14592,-4580.699453,-8089.141022,-6122.232213,33008.45271,-10727.56329,3789.715921,0.198,0.932,0.134,192,0,0,0,0,0,0,0,0,0,1.71E+09,0, 2024-03-05 16:07:02.874
113,1701.504195,11768.75225,-4774.600837,-8288.563286,-6182.090185,33120.09968,-10689.14064,3840.119104,0.198,0.932,0.134,192,0,0,0,0,0,0,0,0,0,1.71E+09,0, 2024-03-05 16:07:02.874
114,1225.814369,11834.55579,-5304.873622,-8588.5684,-6371.297702,32558.98149,-10666.34186,3865.17541,0.198,0.932,0.134,192,0,0,0,0,0,0,0,0,0,1.71E+09,0, 2024-03-05 16:07:02.874
115,2286.784623,11858.56156,-5475.283322,-8601.308894,-6453.328604,32053.31797,-10675.05904,3850.624424,0.198,0.932,0.134,192,0,0,0,0,0,0,0,0,0,1.71E+09,0, 2024-03-05 16:07:02.874
116,3459.044213,11785.15843,-4992.306828,-8258.857818,-6282.09189,32351.75846,-10721.21539,3786.005531,0.194,0.93,0.128,192,6,16,29,16,4,0,0,0,0,1.71E+09,0, 2024-03-05 16:07:02.874
117,3040.66426,11729.83786,-4583.113442,-8092.583191,-6124.847367,32985.43042,-10727.80916,3780.149374,0.194,0.93,0.128,192,0,0,0,0,0,0,0,0,0,1.71E+09,0, 2024-03-05 16:07:02.874
118,1710.802521,11751.27319,-4754.90895,-8283.556495,-6181.687854,33117.93156,-10704.29512,3815.308668,0.194,0.93,0.128,192,0,0,0,0,0,0,0,0,0,1.71E+09,0, 2024-03-05 16:07:02.874
119,1200.869823,11829.28077,-5306.952334,-8602.560592,-6381.601856,32545.50338,-10678.30004,3849.305671,0.194,0.93,0.128,192,0,0,0,0,0,0,0,0,0,1.71E+09,0, 2024-03-05 16:07:02.874
120,2252.608806,11851.49841,-5484.000502,-8616.396322,-6458.648319,32039.77281,-10686.59254,3834.9335,0.194,0.93,0.128,192,0,0,0,0,0,0,0,0,0,1.71E+09,0, 2024-03-05 16:07:02.874
121,3423.728457,11789.2488,-5014.770331,-8278.214428,-6286.137555,32320.1531,-10723.91995,3780.171726,0.194,0.93,0.128,192,0,0,0,0,0,0,0,0,0,1.71E+09,0, 2024-03-05 16:07:02.874
122,3038.138513,11729.6814,-4584.029863,-8092.873763,-6121.941641,32971.34882,-10732.92771,3770.247551,0.194,0.93,0.128,192,0,0,0,0,0,0,0,0,0,1.71E+09,0, 2024-03-05 16:07:02.874
123,1713.86471,11759.99037,-4744.582444,-8278.706167,-6173.708281,33119.0715,-10699.4895,3825.501064,0.194,0.93,0.128,192,0,0,0,0,0,0,0,0,0,1.71E+09,0, 2024-03-05 16:07:02.874
124,1177.892229,11841.8201,-5301.856137,-8593.619894,-6372.974083,32548.94555,-10664.17374,3869.534,0.194,0.93,0.128,192,0,0,0,0,0,0,0,0,0,1.71E+09,0, 2024-03-05 16:07:02.874
125,2218.18712,11851.85604,-5485.587476,-8609.243764,-6461.978729,32048.66881,-10682.39041,3844.053011,0.194,0.93,0.128,192,0,0,0,0,0,0,0,0,0,1.71E+09,0, 2024-03-05 16:07:02.874
126,3410.518576,11779.0564,-5015.440883,-8274.571094,-6296.687579,32332.69242,-10728.07738,3782.026921,0.192,0.936,0.124,192,6,0,29,64,3,224,0,0,0,1.71E+09,0, 2024-03-05 16:07:02.874
127,3056.086964,11721.9477,-4577.726671,-8085.922371,-6133.922176,32985.60923,-10742.3825,3766.224237,0.192,0.936,0.124,192,0,0,0,0,0,0,0,0,0,1.71E+09,0, 2024-03-05 16:07:02.874
128,1745.917111,11745.93112,-4732.288984,-8270.972463,-6185.755871,33141.33384,-10712.49821,3807.083226,0.192,0.936,0.124,192,0,0,0,0,0,0,0,0,0,1.71E+09,0, 2024-03-05 16:07:02.874
129,1193.739616,11827.98437,-5291.842555,-8596.011531,-6382.026539,32567.4975,-10672.39918,3853.753669,0.192,0.936,0.124,192,0,0,0,0,0,0,0,0,0,1.71E+09,0, 2024-03-05 16:07:02.874
130,2210.609878,11851.63252,-5491.287171,-8619.749083,-6471.657034,32042.96911,-10679.30587,3844.924729,0.192,0.936,0.124,192,0,0,0,0,0,0,0,0,0,1.71E+09,0, 2024-03-05 16:07:02.874
131,3387.339817,11786.72305,-5032.383505,-8282.97535,-6302.499032,32307.3679,-10719.91899,3787.637208,0.192,0.936,0.124,192,0,0,0,0,0,0,0,0,0,1.71E+09,0, 2024-03-05 16:07:02.874
132,3061.451383,11721.9477,-4580.453584,-8086.950551,-6136.984365,32974.83569,-10737.04043,3769.755813,0.192,0.936,0.124,192,0,0,0,0,0,0,0,0,0,1.71E+09,0, 2024-03-05 16:07:02.874
133,1743.905454,11752.81546,-4731.484322,-8272.268864,-6185.733519,33136.52821,-10700.1824,3816.135683,0.192,0.936,0.124,192,0,0,0,0,0,0,0,0,0,1.71E+09,0, 2024-03-05 16:07:02.874
134,1190.878593,11836.56744,-5277.112755,-8588.456641,-6377.086804,32587.61407,-10661.46918,3861.800297,0.192,0.936,0.124,192,0,0,0,0,0,0,0,0,0,1.71E+09,0, 2024-03-05 16:07:02.874
135,2205.916012,11852.57129,-5473.808107,-8612.887098,-6467.454906,32077.54726,-10672.89092,3847.003442,0.192,0.936,0.124,192,0,0,0,0,0,0,0,0,0,1.71E+09,0, 2024-03-05 16:07:02.874
136,3384.858773,11785.91839,-5022.168758,-8283.757661,-6299.772119,32331.0831,-10717.99674,3785.916124,0.18,0.95,0.104,192,5,160,29,176,3,64,0,0,0,1.71E+09,0, 2024-03-05 16:07:02.874
137,3063.97713,11727.31212,-4567.780145,-8088.559877,-6131.441132,32983.46346,-10729.79846,3772.393319,0.18,0.95,0.104,192,0,0,0,0,0,0,0,0,0,1.71E+09,0, 2024-03-05 16:07:02.874
138,1773.007425,11748.65803,-4698.448443,-8255.773277,-6176.837525,33165.38431,-10704.5857,3808.15611,0.18,0.95,0.104,192,0,0,0,0,0,0,0,0,0,1.71E+09,0, 2024-03-05 16:07:02.874
139,1213.632669,11825.101,-5251.877636,-8578.733632,-6379.813716,32616.53723,-10673.56147,3850.266796,0.18,0.95,0.104,192,0,0,0,0,0,0,0,0,0,1.71E+09,0, 2024-03-05 16:07:02.874
140,2193.957829,11853.55477,-5476.311502,-8622.386589,-6472.662863,32073.88158,-10678.50121,3847.316366,0.18,0.95,0.104,192,0,0,0,0,0,0,0,0,0,1.71E+09,0, 2024-03-05 16:07:02.874
141,3398.314523,11776.59771,-5018.324258,-8284.987007,-6304.175413,32334.8829,-10727.16096,3783.390377,0.18,0.95,0.104,192,0,0,0,0,0,0,0,0,0,1.71E+09,0, 2024-03-05 16:07:02.874
142,3093.123805,11727.28976,-4562.639244,-8085.765908,-6134.525673,32989.43138,-10725.194,3779.881153,0.18,0.95,0.104,192,0,0,0,0,0,0,0,0,0,1.71E+09,0, 2024-03-05 16:07:02.874
143,1803.025818,11745.97582,-4685.015045,-8251.593501,-6182.313702,33173.92268,-10704.56334,3809.340752,0.18,0.95,0.104,192,0,0,0,0,0,0,0,0,0,1.71E+09,0, 2024-03-05 16:07:02.874
144,1215.82314,11822.97758,-5248.904854,-8583.874534,-6385.424004,32616.62663,-10666.94536,3855.631215,0.18,0.95,0.104,192,0,0,0,0,0,0,0,0,0,1.71E+09,0, 2024-03-05 16:07:02.874
145,2200.261021,11846.51397,-5468.46604,-8622.900679,-6475.009796,32084.83393,-10679.12706,3845.170599,0.18,0.95,0.104,192,0,0,0,0,0,0,0,0,0,1.71E+09,0, 2024-03-05 16:07:02.874
146,3411.613811,11775.99421,-5025.186244,-8294.911181,-6316.714742,32327.2386,-10732.99476,3777.623627,0.18,0.95,0.104,192,0,0,0,0,0,0,0,0,0,1.71E+09,0, 2024-03-05 16:07:02.874
147,3135.502712,11718.48318,-4561.655767,-8091.152679,-6146.28269,32990.59367,-10743.16481,3765.352519,0.178,0.95,0.108,192,5,144,29,176,3,96,0,0,0,1.71E+09,0, 2024-03-05 16:07:02.874
148,1838.945072,11748.88155,-4681.997559,-8254.521579,-6185.331188,33182.79632,-10706.10561,3811.263002,0.178,0.95,0.108,192,0,0,0,0,0,0,0,0,0,1.71E+09,0, 2024-03-05 16:07:02.874
149,1230.485884,11829.75016,-5242.758124,-8587.875496,-6389.380263,32624.74032,-10666.07364,3857.553465,0.178,0.95,0.108,192,0,0,0,0,0,0,0,0,0,1.71E+09,0, 2024-03-05 16:07:02.874
150,2223.708001,11843.51883,-5454.496199,-8621.537223,-6494.031131,32099.2061,-10687.10663,3834.128837,0.178,0.95,0.108,192,0,0,0,0,0,0,0,0,0,1.71E+09,0, 2024-03-05 16:07:02.874
151,3434.27848,11781.00101,-5019.620659,-8302.421367,-6334.998469,32327.66328,-10727.38448,3779.635284,0.178,0.95,0.108,192,0,0,0,0,0,0,0,0,0,1.71E+09,0, 2024-03-05 16:07:02.874
152,3165.051718,11719.93604,-4558.884151,-8096.338284,-6156.877417,32993.72291,-10738.60505,3766.023072,0.178,0.95,0.108,192,0,0,0,0,0,0,0,0,0,1.71E+09,0, 2024-03-05 16:07:02.874
153,1869.857534,11744.59001,-4679.762385,-8258.522541,-6189.689778,33194.37452,-10705.61388,3808.603145,0.178,0.95,0.108,192,0,0,0,0,0,0,0,0,0,1.71E+09,0, 2024-03-05 16:07:02.874
154,1242.064088,11830.62188,-5245.105057,-8592.323493,-6389.179097,32638.6431,-10662.47501,3860.794468,0.178,0.95,0.108,192,0,0,0,0,0,0,0,0,0,1.71E+09,0, 2024-03-05 16:07:02.874
155,2203.122044,11858.13688,-5469.225999,-8627.840415,-6475.345072,32097.28385,-10669.11348,3850.535017,0.178,0.95,0.108,192,0,0,0,0,0,0,0,0,0,1.71E+09,0, 2024-03-05 16:07:02.874
156,3446.102553,11784.59964,-5016.759636,-8292.251324,-6309.316314,32340.29202,-10724.56816,3784.552668,0.178,0.95,0.108,192,0,0,0,0,0,0,0,0,0,1.71E+09,0, 2024-03-05 16:07:02.874
157,3187.828146,11725.1887,-4559.040613,-8087.889324,-6136.313812,32996.33807,-10734.49233,3771.990987,0.176,0.952,0.12,192,5,128,29,192,3,192,0,0,0,1.71E+09,0, 2024-03-05 16:07:02.874
158,1898.087787,11741.19255,-4672.721585,-8247.48078,-6178.670368,33200.07422,-10714.19695,3800.265944,0.176,0.952,0.12,192,0,0,0,0,0,0,0,0,0,1.71E+09,0, 2024-03-05 16:07:02.874
159,1267.008634,11828.69963,-5235.91849,-8580.119441,-6382.42887,32644.58867,-10670.36518,3855.966491,0.176,0.952,0.12,192,0,0,0,0,0,0,0,0,0,1.71E+09,0, 2024-03-05 16:07:02.874
160,2233.252196,11856.57225,-5462.900455,-8619.279697,-6473.288712,32098.75907,-10672.30978,3852.569026,0.176,0.952,0.12,192,0,0,0,0,0,0,0,0,0,1.71E+09,0, 2024-03-05 16:07:02.874
161,3458.10544,11798.07774,-5033.366982,-8297.794556,-6305.15889,32310.54185,-10715.35924,3797.874307,0.176,0.952,0.12,192,0,0,0,0,0,0,0,0,0,1.71E+09,0, 2024-03-05 16:07:02.874
162,3207.810606,11733.16827,-4568.22718,-8088.2246,-6131.843463,32972.377,-10730.31255,3778.294179,0.176,0.952,0.12,192,0,0,0,0,0,0,0,0,0,1.71E+09,0, 2024-03-05 16:07:02.874
163,1907.810796,11748.38981,-4680.030606,-8243.2563,-6170.24376,33188.13839,-10705.90445,3813.654639,0.176,0.952,0.12,192,0,0,0,0,0,0,0,0,0,1.71E+09,0, 2024-03-05 16:07:02.874
164,1252.055317,11832.20885,-5247.675508,-8579.650054,-6370.269522,32638.01725,-10666.45362,3859.833343,0.176,0.952,0.12,192,0,0,0,0,0,0,0,0,0,1.71E+09,0, 2024-03-05 16:07:02.874
165,2220.422294,11858.22628,-5466.297921,-8616.016342,-6461.35288,32099.25081,-10673.89675,3847.696346,0.176,0.952,0.12,192,0,0,0,0,0,0,0,0,0,1.71E+09,0, 2024-03-05 16:07:02.874
166,3445.655518,11798.30126,-5046.934491,-8301.661408,-6302.34257,32300.34945,-10711.31357,3791.660522,0.176,0.952,0.12,192,0,0,0,0,0,0,0,0,0,1.71E+09,0, 2024-03-05 16:07:02.874
167,3216.952469,11727.53563,-4574.888,-8083.262513,-6128.267184,32969.136,-10731.00546,3765.307816,0.174,0.94,0.132,192,5,112,29,96,4,32,0,0,0,1.71E+09,0, 2024-03-05 16:07:02.874
168,1931.101314,11746.64637,-4676.007292,-8235.142617,-6165.326377,33197.50377,-10705.59152,3800.265944,0.174,0.94,0.132,192,0,0,0,0,0,0,0,0,0,1.71E+09,0, 2024-03-05 16:07:02.874
169,1253.463477,11831.78417,-5248.837799,-8577.92897,-6364.815696,32646.48856,-10659.03284,3857.732279,0.174,0.94,0.132,192,0,0,0,0,0,0,0,0,0,1.71E+09,0, 2024-03-05 16:07:02.874
170,2213.202681,11857.57808,-5472.779926,-8619.860842,-6461.464639,32103.43058,-10668.88996,3848.501009,0.174,0.94,0.132,192,0,0,0,0,0,0,0,0,0,1.71E+09,0, 2024-03-05 16:07:02.874
171,3456.741984,11795.66375,-5050.175494,-8304.209507,-6307.148195,32305.33389,-10715.5157,3784.70913,0.174,0.94,0.132,192,0,0,0,0,0,0,0,0,0,1.71E+09,0, 2024-03-05 16:07:02.874
172,3234.722106,11728.63087,-4581.012378,-8086.391757,-6130.25649,32972.48876,-10731.98893,3767.721804,0.174,0.94,0.132,192,0,0,0,0,0,0,0,0,0,1.71E+09,0, 2024-03-05 16:07:02.874
173,1922.607651,11744.81353,-4690.781795,-8242.429285,-6165.773411,33194.59804,-10706.06091,3805.138624,0.174,0.94,0.132,192,0,0,0,0,0,0,0,0,0,1.71E+09,0, 2024-03-05 16:07:02.874
174,1249.037832,11826.06212,-5247.854322,-8578.040728,-6362.222894,32660.54781,-10669.62757,3855.921788,0.174,0.94,0.132,192,0,0,0,0,0,0,0,0,0,1.71E+09,0, 2024-03-05 16:07:02.874
175,2192.013227,11866.07174,-5480.401871,-8627.25927,-6457.284863,32103.56469,-10665.51485,3854.245407,0.174,0.94,0.132,192,0,0,0,0,0,0,0,0,0,1.71E+09,0, 2024-03-05 16:07:02.874
176,3467.157896,11798.10009,-5043.246453,-8297.548687,-6306.030608,32317.91792,-10715.5157,3786.407862,0.174,0.94,0.132,192,0,0,0,0,0,0,0,0,0,1.71E+09,0, 2024-03-05 16:07:02.874
177,3265.343996,11727.71445,-4573.211619,-8082.100222,-6136.984365,32995.4887,-10733.91118,3766.023072,0.18,0.934,0.142,192,5,160,29,48,4,112,0,0,0,1.71E+09,0, 2024-03-05 16:07:02.874
178,1921.266546,11757.2858,-4701.309467,-8249.827713,-6172.367176,33208.38907,-10698.2378,3814.414598,0.18,0.934,0.142,192,0,0,0,0,0,0,0,0,0,1.71E+09,0, 2024-03-05 16:07:02.874
179,1236.4538,11835.96394,-5251.117677,-8576.431403,-6361.217065,32681.69256,-10666.72184,3856.748802,0.18,0.934,0.142,192,0,0,0,0,0,0,0,0,0,1.71E+09,0, 2024-03-05 16:07:02.874
180,2179.675064,11864.26125,-5480.915961,-8625.784054,-6461.241121,32120.26145,-10667.92883,3852.725488,0.18,0.934,0.142,192,0,0,0,0,0,0,0,0,0,1.71E+09,0, 2024-03-05 16:07:02.874
181,3440.604024,11800.44702,-5059.026785,-8308.635152,-6306.231774,32307.16673,-10710.50891,3790.833508,0.18,0.934,0.142,192,0,0,0,0,0,0,0,0,0,1.71E+09,0, 2024-03-05 16:07:02.874
182,3246.345013,11734.41997,-4588.880192,-8086.928199,-6127.775446,32974.45571,-10728.77028,3770.605179,0.18,0.934,0.142,192,0,0,0,0,0,0,0,0,0,1.71E+09,0, 2024-03-05 16:07:02.874
183,1915.477445,11756.05646,-4701.063597,-8239.858835,-6161.615987,33199.87305,-10698.01428,3807.77613,0.18,0.934,0.142,192,0,0,0,0,0,0,0,0,0,1.71E+09,0, 2024-03-05 16:07:02.874
184,1207.083608,11832.58883,-5255.364508,-8572.922179,-6358.154876,32667.90154,-10664.889,3843.740087,0.18,0.934,0.142,192,0,0,0,0,0,0,0,0,0,1.71E+09,0, 2024-03-05 16:07:02.874
185,2146.393317,11860.97555,-5480.737147,-8623.54888,-6459.542389,32110.31492,-10672.17567,3836.453418,0.18,0.934,0.142,192,0,0,0,0,0,0,0,0,0,1.71E+09,0, 2024-03-05 16:07:02.874
186,3402.337837,11809.14185,-5070.023843,-8312.032618,-6306.768216,32283.49623,-10712.45351,3781.356368,0.18,0.934,0.142,192,0,0,0,0,0,0,0,0,0,1.71E+09,0, 2024-03-05 16:07:02.874
187,3214.359667,11741.2596,-4603.431178,-8091.443252,-6134.391562,32952.23808,-10730.849,3761.217446,0.182,0.928,0.142,192,5,176,29,0,4,112,0,0,0,1.71E+09,0, 2024-03-05 16:07:02.874
188,1898.311305,11751.80963,-4703.924621,-8237.042515,-6166.801592,33201.19181,-10707.20085,3793.247496,0.182,0.928,0.142,192,0,0,0,0,0,0,0,0,0,1.71E+09,0, 2024-03-05 16:07:02.874
189,1158.446212,11837.68503,-5274.139973,-8577.973673,-6362.066431,32662.11243,-10662.00562,3844.656509,0.182,0.928,0.142,192,0,0,0,0,0,0,0,0,0,1.71E+09,0, 2024-03-05 16:07:02.874
190,2078.466365,11865.20003,-5507.760406,-8630.656735,-6459.497685,32095.09338,-10668.86761,3835.604052,0.182,0.928,0.142,192,0,0,0,0,0,0,0,0,0,1.71E+09,0, 2024-03-05 16:07:02.874
191,3325.671354,11814.37216,-5109.877003,-8330.629269,-6311.95382,32242.97252,-10700.80825,3786.76549,0.182,0.928,0.142,192,0,0,0,0,0,0,0,0,0,1.71E+09,0, 2024-03-05 16:07:02.874
192,3150.21016,11736.05165,-4630.990878,-8098.148775,-6133.989231,32908.38395,-10727.42918,3754.713089,0.182,0.928,0.142,192,0,0,0,0,0,0,0,0,0,1.71E+09,0, 2024-03-05 16:07:02.874
193,1848.891598,11740.43259,-4714.29583,-8236.729591,-6165.661653,33172.291,-10711.40298,3782.652769,0.182,0.928,0.142,192,0,0,0,0,0,0,0,0,0,1.71E+09,0, 2024-03-05 16:07:02.874
194,1140.028374,11814.14864,-5257.554979,-8567.669519,-6357.529027,32670.11436,-10679.86467,3822.662392,0.182,0.928,0.142,192,0,0,0,0,0,0,0,0,0,1.71E+09,0, 2024-03-05 16:07:03.355
195,2041.809504,11853.71123,-5511.090816,-8644.894796,-6467.857238,32088.36551,-10674.27673,3825.925747,0.182,0.928,0.142,192,0,0,0,0,0,0,0,0,0,1.71E+09,0, 2024-03-05 16:07:03.355
196,3296.859955,11796.42371,-5118.571832,-8347.527188,-6320.805111,32232.98129,-10719.38255,3761.105688,0.182,0.928,0.142,192,0,0,0,0,0,0,0,0,0,1.71E+09,0, 2024-03-05 16:07:03.355
197,3164.001186,11718.34907,-4628.95687,-8109.861089,-6143.958109,32919.11279,-10741.779,3741.704374,0.182,0.934,0.136,192,5,176,29,48,4,64,0,0,0,1.71E+09,0, 2024-03-05 16:07:03.355
198,1827.545682,11742.33249,-4731.238452,-8256.644995,-6168.388566,33167.48538,-10707.1785,3788.330112,0.182,0.934,0.136,192,0,0,0,0,0,0,0,0,0,1.71E+09,0, 2024-03-05 16:07:03.355
199,1072.83903,11820.89887,-5291.26141,-8594.737481,-6365.016862,32649.32724,-10672.73446,3831.312517,0.182,0.934,0.136,192,0,0,0,0,0,0,0,0,0,1.71E+09,0, 2024-03-05 16:07:03.355
200,1980.722187,11851.07372,-5527.251128,-8653.567273,-6471.567627,32085.83976,-10687.53131,3817.812063,0.182,0.934,0.136,192,0,0,0,0,0,0,0,0,0,1.71E+09,0, 2024-03-05 16:07:03.355
201,3262.818249,11797.92128,-5125.567928,-8352.355165,-6329.879919,32233.85301,-10718.46613,3772.505077,0.182,0.934,0.136,192,0,0,0,0,0,0,0,0,0,1.71E+09,0, 2024-03-05 16:07:03.355
202,3127.970174,11727.51328,-4637.517588,-8113.772644,-6150.328356,32907.44518,-10736.41458,3746.130019,0.182,0.934,0.136,192,0,0,0,0,0,0,0,0,0,1.71E+09,0, 2024-03-05 16:07:03.355
203,1827.500978,11739.11384,-4714.072313,-8247.391373,-6178.022167,33183.46687,-10717.37089,3771.655711,0.182,0.934,0.136,192,0,0,0,0,0,0,0,0,0,1.71E+09,0, 2024-03-05 16:07:03.355
204,1053.035385,11820.58594,-5278.051529,-8595.318627,-6372.705862,32658.37969,-10672.55565,3824.517587,0.182,0.934,0.136,192,0,0,0,0,0,0,0,0,0,1.71E+09,0, 2024-03-05 16:07:03.355
205,1950.100297,11850.04554,-5519.003334,-8657.724697,-6477.602598,32084.00692,-10679.52939,3821.768322,0.182,0.934,0.136,192,0,0,0,0,0,0,0,0,0,1.71E+09,0, 2024-03-05 16:07:03.355
206,3241.964071,11798.54712,-5121.611669,-8356.78081,-6334.730248,32221.85012,-10717.4156,3773.086223,0.182,0.934,0.136,192,0,0,0,0,0,0,0,0,0,1.71E+09,0, 2024-03-05 16:07:03.355
207,3100.790453,11738.59975,-4649.431068,-8126.848415,-6158.643205,32872.12943,-10731.09486,3760.479839,0.172,0.946,0.126,192,5,96,29,144,3,240,0,0,0,1.71E+09,0, 2024-03-05 16:07:03.355
208,1807.250298,11745.34997,-4710.361923,-8244.731515,-6177.731595,33161.89744,-10715.35924,3786.564325,0.172,0.946,0.126,192,0,0,0,0,0,0,0,0,0,1.71E+09,0, 2024-03-05 16:07:03.355
209,1044.184094,11823.44697,-5255.409212,-8582.041691,-6371.498867,32671.83544,-10676.5119,3834.955851,0.172,0.946,0.126,192,0,0,0,0,0,0,0,0,0,1.71E+09,0, 2024-03-05 16:07:03.355
210,1951.284939,11851.96779,-5492.158889,-8645.297127,-6475.993273,32112.66185,-10688.35833,3820.427218,0.172,0.946,0.126,192,0,0,0,0,0,0,0,0,0,1.71E+09,0, 2024-03-05 16:07:03.356
211,3233.202187,11798.2789,-5121.768131,-8363.732202,-6347.604853,32225.94049,-10730.87135,3760.993929,0.172,0.946,0.126,192,0,0,0,0,0,0,0,0,0,1.71E+09,0, 2024-03-05 16:07:03.356
212,3144.868093,11720.7407,-4628.375724,-8119.315877,-6175.094089,32903.28776,-10759.88391,3728.069809,0.172,0.946,0.126,192,0,0,0,0,0,0,0,0,0,1.71E+09,0, 2024-03-05 16:07:03.356
213,1870.081052,11734.39762,-4682.042263,-8235.455541,-6193.802499,33206.82445,-10730.06668,3767.744156,0.172,0.946,0.126,192,0,0,0,0,0,0,0,0,0,1.71E+09,0, 2024-03-05 16:07:03.356
214,1074.649522,11816.83085,-5246.356755,-8581.169973,-6388.44149,32701.4515,-10681.92103,3824.070552,0.172,0.946,0.126,192,0,0,0,0,0,0,0,0,0,1.71E+09,0, 2024-03-05 16:07:03.356
215,1953.453058,11849.10677,-5504.385293,-8650.482732,-6492.064177,32117.10985,-10688.17952,3813.229956,0.172,0.946,0.126,192,0,0,0,0,0,0,0,0,0,1.71E+09,0, 2024-03-05 16:07:03.356
216,3252.491743,11787.93005,-5133.27928,-8369.387194,-6365.016862,32226.61105,-10740.16967,3747.404068,0.172,0.946,0.126,192,0,0,0,0,0,0,0,0,0,1.71E+09,0, 2024-03-05 16:07:03.356
217,3167.599817,11719.62312,-4641.987937,-8127.854243,-6176.099917,32891.6872,-10758.81103,3726.348725,0.168,0.94,0.12,192,5,64,29,96,3,192,0,0,0,1.71E+09,0, 2024-03-05 16:07:03.356
218,1871.60097,11744.3665,-4699.43192,-8242.809265,-6192.349636,33186.43966,-10724.74697,3770.895752,0.168,0.94,0.12,192,0,0,0,0,0,0,0,0,0,1.71E+09,0, 2024-03-05 16:07:03.356
219,1067.094632,11824.00576,-5253.46461,-8580.320606,-6383.680568,32692.95784,-10680.73638,3824.316421,0.168,0.94,0.12,192,0,0,0,0,0,0,0,0,0,1.71E+09,0, 2024-03-05 16:07:03.356
220,1948.200398,11852.1019,-5505.279363,-8649.387497,-6487.839697,32123.70361,-10690.19117,3814.414598,0.168,0.94,0.12,192,0,0,0,0,0,0,0,0,0,1.71E+09,0, 2024-03-05 16:07:03.356
221,3237.158446,11805.2303,-5149.484295,-8373.790488,-6359.607739,32216.66452,-10725.35047,3768.928798,0.168,0.94,0.12,192,0,0,0,0,0,0,0,0,0,1.71E+09,0, 2024-03-05 16:07:03.356
222,3150.791305,11735.71637,-4661.63512,-8130.75997,-6179.296217,32871.03419,-10742.67307,3747.29231,0.168,0.94,0.12,192,0,0,0,0,0,0,0,0,0,1.71E+09,0, 2024-03-05 16:07:03.356
223,1853.965444,11745.30527,-4710.138406,-8243.233948,-6190.561496,33171.28517,-10720.54484,3777.847144,0.168,0.94,0.12,192,0,0,0,0,0,0,0,0,0,1.71E+09,0, 2024-03-05 16:07:03.356
224,1033.276443,11824.05047,-5261.622997,-8582.354615,-6378.763184,32683.81598,-10677.85301,3831.22311,0.168,0.94,0.12,192,0,0,0,0,0,0,0,0,0,1.71E+09,0, 2024-03-05 16:07:03.356
225,1907.229651,11854.31473,-5511.716665,-8647.599357,-6479.278979,32116.17108,-10683.44095,3826.86452,0.168,0.94,0.12,192,0,0,0,0,0,0,0,0,0,1.71E+09,0, 2024-03-05 16:07:03.356
226,3214.963164,11799.30708,-5148.344356,-8368.806048,-6352.18696,32210.51779,-10722.80237,3772.236856,0.168,0.94,0.12,192,0,0,0,0,0,0,0,0,0,1.71E+09,0, 2024-03-05 16:07:03.356
227,3159.106154,11732.16244,-4651.979167,-8123.674467,-6172.143659,32869.8719,-10740.88493,3745.727688,0.158,0.946,0.124,192,4,240,29,144,3,224,0,0,0,1.71E+09,0, 2024-03-05 16:07:03.356
228,1872.87502,11736.0293,-4688.211344,-8231.074599,-6177.105746,33187.49019,-10722.37768,3771.834525,0.158,0.946,0.124,192,0,0,0,0,0,0,0,0,0,1.71E+09,0, 2024-03-05 16:07:03.356
229,1040.607815,11818.21666,-5243.451028,-8574.933836,-6371.342405,32704.49134,-10677.16011,3825.523415,0.158,0.946,0.124,192,0,0,0,0,0,0,0,0,0,1.71E+09,0, 2024-03-05 16:07:03.356
230,1892.298686,11853.15244,-5510.397912,-8648.381668,-6481.424747,32128.10691,-10681.94338,3814.347543,0.158,0.946,0.124,192,0,0,0,0,0,0,0,0,0,1.71E+09,0, 2024-03-05 16:07:03.356
231,3206.71537,11792.98154,-5149.618405,-8368.31431,-6357.43962,32222.00659,-10731.09486,3754.914255,0.158,0.946,0.124,192,0,0,0,0,0,0,0,0,0,1.71E+09,0, 2024-03-05 16:07:03.356
232,3159.910817,11723.8923,-4655.130762,-8124.61324,-6171.316644,32872.91174,-10747.09871,3740.385621,0.158,0.946,0.124,192,0,0,0,0,0,0,0,0,0,1.71E+09,0, 2024-03-05 16:07:03.356
233,1868.13645,11733.95058,-4694.134557,-8231.164006,-6174.110612,33186.05968,-10718.60024,3777.645979,0.158,0.946,0.124,192,0,0,0,0,0,0,0,0,0,1.71E+09,0, 2024-03-05 16:07:03.356
234,1030.013088,11814.28275,-5240.724115,-8569.077679,-6368.816658,32712.87325,-10674.83552,3830.641965,0.158,0.946,0.124,192,0,0,0,0,0,0,0,0,0,1.71E+09,0, 2024-03-05 16:07:03.356
235,1889.482366,11846.9163,-5499.378502,-8639.44097,-6481.715319,32149.65399,-10683.79857,3816.761531,0.158,0.946,0.124,192,0,0,0,0,0,0,0,0,0,1.71E+09,0, 2024-03-05 16:07:03.356
236,3224.105027,11789.47232,-5138.129608,-8364.492162,-6357.640786,32241.51966,-10725.17165,3760.971577,0.158,0.946,0.124,192,0,0,0,0,0,0,0,0,0,1.71E+09,0, 2024-03-05 16:07:03.356
237,3158.502657,11732.38596,-4664.853771,-8133.688049,-6176.25638,32859.0313,-10728.03268,3752.902598,0.156,0.95,0.132,192,4,224,29,176,4,32,0,0,0,1.71E+09,0, 2024-03-05 16:07:03.356
238,1857.63113,11732.74359,-4696.816766,-8234.941451,-6179.497383,33168.4912,-10715.62746,3771.298083,0.156,0.95,0.132,192,0,0,0,0,0,0,0,0,0,1.71E+09,0, 2024-03-05 16:07:03.356
239,1017.809036,11811.13116,-5235.426752,-8570.105859,-6375.49983,32709.07345,-10678.12123,3823.221186,0.156,0.95,0.132,192,0,0,0,0,0,0,0,0,0,1.71E+09,0, 2024-03-05 16:07:03.356
240,1880.027578,11845.08346,-5496.673941,-8643.888968,-6490.723072,32148.35759,-10682.61393,3814.638116,0.156,0.95,0.132,192,0,0,0,0,0,0,0,0,0,1.71E+09,0, 2024-03-05 16:07:03.356
241,3208.168233,11793.80855,-5154.42403,-8379.087851,-6375.030443,32218.87734,-10720.92482,3760.591598,0.156,0.95,0.132,192,0,0,0,0,0,0,0,0,0,1.71E+09,0, 2024-03-05 16:07:03.356
242,3177.36753,11723.73584,-4669.19001,-8140.214758,-6196.819985,32852.92928,-10736.43693,3741.637318,0.156,0.95,0.132,192,0,0,0,0,0,0,0,0,0,1.71E+09,0, 2024-03-05 16:07:03.356
243,1858.614607,11743.18185,-4710.630144,-8249.470085,-6193.109595,33154.56607,-10702.26111,3785.35733,0.156,0.95,0.132,192,0,0,0,0,0,0,0,0,0,1.71E+09,0, 2024-03-05 16:07:03.356
244,1007.527233,11814.05924,-5239.874749,-8576.833734,-6381.981836,32709.16286,-10666.72184,3828.78677,0.156,0.95,0.132,192,0,0,0,0,0,0,0,0,0,1.71E+09,0, 2024-03-05 16:07:03.356
245,1905.486215,11835.60632,-5473.741051,-8632.176653,-6491.550087,32184.18743,-10680.46816,3812.402941,0.156,0.95,0.132,192,0,0,0,0,0,0,0,0,0,1.71E+09,0, 2024-03-05 16:07:03.356
246,3260.91835,11789.2041,-5130.887643,-8369.454249,-6380.104289,32255.31069,-10715.58275,3767.095955,0.156,0.95,0.132,192,0,0,0,0,0,0,0,0,0,1.71E+09,0, 2024-03-05 16:07:03.356
247,3244.534522,11724.67461,-4645.966547,-8130.648211,-6196.641171,32885.22755,-10729.32908,3748.588711,0.148,0.948,0.144,192,4,160,29,160,4,128,0,0,0,1.71E+09,0, 2024-03-05 16:07:03.356
248,1932.509474,11739.56087,-4686.311446,-8242.183416,-6190.695607,33185.16561,-10700.54003,3784.664426,0.148,0.948,0.144,192,0,0,0,0,0,0,0,0,0,1.71E+09,0, 2024-03-05 16:07:03.356
249,1068.838068,11818.57429,-5222.373333,-8568.116554,-6367.922588,32737.12489,-10656.84237,3839.001517,0.148,0.948,0.144,192,0,0,0,0,0,0,0,0,0,1.71E+09,0, 2024-03-05 16:07:03.356
250,1941.204302,11843.96587,-5469.695386,-8628.130988,-6478.51902,32199.94541,-10665.85012,3825.903395,0.148,0.948,0.144,192,0,0,0,0,0,0,0,0,0,1.71E+09,0, 2024-03-05 16:07:03.356
251,3314.33902,11792.73567,-5121.3658,-8361.1394,-6360.948844,32269.07936,-10705.77034,3774.0697,0.148,0.948,0.144,192,0,0,0,0,0,0,0,0,0,1.71E+09,0, 2024-03-05 16:07:03.356
252,3302.090264,11721.9477,-4644.200759,-8131.296412,-6181.062005,32879.34904,-10722.06476,3753.550798,0.148,0.948,0.144,192,0,0,0,0,0,0,0,0,0,1.71E+09,0, 2024-03-05 16:07:03.356
253,1972.474393,11737.63862,-4689.708911,-8241.892843,-6171.540162,33175.28614,-10698.01428,3786.63138,0.148,0.948,0.144,192,0,0,0,0,0,0,0,0,0,1.71E+09,0, 2024-03-05 16:07:03.356
254,1081.80208,11818.39547,-5228.944746,-8570.88817,-6348.789495,32726.57487,-10659.52458,3835.44759,0.148,0.948,0.144,192,0,0,0,0,0,0,0,0,0,1.71E+09,0, 2024-03-05 16:07:03.356
255,1932.531826,11859.41092,-5480.714796,-8629.874424,-6456.10022,32174.62089,-10663.32438,3828.250328,0.148,0.948,0.144,192,0,0,0,0,0,0,0,0,0,1.71E+09,0, 2024-03-05 16:07:03.356
0,3317.781188,11802.25751,-5127.51253,-8355.395002,-6334.774951,32242.45843,-10707.49142,3766.045423,0.148,0.948,0.144,192,0,0,0,0,0,0,0,0,0,1.71E+09,0, 2024-03-05 16:07:03.356
1,3332.712154,11726.90978,-4640.020983,-8117.728903,-6160.073717,32861.66881,-10737.12984,3734.99885,0.14,0.918,0.148,192,4,96,28,176,4,160,0,0,0,1.71E+09,0, 2024-03-05 16:07:03.356
2,2022.497597,11734.08469,-4676.566085,-8227.36421,-6157.369156,33168.62532,-10717.48265,3766.984197,0.14,0.918,0.148,192,0,0,0,0,0,0,0,0,0,1.71E+09,0, 2024-03-05 16:07:03.356
3,1115.016772,11812.3605,-5225.457874,-8567.736574,-6335.311393,32714.92961,-10675.34961,3821.008363,0.14,0.918,0.148,192,0,0,0,0,0,0,0,0,0,1.71E+09,0, 2024-03-05 16:07:03.356
4,1956.694061,11847.00571,-5486.526249,-8634.523587,-6444.544368,32164.80847,-10685.43025,3811.821796,0.14,0.918,0.148,192,0,0,0,0,0,0,0,0,0,1.71E+09,0, 2024-03-05 16:07:03.356
5,3315.031924,11800.04469,-5158.335585,-8373.701081,-6339.267652,32204.12519,-10725.57398,3755.964787,0.14,0.918,0.148,192,0,0,0,0,0,0,0,0,0,1.71E+09,0, 2024-03-05 16:07:03.356
6,3333.785037,11731.06721,-4669.435879,-8127.787188,-6159.157295,32819.84869,-10746.8752,3733.031897,0.14,0.918,0.148,192,0,0,0,0,0,0,0,0,0,1.71E+09,0, 2024-03-05 16:07:03.356
7,2025.649193,11734.46467,-4701.063597,-8231.789855,-6157.391507,33133.1978,-10727.33977,3761.552723,0.14,0.918,0.148,192,0,0,0,0,0,0,0,0,0,1.71E+09,0, 2024-03-05 16:07:03.356
8,1089.938115,11821.68118,-5257.376165,-8577.638397,-6347.582501,32676.10463,-10678.52356,3818.080284,0.14,0.918,0.148,192,0,0,0,0,0,0,0,0,0,1.71E+09,0, 2024-03-05 16:07:03.356
9,1898.512471,11854.0018,-5526.111189,-8650.505084,-6460.816438,32120.95435,-10683.95504,3812.961735,0.14,0.918,0.148,192,0,0,0,0,0,0,0,0,0,1.71E+09,0, 2024-03-05 16:07:03.356
10,3258.638472,11802.52574,-5197.652304,-8393.795299,-6351.29289,32162.90857,-10721.86359,3762.379737,0.14,0.918,0.148,192,0,0,0,0,0,0,0,0,0,1.71E+09,0, 2024-03-05 16:07:03.356
11,3306.091226,11725.52398,-4692.212307,-8137.979583,-6167.67331,32799.79918,-10746.49522,3729.187397,0.144,0.934,0.146,192,4,128,29,48,4,144,0,0,0,1.71E+09,0, 2024-03-05 16:07:03.356
12,2022.207024,11734.39762,-4700.773025,-8229.152349,-6157.212693,33138.87514,-10722.71296,3759.71988,0.144,0.934,0.146,192,0,0,0,0,0,0,0,0,0,1.71E+09,0, 2024-03-05 16:07:03.356
13,1100.13051,11810.23709,-5235.002069,-8563.780315,-6344.810885,32706.92768,-10683.77622,3813.364066,0.144,0.934,0.146,192,0,0,0,0,0,0,0,0,0,1.71E+09,0, 2024-03-05 16:07:03.356
14,1911.051799,11848.27976,-5501.747787,-8642.346697,-6461.665805,32153.85612,-10687.88894,3807.597316,0.144,0.934,0.146,192,0,0,0,0,0,0,0,0,0,1.71E+09,0, 2024-03-05 16:07:03.356
15,3260.851295,11811.30997,-5194.299542,-8396.63397,-6357.43962,32174.57618,-10715.76157,3766.626569,0.144,0.934,0.146,192,0,0,0,0,0,0,0,0,0,1.71E+09,0, 2024-03-05 16:07:03.356
16,3321.446874,11731.69306,-4687.250219,-8135.520892,-6169.394394,32802.83902,-10740.32614,3735.803513,0.144,0.934,0.146,192,0,0,0,0,0,0,0,0,0,1.71E+09,0, 2024-03-05 16:07:03.356
17,2020.620051,11740.54435,-4697.174394,-8232.594518,-6159.559627,33132.10256,-10712.90054,3770.694586,0.144,0.934,0.146,192,0,0,0,0,0,0,0,0,0,1.71E+09,0, 2024-03-05 16:07:03.356
18,1076.527068,11819.64717,-5227.424828,-8567.133077,-6343.559187,32702.47968,-10674.88023,3815.308668,0.144,0.934,0.146,192,0,0,0,0,0,0,0,0,0,1.71E+09,0, 2024-03-05 16:07:03.356
19,1873.344406,11855.11939,-5502.440691,-8647.867578,-6469.377156,32144.58014,-10681.00461,3811.710037,0.144,0.934,0.146,192,0,0,0,0,0,0,0,0,0,1.71E+09,0, 2024-03-05 16:07:03.356
20,3231.972841,11808.89598,-5190.857374,-8396.276342,-6363.07226,32163.40031,-10714.66633,3767.520638,0.144,0.934,0.146,192,0,0,0,0,0,0,0,0,0,1.71E+09,0, 2024-03-05 16:07:03.356
21,3339.887063,11724.47344,-4663.356204,-8131.877557,-6175.809345,32808.91869,-10745.13176,3729.902652,0.16,0.958,0.142,192,5,0,29,240,4,112,0,0,0,1.71E+09,0, 2024-03-05 16:07:03.356
22,2038.970833,11741.28196,-4677.504859,-8229.755846,-6163.895865,33139.52334,-10715.69451,3765.441926,0.16,0.958,0.142,192,0,0,0,0,0,0,0,0,0,1.71E+09,0, 2024-03-05 16:07:03.356
23,1096.241307,11819.69187,-5201.809728,-8556.828923,-6347.269576,32727.75951,-10678.79178,3811.821796,0.16,0.958,0.142,192,0,0,0,0,0,0,0,0,0,1.71E+09,0, 2024-03-05 16:07:03.356
24,1856.670005,11867.4352,-5496.606886,-8647.37584,-6472.171124,32154.07963,-10676.33309,3816.761531,0.16,0.958,0.142,192,0,0,0,0,0,0,0,0,0,1.71E+09,0, 2024-03-05 16:07:03.356
25,3237.404315,11808.78422,-5182.900153,-8393.616485,-6366.335614,32179.98531,-10726.73627,3750.265092,0.16,0.958,0.142,192,0,0,0,0,0,0,0,0,0,1.71E+09,0, 2024-03-05 16:07:03.356
26,3345.251482,11735.29169,-4676.811955,-8138.359563,-6181.754909,32805.70004,-10748.97626,3721.207824,0.16,0.958,0.142,192,0,0,0,0,0,0,0,0,0,1.71E+09,0, 2024-03-05 16:07:03.356
27,2052.448935,11740.76787,-4681.259952,-8227.8783,-6164.253493,33148.28523,-10723.04824,3754.288406,0.16,0.958,0.142,192,0,0,0,0,0,0,0,0,0,1.71E+09,0, 2024-03-05 16:07:03.356
28,1086.205374,11818.0602,-5214.684333,-8563.109763,-6350.398821,32731.69341,-10682.36806,3808.692552,0.16,0.958,0.142,192,0,0,0,0,0,0,0,0,0,1.71E+09,0, 2024-03-05 16:07:03.356
29,1842.990737,11858.29334,-5500.987828,-8647.912282,-6477.647302,32164.71906,-10687.33015,3807.597316,0.16,0.958,0.142,192,0,0,0,0,0,0,0,0,0,1.71E+09,0, 2024-03-05 16:07:03.356
30,3226.474312,11809.27596,-5193.427824,-8399.137366,-6378.874943,32179.04653,-10730.98311,3749.929816,0.16,0.958,0.142,192,0,0,0,0,0,0,0,0,0,1.71E+09,0, 2024-03-05 16:07:03.356
31,3348.917168,11735.02347,-4682.668112,-8138.359563,-6198.742235,32802.88372,-10750.65264,3721.766618,0.16,0.958,0.142,192,0,0,0,0,0,0,0,0,0,1.71E+09,0, 2024-03-05 16:07:03.356
32,2078.01933,11736.63279,-4672.296902,-8221.552756,-6189.354502,33160.31047,-10725.7528,3749.371022,0.158,0.958,0.134,192,4,240,29,240,4,48,0,0,0,1.71E+09,0, 2024-03-05 16:07:03.356
33,1109.317077,11811.60054,-5197.071159,-8560.539312,-6372.68351,32752.5923,-10682.39041,3800.556517,0.158,0.958,0.134,192,0,0,0,0,0,0,0,0,0,1.71E+09,0, 2024-03-05 16:07:03.356
34,1840.733211,11854.5606,-5495.779871,-8657.657642,-6497.696817,32178.17481,-10681.27283,3804.065741,0.158,0.958,0.134,192,0,0,0,0,0,0,0,0,0,1.71E+09,0, 2024-03-05 16:07:03.356
35,3203.519071,11811.86876,-5209.565784,-8418.493976,-6405.629981,32164.78612,-10717.23678,3751.315624,0.158,0.958,0.134,192,0,0,0,0,0,0,0,0,0,1.71E+09,0, 2024-03-05 16:07:03.356
36,3341.474037,11736.63279,-4692.905211,-8150.563616,-6218.1659,32783.84003,-10743.45538,3717.229213,0.158,0.958,0.134,192,0,0,0,0,0,0,0,0,0,1.71E+09,0, 2024-03-05 16:07:03.356
37,2078.466365,11738.37623,-4670.061728,-8222.983268,-6195.568287,33152.71087,-10725.61869,3746.53235,0.158,0.958,0.134,192,0,0,0,0,0,0,0,0,0,1.71E+09,0, 2024-03-05 16:07:03.356
38,1106.254888,11817.21083,-5191.237353,-8552.760905,-6371.521219,32758.60491,-10677.36127,3805.965639,0.158,0.958,0.134,192,0,0,0,0,0,0,0,0,0,1.71E+09,0, 2024-03-05 16:07:03.356
39,1843.258958,11855.49937,-5487.845002,-8646.660584,-6486.520944,32195.16214,-10674.09792,3806.077398,0.158,0.958,0.134,192,0,0,0,0,0,0,0,0,0,1.71E+09,0, 2024-03-05 16:07:03.356
40,3225.379077,11809.45478,-5201.630914,-8409.486223,-6388.843821,32181.99696,-10709.7713,3754.489571,0.158,0.958,0.134,192,0,0,0,0,0,0,0,0,0,1.71E+09,0, 2024-03-05 16:07:03.356
41,3387.563334,11733.10122,-4676.87901,-8137.510197,-6192.506098,32806.30354,-10732.48067,3734.730629,0.158,0.958,0.134,192,0,0,0,0,0,0,0,0,0,1.71E+09,0, 2024-03-05 16:07:03.356
42,2116.777255,11740.99138,-4656.673033,-8215.629544,-6158.151467,33169.92172,-10710.30774,3762.871476,0.156,0.946,0.134,192,4,224,29,144,4,48,0,0,0,1.71E+09,0, 2024-03-05 16:07:03.356
43,1107.55129,11818.08255,-5186.811708,-8556.53835,-6328.672925,32762.94115,-10664.71018,3818.639078,0.156,0.946,0.134,192,0,0,0,0,0,0,0,0,0,1.71E+09,0, 2024-03-05 16:07:03.356
44,1830.71963,11856.72872,-5484.827517,-8641.430276,-6446.176046,32204.97456,-10668.97937,3817.677953,0.156,0.946,0.134,192,0,0,0,0,0,0,0,0,0,1.71E+09,0, 2024-03-05 16:07:03.356
45,3240.757077,11807.08549,-5186.565839,-8394.734072,-6350.26471,32204.75104,-10713.19112,3760.144563,0.156,0.946,0.134,192,0,0,0,0,0,0,0,0,0,1.71E+09,0, 2024-03-05 16:07:03.356
46,3400.214422,11734.57643,-4680.097661,-8140.482979,-6169.796725,32808.15873,-10738.64975,3731.288461,0.156,0.946,0.134,192,0,0,0,0,0,0,0,0,0,1.71E+09,0, 2024-03-05 16:07:03.356
47,2104.930831,11744.4112,-4671.872219,-8225.888994,-6146.819132,33155.08016,-10717.19208,3763.832601,0.156,0.946,0.134,192,0,0,0,0,0,0,0,0,0,1.71E+09,0, 2024-03-05 16:07:03.356
48,1095.034313,11813.36633,-5188.555144,-8555.085487,-6317.184128,32761.68946,-10676.86953,3814.168729,0.156,0.946,0.134,192,0,0,0,0,0,0,0,0,0,1.71E+09,0, 2024-03-05 16:07:03.356
49,1812.614717,11853.82299,-5489.767252,-8644.671279,-6438.732915,32202.24764,-10678.61297,3809.273697,0.156,0.946,0.134,192,0,0,0,0,0,0,0,0,0,1.71E+09,0, 2024-03-05 16:07:03.356
50,3202.446187,11817.72492,-5217.992391,-8410.268534,-6353.528065,32174.35267,-10714.44282,3764.771374,0.156,0.946,0.134,192,0,0,0,0,0,0,0,0,0,1.71E+09,0, 2024-03-05 16:07:03.356
51,3397.979247,11731.91657,-4693.396949,-8137.398438,-6169.684967,32791.32787,-10754.74301,3721.140769,0.156,0.946,0.134,192,0,0,0,0,0,0,0,0,0,1.71E+09,0, 2024-03-05 16:07:03.356
52,2149.366099,11724.04876,-4667.625388,-8215.920116,-6150.417763,33160.73515,-10743.23186,3737.010507,0.168,0.914,0.142,192,5,64,28,144,4,112,0,0,0,1.71E+09,0, 2024-03-05 16:07:03.356
53,1134.038107,11793.56269,-5195.394778,-8555.443115,-6331.489245,32766.45038,-10706.5303,3778.316531,0.168,0.914,0.142,192,0,0,0,0,0,0,0,0,0,1.71E+09,0, 2024-03-05 16:07:03.356
54,1833.312432,11840.59076,-5510.912002,-8659.311671,-6464.057441,32193.73163,-10705.94915,3779.702339,0.168,0.914,0.142,192,0,0,0,0,0,0,0,0,0,1.71E+09,0, 2024-03-05 16:07:03.356
55,3207.117701,11806.75021,-5253.285796,-8437.939994,-6378.047929,32144.96012,-10729.53024,3739.960937,0.168,0.914,0.142,192,0,0,0,0,0,0,0,0,0,1.71E+09,0, 2024-03-05 16:07:03.356
56,3400.080311,11734.71054,-4733.473627,-8162.588854,-6181.50904,32749.50775,-10750.13855,3713.317658,0.168,0.914,0.142,192,0,0,0,0,0,0,0,0,0,1.71E+09,0, 2024-03-05 16:07:03.356
57,2154.149372,11734.64349,-4690.401815,-8223.989096,-6142.684059,33128.39218,-10729.30673,3739.066868,0.168,0.914,0.142,192,0,0,0,0,0,0,0,0,0,1.71E+09,0, 2024-03-05 16:07:03.356
58,1142.487066,11806.25848,-5192.779624,-8548.447019,-6321.274498,32759.0296,-10691.66639,3791.50406,0.168,0.914,0.142,192,0,0,0,0,0,0,0,0,0,1.71E+09,0, 2024-03-05 16:07:03.356
59,1838.073354,11850.1573,-5500.138462,-8648.02404,-6460.145886,32197.97846,-10697.29903,3786.452566,0.168,0.914,0.142,192,0,0,0,0,0,0,0,0,0,1.71E+09,0, 2024-03-05 16:07:03.836
60,3246.322661,11808.56071,-5239.092438,-8425.534776,-6384.105251,32164.20497,-10734.00059,3736.943452,0.168,0.914,0.142,192,0,0,0,0,0,0,0,0,0,1.71E+09,0, 2024-03-05 16:07:03.836
61,3469.080146,11731.78246,-4717.045095,-8153.491694,-6190.896772,32768.55144,-10751.23379,3714.792873,0.168,0.914,0.142,192,0,0,0,0,0,0,0,0,0,1.71E+09,0, 2024-03-05 16:07:03.836
62,2214.253213,11733.25768,-4674.889705,-8222.647991,-6159.067888,33140.68563,-10727.67505,3748.544007,0.182,0.926,0.146,192,5,176,28,240,4,144,0,0,0,1.71E+09,0, 2024-03-05 16:07:03.836
63,1166.62695,11810.08062,-5185.917638,-8550.346917,-6335.065524,32761.53299,-10682.50217,3803.194023,0.182,0.926,0.146,192,0,0,0,0,0,0,0,0,0,1.71E+09,0, 2024-03-05 16:07:03.836
64,1833.021859,11855.49937,-5502.083063,-8653.857846,-6469.019529,32196.23502,-10683.15037,3798.880136,0.182,0.926,0.146,192,0,0,0,0,0,0,0,0,0,1.71E+09,0, 2024-03-05 16:07:03.836
65,3242.72403,11809.83476,-5238.73481,-8426.004163,-6386.00515,32161.00868,-10726.98214,3741.100876,0.182,0.926,0.146,192,0,0,0,0,0,0,0,0,0,1.71E+09,0, 2024-03-05 16:07:03.836
66,3497.131586,11738.48799,-4707.702065,-8147.344964,-6187.387548,32771.9042,-10745.73526,3717.18451,0.182,0.926,0.146,192,0,0,0,0,0,0,0,0,0,1.71E+09,0, 2024-03-05 16:07:03.836
67,2235.599129,11741.10314,-4670.709928,-8220.055189,-6153.435249,33136.68467,-10718.35437,3747.739345,0.182,0.926,0.146,192,0,0,0,0,0,0,0,0,0,1.71E+09,0, 2024-03-05 16:07:03.836
68,1149.572569,11817.74727,-5189.78449,-8557.477123,-6331.824521,32752.43583,-10673.11444,3802.38936,0.182,0.926,0.146,192,0,0,0,0,0,0,0,0,0,1.71E+09,0, 2024-03-05 16:07:03.836
69,1797.236716,11858.47215,-5498.70795,-8650.616843,-6469.243046,32196.99498,-10685.29614,3792.956924,0.182,0.926,0.146,192,0,0,0,0,0,0,0,0,0,1.71E+09,0, 2024-03-05 16:07:03.836
70,3205.262507,11820.6977,-5244.412153,-8426.36179,-6392.733025,32158.25941,-10718.46613,3747.225254,0.182,0.926,0.146,192,0,0,0,0,0,0,0,0,0,1.71E+09,0, 2024-03-05 16:07:03.836
71,3470.510658,11742.66776,-4711.881842,-8146.964985,-6191.097938,32759.58839,-10737.84509,3718.279745,0.182,0.926,0.146,192,0,0,0,0,0,0,0,0,0,1.71E+09,0, 2024-03-05 16:07:03.836
72,2221.383419,11743.40537,-4656.605978,-8212.366189,-6150.998908,33132.12492,-10714.19695,3750.24274,0.166,0.94,0.146,192,5,48,29,96,4,144,0,0,0,1.71E+09,0, 2024-03-05 16:07:03.836
73,1150.980729,11811.55584,-5153.90994,-8536.958222,-6322.570899,32775.54754,-10677.47303,3797.471976,0.166,0.94,0.146,192,0,0,0,0,0,0,0,0,0,1.71E+09,0, 2024-03-05 16:07:03.836
74,1793.258106,11850.35847,-5480.714796,-8645.565348,-6469.019529,32216.68687,-10686.36902,3789.090072,0.166,0.94,0.146,192,0,0,0,0,0,0,0,0,0,1.71E+09,0, 2024-03-05 16:07:03.836
75,3187.671684,11817.09907,-5247.362584,-8435.973041,-6397.203374,32149.87751,-10721.2601,3741.324394,0.166,0.94,0.146,192,0,0,0,0,0,0,0,0,0,1.71E+09,0, 2024-03-05 16:07:03.836
76,3476.322112,11736.18576,-4708.171452,-8152.128238,-6188.840412,32750.29007,-10745.39998,3710.836614,0.166,0.94,0.146,192,0,0,0,0,0,0,0,0,0,1.71E+09,0, 2024-03-05 16:07:03.836
77,2252.921731,11729.77081,-4642.010288,-8211.807395,-6147.087353,33140.32801,-10726.46805,3736.675231,0.166,0.94,0.146,192,0,0,0,0,0,0,0,0,0,1.71E+09,0, 2024-03-05 16:07:03.836
78,1169.867953,11803.68803,-5146.511513,-8543.999022,-6323.375562,32779.74967,-10684.29031,3788.419519,0.166,0.94,0.146,192,0,0,0,0,0,0,0,0,0,1.71E+09,0, 2024-03-05 16:07:03.836
79,1792.632257,11847.02806,-5473.875162,-8654.036659,-6460.659976,32216.88804,-10684.62559,3788.263057,0.166,0.94,0.146,192,0,0,0,0,0,0,0,0,0,1.71E+09,0, 2024-03-05 16:07:03.836
80,3203.608478,11808.53835,-5234.912662,-8437.537663,-6388.933228,32158.17,-10723.94231,3738.619833,0.166,0.94,0.146,192,0,0,0,0,0,0,0,0,0,1.71E+09,0, 2024-03-05 16:07:03.836
81,3493.711769,11733.92823,-4712.641801,-8167.52859,-6203.480804,32739.8518,-10748.88685,3708.802606,0.166,0.94,0.146,192,0,0,0,0,0,0,0,0,0,1.71E+09,0, 2024-03-05 16:07:03.836
82,2243.131667,11743.69594,-4660.405774,-8227.274803,-6156.206865,33107.35918,-10711.26887,3751.13681,0.158,0.942,0.148,192,4,240,29,112,4,160,0,0,0,1.71E+09,0, 2024-03-05 16:07:03.836
83,1170.314988,11811.17586,-5150.378364,-8544.960147,-6326.460102,32769.08788,-10674.5673,3801.897621,0.158,0.942,0.148,192,0,0,0,0,0,0,0,0,0,1.71E+09,0, 2024-03-05 16:07:03.836
84,1792.207574,11852.34777,-5478.993711,-8650.97447,-6466.60554,32222.72184,-10681.42929,3795.415615,0.158,0.942,0.148,192,0,0,0,0,0,0,0,0,0,1.71E+09,0, 2024-03-05 16:07:03.836
85,3208.25764,11807.55488,-5247.720211,-8442.097419,-6405.004132,32162.48389,-10726.26689,3738.955109,0.158,0.942,0.148,192,0,0,0,0,0,0,0,0,0,1.71E+09,0, 2024-03-05 16:07:03.836
86,3516.622307,11728.54146,-4722.565975,-8168.065032,-6220.088151,32743.24927,-10750.94321,3709.070827,0.158,0.942,0.148,192,0,0,0,0,0,0,0,0,0,1.71E+09,0, 2024-03-05 16:07:03.836
87,2272.25599,11730.21784,-4667.066594,-8230.068771,-6173.864743,33117.10454,-10717.75087,3746.197074,0.158,0.942,0.148,192,0,0,0,0,0,0,0,0,0,1.71E+09,0, 2024-03-05 16:07:03.836
88,1171.901962,11801.51991,-5158.983786,-8554.48199,-6343.380373,32773.02179,-10680.33405,3795.795595,0.158,0.942,0.148,192,0,0,0,0,0,0,0,0,0,1.71E+09,0, 2024-03-05 16:07:03.836
89,1766.324254,11846.69278,-5494.662284,-8666.017195,-6481.156526,32212.5518,-10680.71403,3795.192098,0.158,0.942,0.148,192,0,0,0,0,0,0,0,0,0,1.71E+09,0, 2024-03-05 16:07:03.836
90,3191.292666,11805.72203,-5259.320767,-8447.104209,-6407.708693,32148.82697,-10719.29314,3741.65967,0.158,0.942,0.148,192,0,0,0,0,0,0,0,0,0,1.71E+09,0, 2024-03-05 16:07:03.836
91,3518.410446,11735.09052,-4730.791417,-8165.807505,-6215.886023,32732.25221,-10740.77317,3715.239908,0.158,0.942,0.148,192,0,0,0,0,0,0,0,0,0,1.71E+09,0, 2024-03-05 16:07:03.836
92,2306.096531,11728.94379,-4652.269739,-8213.237907,-6156.162161,33129.97915,-10722.89177,3736.742286,0.166,0.936,0.146,192,5,48,29,64,4,144,0,0,0,1.71E+09,0, 2024-03-05 16:07:03.836
93,1210.101093,11805.20794,-5137.481408,-8529.336277,-6313.451387,32801.78849,-10679.97643,3799.774206,0.166,0.936,0.146,192,0,0,0,0,0,0,0,0,0,1.71E+09,0, 2024-03-05 16:07:03.836
94,1801.684714,11848.10094,-5474.478659,-8642.793732,-6460.101182,32248.67222,-10690.99584,3789.58181,0.166,0.936,0.146,192,0,0,0,0,0,0,0,0,0,1.71E+09,0, 2024-03-05 16:07:03.836
95,3213.845577,11819.28954,-5259.186656,-8439.392857,-6395.6164,32161.94745,-10723.13764,3745.347708,0.166,0.936,0.146,192,0,0,0,0,0,0,0,0,0,1.71E+09,0, 2024-03-05 16:07:03.836
96,3578.156659,11742.91363,-4712.798263,-8144.841569,-6192.327284,32759.85661,-10751.07732,3711.820091,0.166,0.936,0.146,192,0,0,0,0,0,0,0,0,0,1.71E+09,0, 2024-03-05 16:07:03.836
97,2358.444316,11745.0594,-4642.613786,-8197.524631,-6137.207882,33149.29106,-10721.70713,3745.88415,0.166,0.936,0.146,192,0,0,0,0,0,0,0,0,0,1.71E+09,0, 2024-03-05 16:07:03.836
98,1237.727849,11813.74631,-5136.117951,-8521.267297,-6298.095739,32812.78554,-10681.22812,3795.72854,0.166,0.936,0.146,192,0,0,0,0,0,0,0,0,0,1.71E+09,0, 2024-03-05 16:07:03.836
99,1824.304679,11856.05816,-5468.913075,-8633.763627,-6437.838845,32261.79269,-10689.2077,3788.017188,0.166,0.936,0.146,192,0,0,0,0,0,0,0,0,0,1.71E+09,0, 2024-03-05 16:07:03.836
100,3234.587995,11816.54028,-5263.58995,-8438.208215,-6376.66212,32162.97563,-10722.5565,3740.743249,0.166,0.936,0.146,192,0,0,0,0,0,0,0,0,0,1.71E+09,0, 2024-03-05 16:07:03.836
101,3608.39857,11731.76011,-4720.621374,-8147.076743,-6179.832659,32753.17344,-10758.69927,3700.197184,0.166,0.936,0.146,192,0,0,0,0,0,0,0,0,0,1.71E+09,0, 2024-03-05 16:07:03.836
102,2394.564735,11730.2849,-4648.402887,-8201.458538,-6132.223443,33149.44752,-10739.09679,3725.879338,0.176,0.922,0.148,192,5,128,28,208,4,160,0,0,0,1.71E+09,0, 2024-03-05 16:07:03.836
103,1260.727794,11797.22837,-5139.537768,-8529.783312,-6295.748805,32822.15092,-10699.06481,3775.634322,0.176,0.922,0.148,192,0,0,0,0,0,0,0,0,0,1.71E+09,0, 2024-03-05 16:07:03.836
104,1812.346496,11844.45761,-5489.499031,-8655.735392,-6439.448171,32249.67805,-10702.41758,3772.818002,0.176,0.922,0.148,192,0,0,0,0,0,0,0,0,0,1.71E+09,0, 2024-03-05 16:07:03.836
105,3234.230367,11813.72396,-5275.570485,-8452.468628,-6371.342405,32151.06215,-10731.4972,3731.757847,0.176,0.922,0.148,192,0,0,0,0,0,0,0,0,0,1.71E+09,0, 2024-03-05 16:07:03.836
106,3616.065218,11730.10608,-4733.51833,-8156.620938,-6173.171839,32743.0928,-10761.09091,3699.325466,0.176,0.922,0.148,192,0,0,0,0,0,0,0,0,0,1.71E+09,0, 2024-03-05 16:07:03.836
107,2401.829052,11732.00598,-4656.315405,-8203.961933,-6122.768655,33146.81001,-10735.00642,3734.462408,0.176,0.922,0.148,192,0,0,0,0,0,0,0,0,0,1.71E+09,0, 2024-03-05 16:07:03.836
108,1249.753088,11807.28666,-5145.639795,-8529.224518,-6285.355244,32824.05082,-10691.62168,3787.726615,0.176,0.922,0.148,192,0,0,0,0,0,0,0,0,0,1.71E+09,0, 2024-03-05 16:07:03.836
109,1794.308638,11849.79967,-5487.107395,-8649.409848,-6430.954508,32264.60901,-10699.80242,3776.818964,0.176,0.922,0.148,192,0,0,0,0,0,0,0,0,0,1.71E+09,0, 2024-03-05 16:07:03.836
110,3216.19251,11808.18073,-5285.047625,-8457.050736,-6375.656292,32157.36534,-10742.36014,3721.364286,0.176,0.922,0.148,192,0,0,0,0,0,0,0,0,0,1.71E+09,0, 2024-03-05 16:07:03.836
111,3618.233337,11727.96032,-4744.157761,-8163.549979,-6181.687854,32738.91303,-10768.7352,3696.956181,0.176,0.922,0.148,192,0,0,0,0,0,0,0,0,0,1.71E+09,0, 2024-03-05 16:07:03.836
112,2414.390733,11736.00694,-4656.24835,-8204.185451,-6128.222481,33145.46891,-10732.72654,3741.458504,0.182,0.94,0.144,192,5,176,29,96,4,128,0,0,0,1.71E+09,0, 2024-03-05 16:07:03.837
113,1258.358509,11806.03496,-5137.25789,-8521.133187,-6289.915,32834.08676,-10686.43608,3796.197927,0.182,0.94,0.144,192,0,0,0,0,0,0,0,0,0,1.71E+09,0, 2024-03-05 16:07:03.837
114,1786.954914,11846.93865,-5484.73811,-8645.900625,-6437.570624,32270.9122,-10694.12508,3787.793671,0.182,0.94,0.144,192,0,0,0,0,0,0,0,0,0,1.71E+09,0, 2024-03-05 16:07:03.837
115,3184.564791,11812.11463,-5301.856137,-8465.745564,-6389.559077,32138.65693,-10729.41848,3738.932757,0.182,0.94,0.144,192,0,0,0,0,0,0,0,0,0,1.71E+09,0, 2024-03-05 16:07:03.837
116,3617.719247,11726.57451,-4743.196636,-8155.123371,-6186.649941,32738.37659,-10767.95289,3688.395463,0.182,0.94,0.144,192,0,0,0,0,0,0,0,0,0,1.71E+09,0, 2024-03-05 16:07:03.837
117,2455.294425,11713.40933,-4636.601166,-8192.00375,-6136.358516,33173.5874,-10752.99957,3709.003771,0.182,0.94,0.144,192,0,0,0,0,0,0,0,0,0,1.71E+09,0, 2024-03-05 16:07:03.837
118,1266.539248,11792.71332,-5132.496969,-8532.242004,-6307.46112,32842.60277,-10697.5896,3775.053176,0.182,0.94,0.144,192,0,0,0,0,0,0,0,0,0,1.71E+09,0, 2024-03-05 16:07:03.837
119,1764.334949,11840.63546,-5487.532078,-8660.496314,-6456.435496,32267.11241,-10701.59056,3771.141621,0.182,0.94,0.144,192,0,0,0,0,0,0,0,0,0,1.71E+09,0, 2024-03-05 16:07:03.837
120,3179.558001,11799.30708,-5293.943619,-8466.930207,-6406.591106,32149.54223,-10738.64975,3717.765655,0.182,0.94,0.144,192,0,0,0,0,0,0,0,0,0,1.71E+09,0, 2024-03-05 16:07:03.837
121,3630.325631,11713.6105,-4737.765162,-8162.79002,-6211.907412,32749.26189,-10773.65259,3674.805602,0.182,0.94,0.144,192,0,0,0,0,0,0,0,0,0,1.71E+09,0, 2024-03-05 16:07:03.837
122,2439.916425,11714.54927,-4644.290166,-8205.660666,-6159.000833,33170.3017,-10747.23282,3708.556737,0.178,0.94,0.136,192,5,144,29,96,4,64,0,0,0,1.71E+09,0, 2024-03-05 16:07:03.837
123,1254.737527,11788.46649,-5123.846844,-8531.482045,-6317.20648,32864.14985,-10702.41758,3766.335996,0.178,0.94,0.136,192,0,0,0,0,0,0,0,0,0,1.71E+09,0, 2024-03-05 16:07:03.837
124,1717.485692,11846.17869,-5499.356151,-8674.466154,-6465.398546,32272.58858,-10694.84034,3772.773298,0.178,0.94,0.136,192,0,0,0,0,0,0,0,0,0,1.71E+09,0, 2024-03-05 16:07:03.837
125,3113.240375,11817.99314,-5320.117512,-8484.744547,-6411.307324,32131.95141,-10726.33394,3731.646089,0.178,0.94,0.136,192,0,0,0,0,0,0,0,0,0,1.71E+09,0, 2024-03-05 16:07:03.837
126,3561.839886,11735.55991,-4764.341386,-8170.255502,-6209.694589,32711.28627,-10758.65457,3691.4353,0.178,0.94,0.136,192,0,0,0,0,0,0,0,0,0,1.71E+09,0, 2024-03-05 16:07:03.837
127,2426.684192,11717.14207,-4628.867463,-8182.057224,-6148.361403,33165.2055,-10749.19978,3705.27103,0.178,0.94,0.136,192,0,0,0,0,0,0,0,0,0,1.71E+09,0, 2024-03-05 16:07:03.837
128,1259.319634,11785.449,-5097.628247,-8509.689094,-6315.865376,32876.01863,-10708.07257,3763.56438,0.178,0.94,0.136,192,0,0,0,0,0,0,0,0,0,1.71E+09,0, 2024-03-05 16:07:03.837
129,1714.289393,11852.14661,-5478.97136,-8657.434125,-6462.001081,32292.52634,-10694.66152,3779.255304,0.178,0.94,0.136,192,0,0,0,0,0,0,0,0,0,1.71E+09,0, 2024-03-05 16:07:03.837
130,3113.82152,11817.61316,-5309.299267,-8476.921436,-6410.793234,32149.02814,-10733.15123,3726.728705,0.178,0.94,0.136,192,0,0,0,0,0,0,0,0,0,1.71E+09,0, 2024-03-05 16:07:03.837
131,3605.135215,11725.61338,-4742.794304,-8162.186523,-6211.147453,32735.80614,-10775.03839,3673.956236,0.178,0.94,0.136,192,0,0,0,0,0,0,0,0,0,1.71E+09,0, 2024-03-05 16:07:03.837
132,2449.818248,11718.63964,-4630.476788,-8196.697616,-6157.838542,33164.13261,-10756.12882,3697.71614,0.16,0.944,0.134,192,5,0,29,128,4,48,0,0,0,1.71E+09,0, 2024-03-05 16:07:03.837
133,1258.269102,11781.82802,-5099.505794,-8517.266335,-6315.574803,32877.35973,-10714.35341,3749.236911,0.16,0.944,0.134,192,0,0,0,0,0,0,0,0,0,1.71E+09,0, 2024-03-05 16:07:03.837
134,1700.811291,11834.6899,-5474.858639,-8660.786886,-6458.983595,32304.39512,-10708.69842,3753.640205,0.16,0.944,0.134,192,0,0,0,0,0,0,0,0,0,1.71E+09,0, 2024-03-05 16:07:03.837
135,3093.950819,11809.23126,-5314.641334,-8485.929189,-6407.485176,32149.00579,-10737.91215,3713.8541,0.16,0.944,0.134,192,0,0,0,0,0,0,0,0,0,1.71E+09,0, 2024-03-05 16:07:03.837
136,3589.868973,11726.37334,-4751.71265,-8168.020328,-6196.596467,32729.36883,-10767.90819,3678.001902,0.16,0.944,0.134,192,0,0,0,0,0,0,0,0,0,1.71E+09,0, 2024-03-05 16:07:03.837
137,2450.399393,11715.77861,-4619.926765,-8191.400253,-6130.055324,33171.17341,-10744.61767,3704.041684,0.16,0.944,0.134,192,0,0,0,0,0,0,0,0,0,1.71E+09,0, 2024-03-05 16:07:03.837
138,1250.960082,11785.00197,-5082.697282,-8508.929134,-6284.885858,32888.78147,-10701.16588,3758.892865,0.16,0.944,0.134,192,0,0,0,0,0,0,0,0,0,1.71E+09,0, 2024-03-05 16:07:03.837
139,1688.540183,11841.01544,-5456.999595,-8649.745125,-6435.961298,32316.46506,-10701.92584,3763.609083,0.16,0.944,0.134,192,0,0,0,0,0,0,0,0,0,1.71E+09,0, 2024-03-05 16:07:03.837
140,3089.368712,11814.43921,-5300.738549,-8476.250884,-6397.806871,32154.50432,-10736.32517,3719.464388,0.16,0.944,0.134,192,0,0,0,0,0,0,0,0,0,1.71E+09,0, 2024-03-05 16:07:03.837
141,3604.218793,11732.29655,-4742.347269,-8161.784191,-6201.916182,32725.30082,-10771.57387,3678.471288,0.16,0.944,0.134,192,0,0,0,0,0,0,0,0,0,1.71E+09,0, 2024-03-05 16:07:03.837
142,2465.911504,11721.23244,-4616.171672,-8185.275875,-6137.252586,33167.44067,-10753.75953,3702.9688,0.15,0.95,0.13,192,4,176,29,176,4,16,0,0,0,1.71E+09,0, 2024-03-05 16:07:03.837
143,1259.163172,11782.72209,-5079.478631,-8506.358684,-6294.184183,32897.85628,-10711.73825,3757.574112,0.15,0.95,0.13,192,0,0,0,0,0,0,0,0,0,1.71E+09,0, 2024-03-05 16:07:03.837
144,1675.844392,11828.9455,-5460.754688,-8658.551712,-6442.040973,32324.95872,-10708.85488,3756.434173,0.15,0.95,0.13,192,0,0,0,0,0,0,0,0,0,1.71E+09,0, 2024-03-05 16:07:03.837
145,3077.768156,11803.91154,-5310.998,-8489.863096,-6404.981781,32157.58886,-10738.60505,3718.167987,0.15,0.95,0.13,192,0,0,0,0,0,0,0,0,0,1.71E+09,0, 2024-03-05 16:07:03.837
146,3595.389854,11727.91561,-4756.160647,-8172.40127,-6206.230069,32722.81977,-10768.087,3684.014521,0.15,0.95,0.13,192,0,0,0,0,0,0,0,0,0,1.71E+09,0, 2024-03-05 16:07:03.837
147,2449.885303,11721.3889,-4631.39321,-8193.791889,-6143.354612,33162.94797,-10748.52923,3705.427492,0.15,0.95,0.13,192,0,0,0,0,0,0,0,0,0,1.71E+09,0, 2024-03-05 16:07:03.837
148,1221.835759,11781.11276,-5093.470823,-8513.86887,-6303.817785,32888.4015,-10712.67703,3754.131943,0.15,0.95,0.13,192,0,0,0,0,0,0,0,0,0,1.71E+09,0, 2024-03-05 16:07:03.837
149,1633.644299,11831.06891,-5466.208514,-8656.651814,-6453.418011,32319.19197,-10705.8821,3764.011415,0.15,0.95,0.13,192,0,0,0,0,0,0,0,0,0,1.71E+09,0, 2024-03-05 16:07:03.837
150,3038.563196,11809.38772,-5319.223442,-8492.835878,-6414.727141,32137.06996,-10730.9384,3727.220443,0.15,0.95,0.13,192,0,0,0,0,0,0,0,0,0,1.71E+09,0, 2024-03-05 16:07:03.837
151,3579.229543,11722.75236,-4763.670834,-8177.698633,-6217.338886,32699.64101,-10769.80809,3677.957198,0.15,0.95,0.13,192,0,0,0,0,0,0,0,0,0,1.71E+09,0, 2024-03-05 16:07:03.837
152,2458.714242,11713.34227,-4628.532187,-8191.512011,-6150.551874,33153.47083,-10755.2124,3699.414873,0.162,0.946,0.122,192,5,16,29,144,3,208,0,0,0,1.71E+09,0, 2024-03-05 16:07:03.837
153,1248.88137,11771.25564,-5079.568038,-8503.22944,-6304.220117,32903.91361,-10719.4049,3746.286481,0.162,0.946,0.122,192,0,0,0,0,0,0,0,0,0,1.71E+09,0, 2024-03-05 16:07:03.837
154,1643.501418,11827.62674,-5464.129801,-8661.613901,-6460.749383,32327.21625,-10712.67703,3757.641167,0.162,0.946,0.122,192,0,0,0,0,0,0,0,0,0,1.71E+09,0, 2024-03-05 16:07:03.837
155,3050.454325,11814.03688,-5315.848329,-8493.528783,-6416.068246,32141.4956,-10731.22898,3728.5839,0.162,0.946,0.122,192,0,0,0,0,0,0,0,0,0,1.71E+09,0, 2024-03-05 16:07:03.837
156,3610.857262,11727.62504,-4757.501752,-8172.714194,-6216.668334,32706.48065,-10767.55056,3681.622884,0.162,0.946,0.122,192,0,0,0,0,0,0,0,0,0,1.71E+09,0, 2024-03-05 16:07:03.837
157,2499.461472,11712.62702,-4616.01521,-8179.129145,-6148.58492,33170.74873,-10756.21823,3693.648123,0.162,0.946,0.122,192,0,0,0,0,0,0,0,0,0,1.71E+09,0, 2024-03-05 16:07:03.837
