Sample Index, EXG Channel 0, EXG Channel 1, EXG Channel 2, EXG Channel 3, EXG Channel 4, EXG Channel 5, EXG Channel 6, EXG Channel 7, Accel Channel 0, Accel Channel 1, Accel Channel 2, Other, Other, Other, Other, Other, Other, Other, Analog Channel 0, Analog Channel 1, Analog Channel 2, Timestamp, Other, Timestamp (Formatted)
0,-3775.902543,11261.47941,-7814.974524,-7168.718537,-3948.636824,29512.41636,-13642.47664,-1590.080749,0.202,0.934,0.162,192,0,0,0,0,0,0,0,0,0,1.71E+09,0, 2024-03-05 16:08:57.746
1,312.0527043,10959.44029,-4835.442285,-5250.558883,-2701.007152,34230.55669,-13948.65083,-1911.141206,0.202,0.934,0.162,192,0,0,0,0,0,0,0,0,0,1.71E+09,0, 2024-03-05 16:08:57.746
2,107.75776,11032.0611,-5694.688045,-5926.341525,-3274.821135,34913.78247,-13835.03691,-1710.377837,0.202,0.934,0.162,192,0,0,0,0,0,0,0,0,0,1.71E+09,0, 2024-03-05 16:08:57.746
3,-4009.70179,11370.2877,-9137.437837,-8211.382712,-4850.462657,30739.75065,-13470.25644,-1275.636408,0.202,0.934,0.162,192,0,0,0,0,0,0,0,0,0,1.71E+09,0, 2024-03-05 16:08:57.746
4,-6650.672156,11527.66633,-10648.97456,-9123.065665,-5361.825867,27189.2431,-13323.85252,-1171.119651,0.202,0.934,0.162,192,0,0,0,0,0,0,0,0,0,1.71E+09,0, 2024-03-05 16:08:57.746
5,-3834.464113,11249.27536,-7864.50599,-7198.021674,-3971.368548,29466.10355,-13644.10831,-1597.188604,0.202,0.934,0.162,192,0,0,0,0,0,0,0,0,0,1.71E+09,0, 2024-03-05 16:08:57.746
6,265.4493172,10959.37323,-4868.813439,-5270.340177,-2712.585355,34178.34302,-13938.95017,-1907.184947,0.202,0.934,0.162,192,0,0,0,0,0,0,0,0,0,1.71E+09,0, 2024-03-05 16:08:57.746
7,133.1046382,11027.59075,-5670.27994,-5907.230783,-3260.381908,34935.46366,-13831.14771,-1711.674239,0.202,0.934,0.162,192,0,0,0,0,0,0,0,0,0,1.71E+09,0, 2024-03-05 16:08:57.746
8,-3952.034289,11355.98258,-9098.814022,-8186.058186,-4837.073962,30804.70482,-13477.34195,-1287.371074,0.202,0.934,0.162,192,0,0,0,0,0,0,0,0,0,1.71E+09,0, 2024-03-05 16:08:57.746
9,-6653.689641,11526.0123,-10671.57217,-9141.863482,-5378.254399,27199.65901,-13319.71745,-1171.320816,0.206,0.932,0.16,192,6,112,29,32,5,0,0,0,0,1.71E+09,0, 2024-03-05 16:08:57.746
10,-3921.188882,11262.79816,-7937.596194,-7247.530788,-4000.448167,29384.60909,-13624.17056,-1580.000112,0.206,0.932,0.16,192,0,0,0,0,0,0,0,0,0,1.71E+09,0, 2024-03-05 16:08:57.747
11,206.3960083,10959.68616,-4900.865841,-5294.010674,-2723.895338,34115.15464,-13935.84328,-1905.374456,0.206,0.932,0.16,192,0,0,0,0,0,0,0,0,0,1.71E+09,0, 2024-03-05 16:08:57.747
12,168.5768567,11021.44403,-5624.749437,-5883.426176,-3243.729859,34967.56076,-13832.75704,-1716.546919,0.206,0.932,0.16,192,0,0,0,0,0,0,0,0,0,1.71E+09,0, 2024-03-05 16:08:57.747
13,-3890.276419,11353.99328,-9044.789856,-8158.05145,-4820.980706,30875.64926,-13474.54798,-1288.108681,0.206,0.932,0.16,192,0,0,0,0,0,0,0,0,0,1.71E+09,0, 2024-03-05 16:08:57.747
14,-6639.161007,11517.89862,-10666.07364,-9143.964546,-5389.810251,27226.01172,-13324.59013,-1179.210982,0.206,0.932,0.16,192,0,0,0,0,0,0,0,0,0,1.71E+09,0, 2024-03-05 16:08:57.747
15,-3987.037121,11267.42497,-7989.966332,-7283.025358,-4036.23331,29325.60048,-13619.52139,-1580.961237,0.206,0.932,0.16,192,0,0,0,0,0,0,0,0,0,1.71E+09,0, 2024-03-05 16:08:57.747
16,160.7313944,10961.67546,-4924.692801,-5305.320657,-2737.328736,34068.86417,-13932.44582,-1908.637811,0.206,0.932,0.16,192,0,0,0,0,0,0,0,0,0,1.71E+09,0, 2024-03-05 16:08:57.747
17,191.9344296,11022.22634,-5595.669817,-5859.733326,-3228.061286,34992.84059,-13834.99221,-1718.178596,0.206,0.932,0.16,192,0,0,0,0,0,0,0,0,0,1.71E+09,0, 2024-03-05 16:08:57.747
18,-3855.541808,11360.18471,-9014.436187,-8133.933918,-4803.881622,30929.80754,-13472.53632,-1283.236001,0.206,0.932,0.16,192,0,0,0,0,0,0,0,0,0,1.71E+09,0, 2024-03-05 16:08:57.747
19,-6645.195978,11529.72269,-10675.55078,-9142.914014,-5391.106652,27238.37224,-13315.76119,-1167.565723,0.206,0.932,0.16,192,0,0,0,0,0,0,0,0,0,1.71E+09,0, 2024-03-05 16:08:57.747
20,-4041.173046,11282.5571,-8031.607632,-7307.880498,-4052.572435,29265.11666,-13608.63609,-1566.924342,0.202,0.932,0.158,192,6,80,29,32,4,240,0,0,0,1.71E+09,0, 2024-03-05 16:08:57.747
21,129.4613039,10972.22548,-4939.556711,-5311.355628,-2738.759248,34011.28608,-13930.45651,-1903.675724,0.202,0.932,0.158,192,0,0,0,0,0,0,0,0,0,1.71E+09,0, 2024-03-05 16:08:57.747
22,240.1918459,11022.65102,-5556.062526,-5823.411742,-3200.009847,35016.60049,-13842.56945,-1727.700439,0.202,0.932,0.158,192,0,0,0,0,0,0,0,0,0,1.71E+09,0, 2024-03-05 16:08:57.747
23,-3777.757737,11352.3616,-8963.027175,-8090.035092,-4770.577523,31008.66449,-13482.77342,-1291.304981,0.202,0.932,0.158,192,0,0,0,0,0,0,0,0,0,1.71E+09,0, 2024-03-05 16:08:57.747
24,-6641.977327,11529.40977,-10685.94434,-9142.198758,-5390.033768,27265.77547,-13316.49879,-1153.394717,0.202,0.932,0.158,192,0,0,0,0,0,0,0,0,0,1.71E+09,0, 2024-03-05 16:08:57.747
25,-4109.52468,11287.18392,-8093.253743,-7335.641365,-4070.744404,29211.40542,-13604.56808,-1546.78542,0.202,0.932,0.158,192,0,0,0,0,0,0,0,0,0,1.71E+09,0, 2024-03-05 16:08:57.747
26,83.84139345,10973.45483,-4980.661569,-5321.548023,-2749.085754,33957.39603,-13927.30491,-1890.667008,0.202,0.932,0.158,192,0,0,0,0,0,0,0,0,0,1.71E+09,0, 2024-03-05 16:08:57.747
27,277.0498725,11013.10682,-5534.046058,-5793.907439,-3188.811623,35047.06592,-13851.28663,-1731.16496,0.202,0.932,0.158,192,0,0,0,0,0,0,0,0,0,1.71E+09,0, 2024-03-05 16:08:57.747
28,-3716.625716,11339.79992,-8931.95825,-8062.117763,-4767.33652,31082.35819,-13497.12324,-1303.46433,0.202,0.932,0.158,192,0,0,0,0,0,0,0,0,0,1.71E+09,0, 2024-03-05 16:08:57.747
29,-6645.352441,11527.33106,-10708.89958,-9158.604939,-5407.334019,27274.17973,-13315.82824,-1158.088584,0.202,0.932,0.158,192,0,0,0,0,0,0,0,0,0,1.71E+09,0, 2024-03-05 16:08:57.747
30,-4170.433184,11285.35107,-8154.139895,-7379.160211,-4100.405169,29144.97604,-13603.31638,-1553.267426,0.204,0.93,0.158,192,6,96,29,16,4,240,0,0,0,1.71E+09,0, 2024-03-05 16:08:57.747
31,51.02903259,10972.73957,-5012.512805,-5347.90073,-2762.049766,33900.89082,-13928.9813,-1900.077093,0.204,0.93,0.158,192,0,0,0,0,0,0,0,0,0,1.71E+09,0, 2024-03-05 16:08:57.747
32,323.5191492,11012.97271,-5501.457215,-5779.289398,-3170.349082,35069.28355,-13848.85029,-1736.439971,0.204,0.93,0.158,192,0,0,0,0,0,0,0,0,0,1.71E+09,0, 2024-03-05 16:08:57.747
33,-3646.32948,11342.16921,-8885.913656,-8039.40839,-4742.950766,31141.88089,-13492.1388,-1305.833615,0.204,0.93,0.158,192,0,0,0,0,0,0,0,0,0,1.71E+09,0, 2024-03-05 16:08:57.747
34,-6612.182452,11521.89958,-10709.41367,-9163.522323,-5414.598336,27300.10775,-13323.47254,-1172.036072,0.204,0.93,0.158,192,0,0,0,0,0,0,0,0,0,1.71E+09,0, 2024-03-05 16:08:57.747
35,-4213.013257,11284.52406,-8211.583878,-7418.588688,-4131.965832,29091.37655,-13600.83534,-1546.651309,0.204,0.93,0.158,192,0,0,0,0,0,0,0,0,0,1.71E+09,0, 2024-03-05 16:08:57.747
36,25.21276775,10971.77845,-5030.26009,-5361.267073,-2763.189705,33859.20481,-13923.50512,-1886.241363,0.204,0.93,0.158,192,0,0,0,0,0,0,0,0,0,1.71E+09,0, 2024-03-05 16:08:57.747
37,369.9437225,11005.1496,-5453.08804,-5754.031927,-3144.286948,35108.17559,-13855.3323,-1735.456495,0.204,0.93,0.158,192,0,0,0,0,0,0,0,0,0,1.71E+09,0, 2024-03-05 16:08:57.747
38,-3577.799031,11335.86601,-8833.699981,-8011.111082,-4722.610679,31219.30733,-13495.24569,-1304.917193,0.204,0.93,0.158,192,0,0,0,0,0,0,0,0,0,1.71E+09,0, 2024-03-05 16:08:57.747
39,-6613.232984,11525.09588,-10713.86167,-9170.004328,-5422.60026,27318.48089,-13310.64264,-1158.692081,0.204,0.93,0.158,192,0,0,0,0,0,0,0,0,0,1.71E+09,0, 2024-03-05 16:08:57.747
40,-4289.612685,11294.6941,-8258.053155,-7449.188226,-4154.161114,29023.42725,-13586.06083,-1534.603719,0.202,0.93,0.16,192,6,80,29,16,5,0,0,0,0,1.71E+09,0, 2024-03-05 16:08:57.747
41,-44.45761972,10978.7969,-5056.612796,-5377.785012,-2775.572571,33787.18749,-13915.83847,-1886.777805,0.202,0.93,0.16,192,0,0,0,0,0,0,0,0,0,1.71E+09,0, 2024-03-05 16:08:57.747
42,367.4403271,11004.16613,-5428.612879,-5732.887177,-3134.45218,35110.34371,-13855.10878,-1745.917111,0.202,0.93,0.16,192,0,0,0,0,0,0,0,0,0,1.71E+09,0, 2024-03-05 16:08:57.747
43,-3542.438572,11327.26059,-8788.571809,-7975.929436,-4699.029589,31279.18765,-13497.30206,-1315.020182,0.202,0.93,0.16,192,0,0,0,0,0,0,0,0,0,1.71E+09,0, 2024-03-05 16:08:57.747
44,-6622.598365,11517.98803,-10720.41073,-9170.473715,-5423.293164,27340.63147,-13315.42591,-1162.64834,0.202,0.93,0.16,192,0,0,0,0,0,0,0,0,0,1.71E+09,0, 2024-03-05 16:08:57.747
45,-4366.390928,11291.81073,-8318.46992,-7488.527297,-4182.011388,28963.92691,-13584.69738,-1536.548321,0.202,0.93,0.16,192,0,0,0,0,0,0,0,0,0,1.71E+09,0, 2024-03-05 16:08:57.747
46,-107.4224839,10975.93587,-5095.840108,-5399.086225,-2793.655132,33724.40144,-13912.21749,-1888.811813,0.202,0.93,0.16,192,0,0,0,0,0,0,0,0,0,1.71E+09,0, 2024-03-05 16:08:57.747
47,390.2838099,10996.7677,-5398.415673,-5708.501423,-3127.456084,35126.79459,-13860.67436,-1754.142553,0.202,0.93,0.16,192,0,0,0,0,0,0,0,0,0,1.71E+09,0, 2024-03-05 16:08:57.747
48,-3484.994588,11324.98071,-8750.484437,-7950.381392,-4695.185089,31333.70356,-13502.4206,-1318.775275,0.202,0.93,0.16,192,0,0,0,0,0,0,0,0,0,1.71E+09,0, 2024-03-05 16:08:57.747
49,-6602.638257,11518.39036,-10724.41169,-9173.35709,-5431.429199,27359.74221,-13317.81755,-1158.401508,0.202,0.93,0.16,192,0,0,0,0,0,0,0,0,0,1.71E+09,0, 2024-03-05 16:08:57.747
50,-4399.940896,11291.27428,-8369.364842,-7522.569003,-4204.407836,28911.24385,-13588.1619,-1533.32967,0.206,0.934,0.166,192,6,112,29,48,5,48,0,0,0,1.71E+09,0, 2024-03-05 16:08:57.747
51,-133.3952109,10973.0972,-5138.911919,-5424.969545,-2800.919449,33665.21402,-13916.12904,-1891.002284,0.206,0.934,0.166,192,0,0,0,0,0,0,0,0,0,1.71E+09,0, 2024-03-05 16:08:57.747
52,451.1699618,10983.69193,-5374.789879,-5686.104975,-3091.201555,35156.07538,-13867.29048,-1762.546809,0.206,0.934,0.166,192,0,0,0,0,0,0,0,0,0,1.71E+09,0, 2024-03-05 16:08:57.747
53,-3394.134747,11307.05462,-8707.658494,-7916.697313,-4654.281396,31419.57896,-13515.94341,-1327.112475,0.206,0.934,0.166,192,0,0,0,0,0,0,0,0,0,1.71E+09,0, 2024-03-05 16:08:57.747
54,-6598.994923,11516.53516,-10744.46121,-9182.901285,-5431.228033,27382.63039,-13316.36468,-1151.047784,0.206,0.934,0.166,192,0,0,0,0,0,0,0,0,0,1.71E+09,0, 2024-03-05 16:08:57.747
55,-4491.09131,11304.55122,-8442.723267,-7561.148114,-4229.374734,28831.60458,-13572.91801,-1515.515329,0.206,0.934,0.166,192,0,0,0,0,0,0,0,0,0,1.71E+09,0, 2024-03-05 16:08:57.747
56,-191.1968221,10976.62878,-5170.293769,-5434.223167,-2808.630801,33596.81768,-13912.41865,-1886.554287,0.206,0.934,0.166,192,0,0,0,0,0,0,0,0,0,1.71E+09,0, 2024-03-05 16:08:57.747
57,478.6626075,10982.44023,-5339.250605,-5655.41603,-3078.885743,35173.24152,-13872.36433,-1765.63135,0.206,0.934,0.166,192,0,0,0,0,0,0,0,0,0,1.71E+09,0, 2024-03-05 16:08:57.747
58,-3334.701459,11308.731,-8659.266968,-7883.102641,-4641.876178,31483.86258,-13518.24564,-1332.454542,0.206,0.934,0.166,192,0,0,0,0,0,0,0,0,0,1.71E+09,0, 2024-03-05 16:08:57.747
59,-6580.442975,11519.73146,-10741.71194,-9183.124802,-5440.213435,27410.36891,-13314.50949,-1154.400546,0.206,0.934,0.166,192,0,0,0,0,0,0,0,0,0,1.71E+09,0, 2024-03-05 16:08:57.747
60,-4537.649994,11304.95355,-8488.432585,-7597.022664,-4255.97331,28786.90109,-13577.41071,-1524.456027,0.21,0.93,0.16,192,6,144,29,16,5,0,0,0,0,1.71E+09,0, 2024-03-05 16:08:57.747
61,-237.0626017,10979.75802,-5202.815557,-5462.855752,-2825.081685,33544.84988,-13911.25636,-1894.891488,0.21,0.93,0.16,192,0,0,0,0,0,0,0,0,0,1.71E+09,0, 2024-03-05 16:08:57.747
62,502.5342706,10982.59669,-5309.813358,-5640.328603,-3056.869275,35199.50482,-13870.30797,-1775.980207,0.21,0.93,0.16,192,0,0,0,0,0,0,0,0,0,1.71E+09,0, 2024-03-05 16:08:57.747
63,-3286.980484,11305.78057,-8612.261249,-7857.241673,-4605.487538,31559.74675,-13514.91523,-1332.856874,0.21,0.93,0.16,192,0,0,0,0,0,0,0,0,0,1.71E+09,0, 2024-03-05 16:08:57.747
64,-6586.41089,11524.6265,-10744.61767,-9194.323026,-5429.26108,27435.17935,-13303.02069,-1136.943833,0.21,0.93,0.16,192,0,0,0,0,0,0,0,0,0,1.71E+09,0, 2024-03-05 16:08:57.747
65,-4628.509835,11320.89035,-8548.804647,-7642.441409,-4267.976197,28704.08788,-13548.44285,-1496.42694,0.21,0.93,0.16,192,0,0,0,0,0,0,0,0,0,1.71E+09,0, 2024-03-05 16:08:57.747
66,-288.5386692,10985.59183,-5220.048752,-5474.970397,-2815.291621,33477.817,-13899.5664,-1880.943999,0.21,0.93,0.16,192,0,0,0,0,0,0,0,0,0,1.71E+09,0, 2024-03-05 16:08:57.747
67,537.6265094,10984.94363,-5263.120563,-5605.839861,-3025.532129,35219.06259,-13871.80553,-1771.241638,0.21,0.93,0.16,192,0,0,0,0,0,0,0,0,0,1.71E+09,0, 2024-03-05 16:08:57.747
68,-3229.983536,11313.60368,-8564.495571,-7818.5061,-4579.961846,31620.72231,-13513.84235,-1335.695545,0.21,0.93,0.16,192,0,0,0,0,0,0,0,0,0,1.71E+09,0, 2024-03-05 16:08:57.747
69,-6578.051338,11532.44961,-10737.68863,-9180.889628,-5422.823778,27460.70504,-13300.78552,-1144.163447,0.21,0.93,0.16,192,0,0,0,0,0,0,0,0,0,1.71E+09,0, 2024-03-05 16:08:57.747
70,-4686.311446,11328.51229,-8586.869667,-7657.282967,-4285.589371,28665.97815,-13552.06383,-1499.444425,0.202,0.93,0.16,192,6,80,29,16,5,0,0,0,0,1.71E+09,0, 2024-03-05 16:08:57.747
71,-356.0632892,11001.17099,-5254.984528,-5486.950932,-2830.021421,33428.91138,-13895.69955,-1870.326921,0.202,0.93,0.16,192,0,0,0,0,0,0,0,0,0,1.71E+09,0, 2024-03-05 16:08:57.747
72,543.6614804,10992.9232,-5239.651232,-5580.023596,-3009.595336,35245.97409,-13870.53148,-1768.894704,0.202,0.93,0.16,192,0,0,0,0,0,0,0,0,0,1.71E+09,0, 2024-03-05 16:08:57.747
73,-3178.194544,11311.45791,-8515.165271,-7778.675291,-4561.409898,31709.0564,-13520.83844,-1338.176589,0.202,0.93,0.16,192,0,0,0,0,0,0,0,0,0,1.71E+09,0, 2024-03-05 16:08:57.747
74,-6575.704405,11527.50987,-10741.26491,-9177.447459,-5438.827627,27508.49307,-13309.63681,-1146.532732,0.202,0.93,0.16,192,0,0,0,0,0,0,0,0,0,1.71E+09,0, 2024-03-05 16:08:57.747
75,-4763.290854,11332.24503,-8651.890892,-7695.571505,-4324.034372,28618.74892,-13548.97929,-1489.229678,0.202,0.93,0.16,192,0,0,0,0,0,0,0,0,0,1.71E+09,0, 2024-03-05 16:08:57.747
76,-427.4100575,11006.31189,-5298.078692,-5511.068465,-2851.099116,33366.88529,-13890.64805,-1867.421194,0.202,0.93,0.16,192,0,0,0,0,0,0,0,0,0,1.71E+09,0, 2024-03-05 16:08:57.747
77,560.0006056,10979.91448,-5204.022551,-5554.542608,-3003.090978,35273.42204,-13885.79773,-1792.721664,0.202,0.93,0.16,192,0,0,0,0,0,0,0,0,0,1.71E+09,0, 2024-03-05 16:08:57.747
78,-3116.928413,11293.01772,-8458.235378,-7744.387715,-4551.932758,31798.32927,-13537.55755,-1358.114345,0.202,0.93,0.16,192,0,0,0,0,0,0,0,0,0,1.71E+09,0, 2024-03-05 16:08:57.747
79,-6562.427469,11515.55169,-10735.29699,-9178.073308,-5448.751801,27557.59985,-13315.15769,-1150.131363,0.202,0.93,0.16,192,0,0,0,0,0,0,0,0,0,1.71E+09,0, 2024-03-05 16:08:57.747
80,-4826.658049,11325.22658,-8707.434977,-7736.184625,-4356.824381,28574.47011,-13547.28056,-1485.519288,0.202,0.936,0.162,192,6,80,29,64,5,16,0,0,0,1.71E+09,0, 2024-03-05 16:08:57.747
81,-467.9561219,10991.78326,-5331.874529,-5531.542663,-2873.249694,33323.27704,-13897.46534,-1874.394938,0.202,0.936,0.162,192,0,0,0,0,0,0,0,0,0,1.71E+09,0, 2024-03-05 16:08:57.747
82,582.8217367,10973.63364,-5189.337455,-5541.600948,-2993.993818,35293.20333,-13885.75302,-1788.340722,0.202,0.936,0.162,192,0,0,0,0,0,0,0,0,0,1.71E+09,0, 2024-03-05 16:08:57.747
83,-3060.065575,11293.353,-8422.271421,-7718.884375,-4520.573261,31859.68481,-13532.68487,-1352.861685,0.202,0.936,0.162,192,0,0,0,0,0,0,0,0,0,1.71E+09,0, 2024-03-05 16:08:57.747
84,-6539.986317,11523.24069,-10736.0793,-9180.844925,-5436.972432,27580.30922,-13306.10523,-1136.720316,0.202,0.936,0.162,192,0,0,0,0,0,0,0,0,0,1.71E+09,0, 2024-03-05 16:08:57.747
85,-4878.357634,11338.72704,-8757.525236,-7769.734594,-4368.961378,28508.21954,-13537.5799,-1472.443518,0.202,0.936,0.162,192,0,0,0,0,0,0,0,0,0,1.71E+09,0, 2024-03-05 16:08:57.747
86,-516.057076,11005.35077,-5364.642187,-5551.033384,-2874.993131,33240.62028,-13884.7919,-1862.056775,0.202,0.936,0.162,192,0,0,0,0,0,0,0,0,0,1.71E+09,0, 2024-03-05 16:08:57.747
87,617.779865,10968.17982,-5155.049879,-5520.053866,-2974.03371,35286.90014,-13892.86088,-1798.331952,0.202,0.936,0.162,192,0,0,0,0,0,0,0,0,0,1.71E+09,0, 2024-03-05 16:08:57.747
88,-3000.095844,11285.7087,-8378.193781,-7692.106985,-4506.312848,31897.90629,-13544.30777,-1367.189153,0.202,0.936,0.162,192,0,0,0,0,0,0,0,0,0,1.71E+09,0, 2024-03-05 16:08:57.747
89,-6530.352715,11521.20668,-10735.9899,-9181.649587,-5445.711964,27599.3082,-13310.95556,-1148.29852,0.202,0.936,0.162,192,0,0,0,0,0,0,0,0,0,1.71E+09,0, 2024-03-05 16:08:57.747
90,-4938.707344,11345.29845,-8806.319094,-7798.367178,-4394.442367,28470.37804,-13532.77427,-1467.21321,0.198,0.928,0.162,192,6,48,29,0,5,16,0,0,0,1.71E+09,0, 2024-03-05 16:08:57.747
91,-574.305722,11008.45766,-5396.180498,-5566.836067,-2890.281724,33197.03438,-13887.67527,-1858.882828,0.198,0.928,0.162,192,0,0,0,0,0,0,0,0,0,1.71E+09,0, 2024-03-05 16:08:57.747
92,604.7935015,10975.98058,-5137.012021,-5500.138462,-2964.534219,35288.55417,-13887.83173,-1785.74792,0.198,0.928,0.162,192,0,0,0,0,0,0,0,0,0,1.71E+09,0, 2024-03-05 16:08:57.747
93,-2968.870457,11292.0566,-8328.97524,-7654.265482,-4480.45188,31960.69234,-13538.40691,-1358.404918,0.198,0.928,0.162,192,0,0,0,0,0,0,0,0,0,1.71E+09,0, 2024-03-05 16:08:57.747
94,-6518.975677,11525.25235,-10715.24748,-9165.981014,-5430.848054,27648.25852,-13306.84284,-1136.988537,0.198,0.928,0.162,192,0,0,0,0,0,0,0,0,0,1.71E+09,0, 2024-03-05 16:08:57.747
95,-4999.951124,11350.88639,-8849.346203,-7826.664487,-4415.385951,28430.50253,-13528.81801,-1460.597093,0.198,0.928,0.162,192,0,0,0,0,0,0,0,0,0,1.71E+09,0, 2024-03-05 16:08:57.747
96,-630.1627314,11012.68214,-5433.194987,-5586.684416,-2906.598497,33149.96161,-13885.14952,-1855.463011,0.198,0.928,0.162,192,0,0,0,0,0,0,0,0,0,1.71E+09,0, 2024-03-05 16:08:57.747
97,631.9061675,10976.44996,-5114.369704,-5482.30177,-2953.648919,35317.56673,-13892.30208,-1792.095815,0.198,0.928,0.162,192,0,0,0,0,0,0,0,0,0,1.71E+09,0, 2024-03-05 16:08:57.747
98,-2874.769613,11281.50657,-8270.368966,-7613.674714,-4464.068051,32067.33251,-13553.27082,-1372.821793,0.198,0.928,0.162,192,0,0,0,0,0,0,0,0,0,1.71E+09,0, 2024-03-05 16:08:57.747
99,-6476.485011,11519.95498,-10715.44864,-9163.969357,-5451.188141,27713.10094,-13318.35399,-1149.103182,0.198,0.928,0.162,192,0,0,0,0,0,0,0,0,0,1.71E+09,0, 2024-03-05 16:08:57.747
100,-5052.477724,11362.46459,-8918.904831,-7868.082269,-4455.507333,28388.97298,-13522.38071,-1453.131611,0.198,0.926,0.158,192,6,48,28,240,4,240,0,0,0,1.71E+09,0, 2024-03-05 16:08:57.747
101,-686.6232379,11025.95908,-5481.810031,-5612.500681,-2926.312736,33083.95691,-13873.68308,-1845.963519,0.198,0.926,0.158,192,0,0,0,0,0,0,0,0,0,1.71E+09,0, 2024-03-05 16:08:57.747
102,667.5124964,10973.23131,-5082.54082,-5451.344603,-2930.827788,35348.25568,-13895.61014,-1798.913097,0.198,0.926,0.158,192,0,0,0,0,0,0,0,0,0,1.71E+09,0, 2024-03-05 16:08:57.747
103,-2809.077836,11277.12563,-8221.128073,-7577.084908,-4436.575405,32146.25652,-13558.47878,-1376.107499,0.198,0.926,0.158,192,0,0,0,0,0,0,0,0,0,1.71E+09,0, 2024-03-05 16:08:57.747
104,-6450.914616,11523.24069,-10708.65371,-9157.062668,-5445.01906,27756.08334,-13313.54836,-1134.395735,0.198,0.926,0.158,192,0,0,0,0,0,0,0,0,0,1.71E+09,0, 2024-03-05 16:08:57.747
105,-5109.877003,11367.98547,-8965.798791,-7897.787738,-4471.444127,28341.40847,-13511.22719,-1432.545654,0.198,0.926,0.158,192,0,0,0,0,0,0,0,0,0,1.71E+09,0, 2024-03-05 16:08:57.747
106,-723.1683401,11020.19233,-5503.200651,-5625.330582,-2930.559567,33045.26604,-13872.58784,-1841.895502,0.198,0.926,0.158,192,0,0,0,0,0,0,0,0,0,1.71E+09,0, 2024-03-05 16:08:57.747
107,686.1091478,10968.001,-5059.429116,-5434.916071,-2917.953183,35366.96409,-13897.24182,-1804.322219,0.198,0.926,0.158,192,0,0,0,0,0,0,0,0,0,1.71E+09,0, 2024-03-05 16:08:57.747
108,-2765.156658,11270.71068,-8182.683072,-7547.334736,-4415.184786,32212.41769,-13563.195,-1380.399034,0.198,0.926,0.158,192,0,0,0,0,0,0,0,0,0,1.71E+09,0, 2024-03-05 16:08:58.227
109,-6458.335395,11522.95012,-10714.01813,-9159.811933,-5445.309632,27784.69357,-13314.12951,-1135.647432,0.198,0.926,0.158,192,0,0,0,0,0,0,0,0,0,1.71E+09,0, 2024-03-05 16:08:58.227
110,-5190.320932,11371.02531,-9024.360362,-7934.444598,-4497.37215,28291.42997,-13508.85791,-1436.613671,0.2,0.926,0.16,192,6,64,28,240,5,0,0,0,0,1.71E+09,0, 2024-03-05 16:08:58.227
111,-799.6113061,11024.12623,-5543.903177,-5652.219731,-2946.22814,32986.25743,-13872.49844,-1849.293929,0.2,0.926,0.16,192,0,0,0,0,0,0,0,0,0,1.71E+09,0, 2024-03-05 16:08:58.227
112,693.8204996,10965.47526,-5029.947165,-5418.040504,-2900.630581,35385.38192,-13901.57806,-1810.290135,0.2,0.926,0.16,192,0,0,0,0,0,0,0,0,0,1.71E+09,0, 2024-03-05 16:08:58.227
113,-2721.794274,11274.26461,-8135.476188,-7523.194852,-4393.637704,32280.14347,-13561.83154,-1381.829546,0.2,0.926,0.16,192,0,0,0,0,0,0,0,0,0,1.71E+09,0, 2024-03-05 16:08:58.227
114,-6456.10022,11532.33785,-10704.11631,-9157.643814,-5442.783885,27822.87035,-13304.4512,-1127.28788,0.2,0.926,0.16,192,0,0,0,0,0,0,0,0,0,1.71E+09,0, 2024-03-05 16:08:58.227
115,-5258.85138,11383.49758,-9067.231007,-7965.759392,-4519.321563,28247.93348,-13493.36815,-1418.039372,0.2,0.926,0.16,192,0,0,0,0,0,0,0,0,0,1.71E+09,0, 2024-03-05 16:08:58.227
116,-868.7676035,11036.30794,-5577.743718,-5673.431536,-2958.812172,32917.97285,-13859.78029,-1831.680755,0.2,0.926,0.16,192,0,0,0,0,0,0,0,0,0,1.71E+09,0, 2024-03-05 16:08:58.227
117,702.8282527,10958.76973,-5003.125072,-5395.062911,-2881.676302,35394.12146,-13910.07172,-1821.890691,0.2,0.926,0.16,192,0,0,0,0,0,0,0,0,0,1.71E+09,0, 2024-03-05 16:08:58.227
118,-2654.806096,11250.05767,-8085.430632,-7487.968503,-4373.990521,32355.24533,-13586.64198,-1412.227918,0.2,0.926,0.16,192,0,0,0,0,0,0,0,0,0,1.71E+09,0, 2024-03-05 16:08:58.227
119,-6419.733932,11517.11631,-10698.68484,-9155.453343,-5442.33685,27862.29883,-13316.25292,-1142.442363,0.2,0.926,0.16,192,0,0,0,0,0,0,0,0,0,1.71E+09,0, 2024-03-05 16:08:58.227
120,-5304.270125,11379.96601,-9117.030694,-8001.321018,-4537.158255,28193.30581,-13497.2797,-1427.851788,0.198,0.938,0.16,192,6,48,29,80,5,0,0,0,0,1.71E+09,0, 2024-03-05 16:08:58.227
121,-900.1718044,11030.74235,-5612.903012,-5693.413996,-2972.178515,32856.01382,-13869.4586,-1841.87315,0.198,0.938,0.16,192,0,0,0,0,0,0,0,0,0,1.71E+09,0, 2024-03-05 16:08:58.227
122,740.8932735,10961.04961,-4986.294208,-5377.650902,-2875.149593,35398.41299,-13913.20096,-1816.392161,0.198,0.938,0.16,192,0,0,0,0,0,0,0,0,0,1.71E+09,0, 2024-03-05 16:08:58.227
123,-2580.218325,11264.16162,-8043.364649,-7453.390354,-4354.656262,32411.75054,-13577.2766,-1393.139528,0.198,0.938,0.16,192,0,0,0,0,0,0,0,0,0,1.71E+09,0, 2024-03-05 16:08:58.227
124,-6370.269522,11525.07353,-10683.59741,-9136.990802,-5441.465132,27908.0305,-13318.42104,-1135.066287,0.198,0.938,0.16,192,0,0,0,0,0,0,0,0,0,1.71E+09,0, 2024-03-05 16:08:58.227
125,-5335.98725,11388.99611,-9166.763326,-8028.433684,-4565.321453,28153.65382,-13497.235,-1420.498064,0.198,0.938,0.16,192,0,0,0,0,0,0,0,0,0,1.71E+09,0, 2024-03-05 16:08:58.227
126,-943.7577061,11045.31569,-5657.360632,-5719.677296,-2986.617742,32790.18793,-13861.36727,-1834.18415,0.198,0.938,0.16,192,0,0,0,0,0,0,0,0,0,1.71E+09,0, 2024-03-05 16:08:58.227
127,770.2858174,10965.4082,-4965.82001,-5360.909445,-2858.318729,35405.83377,-13916.2855,-1825.444618,0.198,0.938,0.16,192,0,0,0,0,0,0,0,0,0,1.71E+09,0, 2024-03-05 16:08:58.227
128,-2497.941553,11258.55133,-7994.079053,-7419.035723,-4326.001325,32481.73386,-13587.02196,-1408.02579,0.198,0.938,0.16,192,0,0,0,0,0,0,0,0,0,1.71E+09,0, 2024-03-05 16:08:58.227
129,-6335.736076,11521.60901,-10675.72959,-9135.42618,-5434.51374,27947.48133,-13319.15865,-1138.173179,0.198,0.938,0.16,192,0,0,0,0,0,0,0,0,0,1.71E+09,0, 2024-03-05 16:08:58.227
130,-5391.106652,11393.48881,-9217.613544,-8068.197437,-4582.778166,28094.4664,-13486.05913,-1405.567098,0.194,0.938,0.16,192,6,16,29,80,5,0,0,0,0,1.71E+09,0, 2024-03-05 16:08:58.227
131,-1004.308582,11047.14853,-5696.096205,-5747.728735,-2996.184289,32701.89854,-13850.05729,-1817.330935,0.194,0.938,0.16,192,0,0,0,0,0,0,0,0,0,1.71E+09,0, 2024-03-05 16:08:58.227
132,775.4714221,10962.45777,-4940.271966,-5348.079544,-2836.324613,35383.92906,-13910.87638,-1817.129769,0.194,0.938,0.16,192,0,0,0,0,0,0,0,0,0,1.71E+09,0, 2024-03-05 16:08:58.227
133,-2449.773544,11253.07515,-7932.231776,-7383.988188,-4292.294895,32535.24393,-13586.93255,-1401.36497,0.194,0.938,0.16,192,0,0,0,0,0,0,0,0,0,1.71E+09,0, 2024-03-05 16:08:58.227
134,-6315.686562,11519.97733,-10648.61693,-9124.742046,-5420.365086,27987.93799,-13317.05759,-1125.767961,0.194,0.938,0.16,192,0,0,0,0,0,0,0,0,0,1.71E+09,0, 2024-03-05 16:08:58.227
135,-5466.923769,11396.05926,-9263.702841,-8101.568592,-4609.376742,28042.25272,-13480.53825,-1393.072473,0.194,0.938,0.16,192,0,0,0,0,0,0,0,0,0,1.71E+09,0, 2024-03-05 16:08:58.227
136,-1080.796251,11040.3983,-5731.300203,-5765.766593,-3018.692496,32651.20478,-13859.44502,-1825.712839,0.194,0.938,0.16,192,0,0,0,0,0,0,0,0,0,1.71E+09,0, 2024-03-05 16:08:58.227
137,764.2284947,10954.99229,-4925.653926,-5335.227291,-2836.481075,35401.58694,-13921.31465,-1829.423228,0.194,0.938,0.16,192,0,0,0,0,0,0,0,0,0,1.71E+09,0, 2024-03-05 16:08:58.227
138,-2415.620079,11244.60384,-7890.970456,-7359.580083,-4285.745834,32607.57418,-13594.84507,-1415.334811,0.194,0.938,0.16,192,0,0,0,0,0,0,0,0,0,1.71E+09,0, 2024-03-05 16:08:58.227
139,-6306.321181,11517.83157,-10640.615,-9124.138549,-5432.815007,28038.36352,-13320.61152,-1135.155694,0.194,0.938,0.16,192,0,0,0,0,0,0,0,0,0,1.71E+09,0, 2024-03-05 16:08:58.227
140,-5526.200596,11403.41299,-9313.27901,-8138.694839,-4643.664318,28004.07594,-13481.74524,-1401.119101,0.202,0.942,0.158,192,6,80,29,112,4,240,0,0,0,1.71E+09,0, 2024-03-05 16:08:58.227
141,-1154.914636,11053.63054,-5782.418642,-5803.049302,-3047.816819,32577.57814,-13852.62774,-1829.222063,0.202,0.942,0.158,192,0,0,0,0,0,0,0,0,0,1.71E+09,0, 2024-03-05 16:08:58.227
142,782.8251461,10958.12153,-4901.089358,-5314.283706,-2826.847473,35410.99702,-13922.83457,-1836.151104,0.202,0.942,0.158,192,0,0,0,0,0,0,0,0,0,1.71E+09,0, 2024-03-05 16:08:58.227
143,-2334.796171,11243.4639,-7832.297126,-7317.245879,-4253.313452,32690.27563,-13598.71192,-1416.184177,0.202,0.942,0.158,192,0,0,0,0,0,0,0,0,0,1.71E+09,0, 2024-03-05 16:08:58.227
144,-6265.395137,11514.41175,-10624.14177,-9114.572002,-5424.477807,28090.95718,-13321.43853,-1132.361726,0.202,0.942,0.158,192,0,0,0,0,0,0,0,0,0,1.71E+09,0, 2024-03-05 16:08:58.227
145,-5577.274332,11407.63747,-9366.18559,-8176.156363,-4664.83142,27959.52892,-13466.79192,-1384.757624,0.202,0.942,0.158,192,0,0,0,0,0,0,0,0,0,1.71E+09,0, 2024-03-05 16:08:58.227
146,-1204.982544,11053.22821,-5819.969573,-5830.810169,-3060.490258,32520.89411,-13844.91638,-1823.008278,0.202,0.942,0.158,192,0,0,0,0,0,0,0,0,0,1.71E+09,0, 2024-03-05 16:08:58.227
147,786.9155153,10955.88636,-4885.35373,-5308.651067,-2819.158473,35413.05338,-13922.54399,-1842.968386,0.202,0.942,0.158,192,0,0,0,0,0,0,0,0,0,1.71E+09,0, 2024-03-05 16:08:58.227
148,-2291.411435,11234.18793,-7788.800632,-7288.657998,-4241.355269,32754.15692,-13606.87031,-1433.506779,0.202,0.942,0.158,192,0,0,0,0,0,0,0,0,0,1.71E+09,0, 2024-03-05 16:08:58.227
149,-6242.88693,11504.08524,-10602.17,-9093.539011,-5420.901528,28156.98423,-13329.70868,-1138.284938,0.202,0.942,0.158,192,0,0,0,0,0,0,0,0,0,1.71E+09,0, 2024-03-05 16:08:58.227
150,-5635.344164,11407.23513,-9405.770529,-8195.736491,-4688.747786,27941.9828,-13465.76374,-1374.006435,0.202,0.942,0.158,192,0,0,0,0,0,0,0,0,0,1.71E+09,0, 2024-03-05 16:08:58.227
151,-1270.137879,11053.787,-5852.670175,-5844.467085,-3079.35513,32475.72124,-13842.10007,-1805.842138,0.202,0.94,0.16,192,6,80,29,96,5,0,0,0,0,1.71E+09,0, 2024-03-05 16:08:58.227
152,783.6745123,10945.76102,-4867.964073,-5290.590857,-2814.621069,35426.62089,-13926.74612,-1840.46499,0.202,0.94,0.16,192,0,0,0,0,0,0,0,0,0,1.71E+09,0, 2024-03-05 16:08:58.227
153,-2255.492181,11229.3376,-7746.757,-7263.266416,-4224.367943,32813.12082,-13605.66331,-1428.388229,0.202,0.94,0.16,192,0,0,0,0,0,0,0,0,0,1.71E+09,0, 2024-03-05 16:08:58.227
154,-6235.510854,11507.72858,-10592.4917,-9095.103633,-5421.281507,28182.57698,-13319.65039,-1127.734915,0.202,0.94,0.16,192,0,0,0,0,0,0,0,0,0,1.71E+09,0, 2024-03-05 16:08:58.227
155,-5689.457737,11404.59763,-9441.421561,-8224.682,-4708.193804,27899.78271,-13459.52761,-1368.17263,0.202,0.94,0.16,192,0,0,0,0,0,0,0,0,0,1.71E+09,0, 2024-03-05 16:08:58.228
156,-1339.070659,11056.3798,-5891.584562,-5871.959731,-3098.264706,32404.46388,-13835.12632,-1801.304734,0.202,0.94,0.16,192,0,0,0,0,0,0,0,0,0,1.71E+09,0, 2024-03-05 16:08:58.228
157,801.5112044,10937.40147,-4834.950547,-5270.38488,-2799.287772,35432.27588,-13934.01044,-1850.187999,0.202,0.94,0.16,192,0,0,0,0,0,0,0,0,0,1.71E+09,0, 2024-03-05 16:08:58.228
158,-2184.056006,11219.18991,-7694.319808,-7230.878738,-4204.139615,32883.10413,-13616.43685,-1438.379459,0.202,0.94,0.16,192,0,0,0,0,0,0,0,0,0,1.71E+09,0, 2024-03-05 16:08:58.228
159,-6202.407921,11509.76259,-10579.81826,-9087.414633,-5416.520586,28226.31934,-13318.33164,-1124.292746,0.202,0.94,0.16,192,0,0,0,0,0,0,0,0,0,1.71E+09,0, 2024-03-05 16:08:58.228
160,-5739.123313,11416.19818,-9493.29996,-8260.444791,-4728.824464,27848.73132,-13451.97272,-1355.454487,0.202,0.94,0.16,192,0,0,0,0,0,0,0,0,0,1.71E+09,0, 2024-03-05 16:08:58.228
161,-1373.827621,11053.69759,-5924.307516,-5895.585525,-3105.797244,32343.62243,-13838.27792,-1799.829519,0.204,0.938,0.16,192,6,96,29,80,5,0,0,0,0,1.71E+09,0, 2024-03-05 16:08:58.228
162,808.8872801,10943.23527,-4830.904881,-5264.863999,-2782.501612,35409.72297,-13928.4225,-1837.782781,0.204,0.938,0.16,192,0,0,0,0,0,0,0,0,0,1.71E+09,0, 2024-03-05 16:08:58.228
163,-2119.593575,11213.55727,-7640.630918,-7190.243267,-4165.180524,32941.75511,-13620.84015,-1441.59811,0.204,0.938,0.16,192,0,0,0,0,0,0,0,0,0,1.71E+09,0, 2024-03-05 16:08:58.228
164,-6165.505191,11507.79563,-10564.932,-9072.014281,-5394.839393,28272.40864,-13322.3326,-1134.08281,0.204,0.938,0.16,192,0,0,0,0,0,0,0,0,0,1.71E+09,0, 2024-03-05 16:08:58.228
165,-5779.378805,11421.78612,-9541.490321,-8282.304797,-4734.92649,27810.21927,-13445.11073,-1352.861685,0.204,0.938,0.16,192,0,0,0,0,0,0,0,0,0,1.71E+09,0, 2024-03-05 16:08:58.228
166,-1439.809971,11071.55664,-5975.537714,-5918.540766,-3103.495014,32265.39132,-13822.87756,-1786.820804,0.204,0.938,0.16,192,0,0,0,0,0,0,0,0,0,1.71E+09,0, 2024-03-05 16:08:58.228
167,806.5403469,10948.97967,-4814.74457,-5247.653156,-2752.147943,35400.06702,-13925.67324,-1839.593272,0.204,0.938,0.16,192,0,0,0,0,0,0,0,0,0,1.71E+09,0, 2024-03-05 16:08:58.228
168,-2056.181676,11213.40081,-7589.579533,-7152.312357,-4128.031925,33002.4848,-13622.09184,-1442.715698,0.204,0.938,0.16,192,0,0,0,0,0,0,0,0,0,1.71E+09,0, 2024-03-05 16:08:58.228
169,-6109.335257,11504.53228,-10539.76393,-9054.825789,-5378.65673,28326.58927,-13322.91374,-1128.047839,0.204,0.938,0.16,192,0,0,0,0,0,0,0,0,0,1.71E+09,0, 2024-03-05 16:08:58.228
170,-5809.084273,11428.82692,-9580.874095,-8308.076359,-4751.332671,27771.99778,-13438.40521,-1345.887941,0.204,0.938,0.16,192,0,0,0,0,0,0,0,0,0,1.71E+09,0, 2024-03-05 16:08:58.228
171,-1481.406567,11076.2505,-6017.849567,-5939.953737,-3122.471645,32195.2292,-13818.29546,-1790.508841,0.2,0.934,0.16,192,6,64,29,48,5,0,0,0,0,1.71E+09,0, 2024-03-05 16:08:58.228
172,836.1787601,10947.99619,-4800.39475,-5228.98945,-2740.815609,35391.39454,-13925.67324,-1842.811923,0.2,0.934,0.16,192,0,0,0,0,0,0,0,0,0,1.71E+09,0, 2024-03-05 16:08:58.228
173,-1977.391777,11210.42802,-7543.512588,-7117.75656,-4100.919259,33056.06193,-13627.27745,-1446.291977,0.2,0.934,0.16,192,0,0,0,0,0,0,0,0,0,1.71E+09,0, 2024-03-05 16:08:58.228
174,-6044.179922,11497.60324,-10516.65223,-9034.32924,-5368.129059,28381.70867,-13335.54248,-1135.848598,0.2,0.934,0.16,192,0,0,0,0,0,0,0,0,0,1.71E+09,0, 2024-03-05 16:08:58.228
175,-5840.644937,11432.11263,-9637.893395,-8344.86733,-4773.416194,27723.85212,-13437.42173,-1339.584749,0.2,0.934,0.16,192,0,0,0,0,0,0,0,0,0,1.71E+09,0, 2024-03-05 16:08:58.228
176,-1547.768897,11080.94437,-6076.902876,-5980.499802,-3145.873922,32103.16236,-13819.23423,-1788.608943,0.2,0.934,0.16,192,0,0,0,0,0,0,0,0,0,1.71E+09,0, 2024-03-05 16:08:58.228
177,826.4110477,10943.83877,-4801.780558,-5230.554072,-2749.93512,35364.99713,-13942.16882,-1859.307511,0.2,0.934,0.16,192,0,0,0,0,0,0,0,0,0,1.71E+09,0, 2024-03-05 16:08:58.228
178,-1915.410389,11196.90522,-7488.303779,-7084.497164,-4089.944552,33119.20561,-13645.44942,-1464.821573,0.2,0.934,0.16,192,0,0,0,0,0,0,0,0,0,1.71E+09,0, 2024-03-05 16:08:58.228
179,-6029.047791,11500.3078,-10493.38406,-9030.305926,-5362.027033,28417.24794,-13328.92636,-1128.763095,0.2,0.934,0.16,192,0,0,0,0,0,0,0,0,0,1.71E+09,0, 2024-03-05 16:08:58.228
180,-5894.400882,11426.23412,-9657.674689,-8368.895455,-4791.476404,27698.90758,-13439.76866,-1334.712068,0.2,0.934,0.16,192,0,0,0,0,0,0,0,0,0,1.71E+09,0, 2024-03-05 16:08:58.228
181,-1625.888243,11074.10474,-6111.145748,-6011.74754,-3165.699919,32046.45598,-13817.98253,-1776.337835,0.204,0.93,0.162,192,6,96,29,16,5,16,0,0,0,1.71E+09,0, 2024-03-05 16:08:58.228
182,831.7307629,10931.18768,-4768.230589,-5211.577441,-2730.019716,35389.5617,-13944.85103,-1855.127735,0.204,0.93,0.162,192,0,0,0,0,0,0,0,0,0,1.71E+09,0, 2024-03-05 16:08:58.228
183,-1865.32013,11186.31049,-7436.783008,-7051.39423,-4065.245875,33209.93134,-13651.6632,-1465.693291,0.204,0.93,0.162,192,0,0,0,0,0,0,0,0,0,1.71E+09,0, 2024-03-05 16:08:58.228
184,-5983.29377,11483.29812,-10461.8234,-9010.636391,-5357.422573,28508.3313,-13347.70183,-1141.972976,0.204,0.93,0.162,192,0,0,0,0,0,0,0,0,0,1.71E+09,0, 2024-03-05 16:08:58.228
185,-5934.365801,11420.75794,-9705.060387,-8407.496918,-4819.214919,27677.67342,-13443.23319,-1338.422458,0.204,0.93,0.162,192,0,0,0,0,0,0,0,0,0,1.71E+09,0, 2024-03-05 16:08:58.228
186,-1684.136889,11070.55081,-6160.029013,-6048.985547,-3188.588105,31980.22777,-13821.44705,-1786.440824,0.204,0.93,0.162,192,0,0,0,0,0,0,0,0,0,1.71E+09,0, 2024-03-05 16:08:58.228
187,830.9931554,10930.60654,-4764.028461,-5216.003086,-2725.169387,35365.57828,-13946.70623,-1866.147145,0.204,0.93,0.162,192,0,0,0,0,0,0,0,0,0,1.71E+09,0, 2024-03-05 16:08:58.228
188,-1804.769254,11185.1482,-7392.21363,-7029.198948,-4040.636604,33251.41618,-13652.13259,-1474.477526,0.204,0.93,0.162,192,0,0,0,0,0,0,0,0,0,1.71E+09,0, 2024-03-05 16:08:58.228
189,-5946.368688,11489.93659,-10448.90409,-9005.786062,-5342.491608,28535.75689,-13337.1071,-1138.508456,0.204,0.93,0.162,192,0,0,0,0,0,0,0,0,0,1.71E+09,0, 2024-03-05 16:08:58.228
190,-5983.047901,11440.82981,-9753.563673,-8435.816578,-4830.435494,27616.92138,-13423.47424,-1319.445827,0.204,0.93,0.162,192,0,0,0,0,0,0,0,0,0,1.71E+09,0, 2024-03-05 16:08:58.228
191,-1739.412754,11085.59353,-6204.307819,-6068.63273,-3191.940867,31903.11425,-13807.76779,-1771.91219,0.206,0.928,0.168,192,6,112,29,0,5,64,0,0,0,1.71E+09,0, 2024-03-05 16:08:58.228
192,845.2088648,10932.37232,-4754.461915,-5199.52985,-2705.946887,35360.50443,-13945.40983,-1867.152973,0.206,0.928,0.168,192,0,0,0,0,0,0,0,0,0,1.71E+09,0, 2024-03-05 16:08:58.228
193,-1733.131913,11181.12489,-7342.637461,-6989.144622,-4011.936964,33322.15945,-13658.39108,-1484.64757,0.206,0.928,0.168,192,0,0,0,0,0,0,0,0,0,1.71E+09,0, 2024-03-05 16:08:58.228
194,-5893.86444,11490.09305,-10418.46102,-8979.23219,-5327.761808,28604.55556,-13339.78931,-1139.804857,0.206,0.928,0.168,192,0,0,0,0,0,0,0,0,0,1.71E+09,0, 2024-03-05 16:08:58.228
195,-6017.134311,11442.26032,-9782.397423,-8453.630919,-4840.180855,27608.76299,-13416.27698,-1312.494434,0.206,0.928,0.168,192,0,0,0,0,0,0,0,0,0,1.71E+09,0, 2024-03-05 16:08:58.228
196,-1810.960688,11098.22227,-6236.695497,-6093.242001,-3202.245021,31842.25045,-13789.66287,-1758.344681,0.206,0.928,0.168,192,0,0,0,0,0,0,0,0,0,1.71E+09,0, 2024-03-05 16:08:58.228
197,827.6403937,10936.48504,-4727.483359,-5187.415205,-2689.07132,35346.80281,-13937.83259,-1862.235589,0.206,0.928,0.168,192,0,0,0,0,0,0,0,0,0,1.71E+09,0, 2024-03-05 16:08:58.228
198,-1690.17186,11177.39215,-7278.197381,-6955.572302,-3973.670778,33375.49071,-13654.50187,-1484.938143,0.206,0.928,0.168,192,0,0,0,0,0,0,0,0,0,1.71E+09,0, 2024-03-05 16:08:58.228
199,-5864.248379,11485.39918,-10381.58064,-8967.877503,-5310.036875,28647.02387,-13334.84958,-1144.58813,0.206,0.928,0.168,192,0,0,0,0,0,0,0,0,0,1.71E+09,0, 2024-03-05 16:08:58.228
200,-6044.850474,11434.43721,-9798.714197,-8472.160515,-4849.590939,27590.52397,-13422.31195,-1318.887033,0.206,0.928,0.168,192,0,0,0,0,0,0,0,0,0,1.71E+09,0, 2024-03-05 16:08:58.228
201,-1855.574769,11087.91811,-6263.674052,-6115.817263,-3214.985515,31797.63637,-13799.83292,-1754.388422,0.204,0.93,0.166,192,6,96,29,16,5,48,0,0,0,1.71E+09,0, 2024-03-05 16:08:58.228
202,809.244908,10935.52392,-4726.097551,-5186.521135,-2678.767166,35330.62015,-13933.31753,-1845.605891,0.204,0.93,0.166,192,0,0,0,0,0,0,0,0,0,1.71E+09,0, 2024-03-05 16:08:58.228
203,-1652.10684,11169.8149,-7231.169311,-6919.653048,-3945.105248,33436.89095,-13656.1559,-1479.059634,0.204,0.93,0.166,192,0,0,0,0,0,0,0,0,0,1.71E+09,0, 2024-03-05 16:08:58.228
204,-5840.980213,11480.68297,-10360.72646,-8950.085515,-5301.051474,28708.31236,-13335.98952,-1132.719354,0.204,0.93,0.166,192,0,0,0,0,0,0,0,0,0,1.71E+09,0, 2024-03-05 16:08:58.228
205,-6134.302155,11448.69762,-9859.980328,-8516.886356,-4881.285713,27526.08389,-13405.14581,-1295.797681,0.204,0.93,0.166,192,0,0,0,0,0,0,0,0,0,1.71E+09,0, 2024-03-05 16:08:58.228
206,-1946.948701,11093.08137,-6306.120015,-6151.334185,-3239.594786,31701.83679,-13788.38882,-1755.573065,0.204,0.93,0.166,192,0,0,0,0,0,0,0,0,0,1.71E+09,0, 2024-03-05 16:08:58.228
207,794.8950881,10931.81353,-4699.633086,-5183.682464,-2684.086881,35302.14403,-13934.72569,-1863.062604,0.204,0.93,0.166,192,0,0,0,0,0,0,0,0,0,1.71E+09,0, 2024-03-05 16:08:58.228
208,-1591.287743,11163.19879,-7158.906121,-6889.388786,-3931.582443,33490.60219,-13663.93431,-1489.90023,0.204,0.93,0.166,192,0,0,0,0,0,0,0,0,0,1.71E+09,0, 2024-03-05 16:08:58.228
209,-5785.302017,11469.46239,-10310.81501,-8935.087494,-5292.088424,28770.3608,-13347.43361,-1146.689194,0.204,0.93,0.166,192,0,0,0,0,0,0,0,0,0,1.71E+09,0, 2024-03-05 16:08:58.228
210,-6144.852179,11442.12621,-9881.281541,-8540.422742,-4895.769643,27516.87497,-13409.37029,-1300.178623,0.204,0.93,0.166,192,0,0,0,0,0,0,0,0,0,1.71E+09,0, 2024-03-05 16:08:58.228
211,-2007.186652,11103.25141,-6363.58635,-6191.589676,-3255.576283,31623.8739,-13777.41412,-1741.267948,0.2,0.932,0.168,192,6,64,29,32,5,64,0,0,0,1.71E+09,0, 2024-03-05 16:08:58.228
212,802.9417161,10931.59001,-4698.359036,-5178.340397,-2664.842029,35274.58433,-13935.66447,-1864.42606,0.2,0.932,0.168,192,0,0,0,0,0,0,0,0,0,1.71E+09,0, 2024-03-05 16:08:58.228
213,-1518.041076,11160.20365,-7118.40476,-6857.626958,-3904.089797,33530.70122,-13666.61652,-1499.042094,0.2,0.932,0.168,192,0,0,0,0,0,0,0,0,0,1.71E+09,0, 2024-03-05 16:08:58.228
214,-5714.268173,11465.39437,-10284.39525,-8908.600677,-5280.711386,28828.60945,-13350.45109,-1153.037089,0.2,0.932,0.168,192,0,0,0,0,0,0,0,0,0,1.71E+09,0, 2024-03-05 16:08:58.228
215,-6168.165048,11450.93279,-9928.689591,-8565.769621,-4918.881347,27485.80605,-13397.38976,-1292.310809,0.2,0.932,0.168,192,0,0,0,0,0,0,0,0,0,1.71E+09,0, 2024-03-05 16:08:58.228
216,-2052.270121,11101.64208,-6410.457958,-6215.506043,-3280.185554,31566.78755,-13774.6425,-1744.374841,0.2,0.932,0.168,192,0,0,0,0,0,0,0,0,0,1.71E+09,0, 2024-03-05 16:08:58.228
217,786.9825705,10925.59974,-4707.322086,-5179.994426,-2669.446489,35262.84966,-13934.88216,-1863.509639,0.2,0.932,0.168,192,0,0,0,0,0,0,0,0,0,1.71E+09,0, 2024-03-05 16:08:58.228
218,-1473.091718,11150.01126,-7081.926713,-6830.536643,-3883.973227,33592.28028,-13669.76812,-1502.730131,0.2,0.932,0.168,192,0,0,0,0,0,0,0,0,0,1.71E+09,0, 2024-03-05 16:08:58.228
219,-5680.78526,11465.23791,-10263.60813,-8892.61918,-5262.494715,28885.85226,-13341.77862,-1143.381136,0.2,0.932,0.168,192,0,0,0,0,0,0,0,0,0,1.71E+09,0, 2024-03-05 16:08:58.228
220,-6196.954095,11454.39732,-9955.288166,-8579.85122,-4924.804559,27473.17731,-13386.07977,-1276.82105,0.2,0.932,0.168,192,0,0,0,0,0,0,0,0,0,1.71E+09,0, 2024-03-05 16:08:58.228
221,-2116.039648,11106.93945,-6454.55795,-6239.422409,-3294.334208,31507.53307,-13767.53465,-1736.55173,0.196,0.928,0.17,192,6,32,29,0,5,80,0,0,0,1.71E+09,0, 2024-03-05 16:08:58.228
222,771.4034046,10931.32179,-4706.450368,-5171.925446,-2660.349329,35243.20248,-13932.62463,-1865.588351,0.196,0.928,0.17,192,0,0,0,0,0,0,0,0,0,1.71E+09,0, 2024-03-05 16:08:58.228
223,-1421.503892,11152.15703,-7028.595451,-6791.756367,-3850.736183,33652.51823,-13671.98094,-1504.585326,0.196,0.928,0.17,192,0,0,0,0,0,0,0,0,0,1.71E+09,0, 2024-03-05 16:08:58.228
224,-5627.789274,11463.8521,-10223.93378,-8868.903979,-5239.785342,28962.00466,-13350.56285,-1145.728069,0.196,0.928,0.17,192,0,0,0,0,0,0,0,0,0,1.71E+09,0, 2024-03-05 16:08:58.228
225,-6225.877252,11456.69954,-9989.843963,-8608.595563,-4933.857016,27466.49414,-13392.47237,-1277.536306,0.196,0.928,0.17,192,0,0,0,0,0,0,0,0,0,1.71E+09,0, 2024-03-05 16:08:58.228
226,-2167.605122,11108.83935,-6503.217698,-6273.687634,-3303.856051,31458.09102,-13770.44037,-1732.215492,0.196,0.928,0.17,192,0,0,0,0,0,0,0,0,0,1.71E+09,0, 2024-03-05 16:08:58.228
227,767.7600703,10931.76883,-4708.506728,-5172.886571,-2646.714764,35240.9673,-13934.34571,-1864.046081,0.196,0.928,0.17,192,0,0,0,0,0,0,0,0,0,1.71E+09,0, 2024-03-05 16:08:58.228
228,-1370.854839,11153.83341,-6994.956076,-6768.421145,-3826.082209,33716.91361,-13673.4338,-1505.077065,0.196,0.928,0.17,192,0,0,0,0,0,0,0,0,0,1.71E+09,0, 2024-03-05 16:08:58.708
229,-5574.94975,11463.67329,-10200.91149,-8850.888473,-5230.107037,29030.95979,-13351.144,-1145.906883,0.196,0.928,0.17,192,0,0,0,0,0,0,0,0,0,1.71E+09,0, 2024-03-05 16:08:58.708
230,-6240.919976,11462.93568,-10031.10528,-8629.18152,-4953.526551,27453.66424,-13384.82808,-1264.929922,0.196,0.928,0.17,192,0,0,0,0,0,0,0,0,0,1.71E+09,0, 2024-03-05 16:08:58.708
231,-2225.585547,11124.53027,-6560.304053,-6302.119053,-3323.525587,31388.21946,-13760.31503,-1718.692686,0.2,0.928,0.168,192,6,64,29,0,5,64,0,0,0,1.71E+09,0, 2024-03-05 16:08:58.708
232,770.4422796,10937.82615,-4705.533946,-5162.001271,-2638.735192,35227.95859,-13935.93269,-1866.571828,0.2,0.928,0.168,192,0,0,0,0,0,0,0,0,0,1.71E+09,0, 2024-03-05 16:08:58.708
233,-1295.931792,11142.61283,-6940.618985,-6726.153997,-3801.450586,33789.98146,-13682.88859,-1521.170321,0.2,0.928,0.168,192,0,0,0,0,0,0,0,0,0,1.71E+09,0, 2024-03-05 16:08:58.708
234,-5532.369677,11461.59458,-10175.34109,-8832.336525,-5219.288793,29094.52815,-13349.82525,-1150.533694,0.2,0.928,0.168,192,0,0,0,0,0,0,0,0,0,1.71E+09,0, 2024-03-05 16:08:58.708
235,-6301.672018,11470.28941,-10068.20918,-8656.249482,-4975.610074,27421.1201,-13370.12063,-1251.742393,0.2,0.928,0.168,192,0,0,0,0,0,0,0,0,0,1.71E+09,0, 2024-03-05 16:08:58.708
236,-2305.470682,11123.77031,-6601.073635,-6330.304602,-3347.352546,31321.90184,-13749.92147,-1710.109617,0.2,0.928,0.168,192,0,0,0,0,0,0,0,0,0,1.71E+09,0, 2024-03-05 16:08:58.708
237,739.0157269,10935.12159,-4707.657362,-5164.214094,-2640.679793,35204.06457,-13932.46817,-1863.152011,0.2,0.928,0.168,192,0,0,0,0,0,0,0,0,0,1.71E+09,0, 2024-03-05 16:08:58.708
238,-1261.06307,11141.58465,-6895.826089,-6697.946095,-3780.171726,33843.46918,-13686.77779,-1525.148931,0.2,0.928,0.168,192,0,0,0,0,0,0,0,0,0,1.71E+09,0, 2024-03-05 16:08:58.708
239,-5476.445612,11455.64901,-10137.23137,-8809.627153,-5203.799034,29167.39484,-13357.84952,-1153.618235,0.2,0.928,0.168,192,0,0,0,0,0,0,0,0,0,1.71E+09,0, 2024-03-05 16:08:58.708
240,-6304.197765,11470.49057,-10096.0371,-8673.952064,-4991.166889,27416.24742,-13374.8592,-1248.948425,0.2,0.928,0.168,192,0,0,0,0,0,0,0,0,0,1.71E+09,0, 2024-03-05 16:08:58.708
241,-2347.60372,11140.46706,-6654.226083,-6360.814734,-3369.212552,31251.04681,-13741.11488,-1692.496442,0.204,0.934,0.17,192,6,96,29,48,5,80,0,0,0,1.71E+09,0, 2024-03-05 16:08:58.708
242,767.089518,10939.21196,-4691.541754,-5146.511513,-2628.833369,35191.56995,-13931.30588,-1856.357081,0.204,0.934,0.17,192,0,0,0,0,0,0,0,0,0,1.71E+09,0, 2024-03-05 16:08:58.708
243,-1174.226543,11138.47776,-6841.89133,-6659.56815,-3753.841371,33899.63912,-13686.219,-1518.108132,0.204,0.934,0.17,192,0,0,0,0,0,0,0,0,0,1.71E+09,0, 2024-03-05 16:08:58.708
244,-5404.137719,11452.60918,-10101.91561,-8784.146164,-5186.856411,29225.10704,-13358.81065,-1156.792183,0.204,0.934,0.17,192,0,0,0,0,0,0,0,0,0,1.71E+09,0, 2024-03-05 16:08:58.708
245,-6312.71378,11464.81323,-10127.84363,-8695.409738,-5005.829633,27402.36698,-13380.40243,-1265.198143,0.204,0.934,0.17,192,0,0,0,0,0,0,0,0,0,1.71E+09,0, 2024-03-05 16:08:58.708
246,-2396.866965,11136.55551,-6704.830433,-6393.001246,-3386.937486,31188.95366,-13745.45112,-1708.701457,0.204,0.934,0.17,192,0,0,0,0,0,0,0,0,0,1.71E+09,0, 2024-03-05 16:08:58.708
247,733.0701629,10940.57541,-4715.748693,-5156.882722,-2632.677869,35153.28141,-13930.85884,-1863.733156,0.204,0.934,0.17,192,0,0,0,0,0,0,0,0,0,1.71E+09,0, 2024-03-05 16:08:58.708
248,-1147.985595,11141.09291,-6818.936088,-6633.260147,-3733.568339,33937.92766,-13688.47653,-1522.846701,0.204,0.934,0.17,192,0,0,0,0,0,0,0,0,0,1.71E+09,0, 2024-03-05 16:08:58.708
249,-5378.746137,11456.94541,-10088.81749,-8767.18119,-5178.139231,29279.33237,-13355.90492,-1152.254778,0.204,0.934,0.17,192,0,0,0,0,0,0,0,0,0,1.71E+09,0, 2024-03-05 16:08:58.708
250,-6371.632978,11474.6927,-10172.99416,-8721.158948,-5030.841235,27376.39426,-13367.50547,-1248.054355,0.204,0.934,0.17,192,0,0,0,0,0,0,0,0,0,1.71E+09,0, 2024-03-05 16:08:58.708
251,-2491.347789,11141.89758,-6769.024643,-6428.540519,-3425.784817,31109.3591,-13734.16349,-1695.29041,0.2,0.932,0.17,192,6,64,29,32,5,80,0,0,0,1.71E+09,0, 2024-03-05 16:08:58.708
252,708.2373748,10938.38494,-4722.141292,-5152.255911,-2640.031593,35127.30868,-13929.74126,-1863.666101,0.2,0.932,0.17,192,0,0,0,0,0,0,0,0,0,1.71E+09,0, 2024-03-05 16:08:58.708
253,-1087.769996,11128.21831,-6771.505686,-6597.385597,-3722.593632,34004.13352,-13697.28311,-1534.089629,0.2,0.932,0.17,192,0,0,0,0,0,0,0,0,0,1.71E+09,0, 2024-03-05 16:08:58.708
254,-5335.942547,11453.21267,-10066.66691,-8751.512617,-5178.698025,29338.11746,-13360.39762,-1153.260607,0.2,0.932,0.17,192,0,0,0,0,0,0,0,0,0,1.71E+09,0, 2024-03-05 16:08:58.708
255,-6407.28401,11481.62174,-10215.19425,-8751.356155,-5052.365965,27345.07946,-13360.66584,-1234.039811,0.2,0.932,0.17,192,0,0,0,0,0,0,0,0,0,1.71E+09,0, 2024-03-05 16:08:58.708
0,-2562.627502,11152.71582,-6823.048809,-6469.265398,-3443.688565,31016.28643,-13726.0051,-1686.148546,0.2,0.932,0.17,192,0,0,0,0,0,0,0,0,0,1.71E+09,0, 2024-03-05 16:08:58.708
1,685.8185751,10939.34607,-4726.879862,-5159.229655,-2632.94609,35080.34767,-13932.44582,-1872.092709,0.2,0.932,0.17,192,0,0,0,0,0,0,0,0,0,1.71E+09,0, 2024-03-05 16:08:58.708
2,-1015.484454,11114.80726,-6711.088921,-6561.712213,-3685.109757,34065.35495,-13714.89629,-1558.900065,0.2,0.932,0.17,192,0,0,0,0,0,0,0,0,0,1.71E+09,0, 2024-03-05 16:08:58.708
3,-5263.500543,11436.04653,-10020.04117,-8730.859605,-5154.28992,29418.24846,-13378.659,-1180.283866,0.2,0.932,0.17,192,0,0,0,0,0,0,0,0,0,1.71E+09,0, 2024-03-05 16:08:58.708
4,-6433.010868,11477.06198,-10247.35841,-8781.15103,-5069.509753,27328.42741,-13367.25961,-1244.813352,0.2,0.932,0.17,192,0,0,0,0,0,0,0,0,0,1.71E+09,0, 2024-03-05 16:08:58.708
5,-2622.82075,11149.296,-6870.814487,-6496.959209,-3464.855667,30958.79775,-13732.06243,-1687.959038,0.204,0.934,0.17,192,6,96,29,48,5,80,0,0,0,1.71E+09,0, 2024-03-05 16:08:58.708
6,683.0246071,10933.60167,-4725.561109,-5152.1218,-2631.850854,35072.30104,-13941.163,-1876.898334,0.204,0.934,0.17,192,0,0,0,0,0,0,0,0,0,1.71E+09,0, 2024-03-05 16:08:58.708
7,-981.9568374,11123.6362,-6680.355272,-6538.511102,-3672.190448,34096.82621,-13711.49882,-1547.925359,0.204,0.934,0.17,192,0,0,0,0,0,0,0,0,0,1.71E+09,0, 2024-03-05 16:08:58.708
8,-5239.673583,11446.90948,-10001.95861,-8712.195899,-5145.259815,29450.72555,-13370.63472,-1168.593904,0.204,0.934,0.17,192,0,0,0,0,0,0,0,0,0,1.71E+09,0, 2024-03-05 16:08:58.708
9,-6475.613293,11481.44293,-10283.61294,-8795.769071,-5083.099614,27294.22924,-13359.92823,-1237.683146,0.204,0.934,0.17,192,0,0,0,0,0,0,0,0,0,1.71E+09,0, 2024-03-05 16:08:58.708
10,-2705.701018,11156.78384,-6930.247775,-6527.670506,-3484.547554,30869.59194,-13723.27819,-1678.414843,0.204,0.934,0.17,192,0,0,0,0,0,0,0,0,0,1.71E+09,0, 2024-03-05 16:08:58.708
11,646.6359671,10938.92138,-4732.959537,-5150.713641,-2627.022878,35025.92117,-13938.68195,-1873.567924,0.204,0.934,0.17,192,0,0,0,0,0,0,0,0,0,1.71E+09,0, 2024-03-05 16:08:58.708
12,-931.4195432,11112.81796,-6623.201862,-6495.998084,-3644.474285,34155.7007,-13720.8195,-1559.928246,0.204,0.934,0.17,192,0,0,0,0,0,0,0,0,0,1.71E+09,0, 2024-03-05 16:08:58.708
13,-5202.077949,11436.78414,-9968.363937,-8691.274666,-5136.050896,29515.09857,-13378.68135,-1175.165316,0.204,0.934,0.17,192,0,0,0,0,0,0,0,0,0,1.71E+09,0, 2024-03-05 16:08:58.708
14,-6519.825044,11483.76751,-10321.40974,-8826.078037,-5109.988762,27270.55875,-13359.01181,-1228.787151,0.204,0.934,0.17,192,0,0,0,0,0,0,0,0,0,1.71E+09,0, 2024-03-05 16:08:58.708
15,-2771.862182,11158.05789,-6975.845334,-6563.34389,-3508.665086,30794.26656,-13719.14312,-1676.917276,0.206,0.934,0.166,192,6,112,29,48,5,48,0,0,0,1.71E+09,0, 2024-03-05 16:08:58.708
16,653.8332288,10931.61236,-4726.20931,-5147.427934,-2623.84893,34997.06507,-13938.21257,-1875.490174,0.206,0.934,0.166,192,0,0,0,0,0,0,0,0,0,1.71E+09,0, 2024-03-05 16:08:58.708
17,-857.1223446,11106.55947,-6574.966797,-6464.862104,-3618.725076,34193.72102,-13722.1159,-1558.967121,0.206,0.934,0.166,192,0,0,0,0,0,0,0,0,0,1.71E+09,0, 2024-03-05 16:08:58.708
18,-5110.078169,11425.29534,-9921.179404,-8657.076497,-5114.57087,29588.88168,-13389.96898,-1181.803785,0.206,0.934,0.166,192,0,0,0,0,0,0,0,0,0,1.71E+09,0, 2024-03-05 16:08:58.708
19,-6513.454796,11484.68393,-10343.09093,-8837.343316,-5116.068437,27261.99803,-13355.86022,-1222.260442,0.206,0.934,0.166,192,0,0,0,0,0,0,0,0,0,1.71E+09,0, 2024-03-05 16:08:58.708
20,-2819.873729,11164.0258,-7025.197986,-6592.065882,-3527.082923,30725.57965,-13715.00805,-1665.651997,0.206,0.934,0.166,192,0,0,0,0,0,0,0,0,0,1.71E+09,0, 2024-03-05 16:08:58.708
21,638.3881734,10937.44617,-4732.847778,-5149.03726,-2616.80813,34966.39847,-13937.9667,-1872.584447,0.206,0.934,0.166,192,0,0,0,0,0,0,0,0,0,1.71E+09,0, 2024-03-05 16:08:58.708
22,-798.6278294,11108.50407,-6526.57527,-6430.395714,-3586.650322,34256.93175,-13724.50754,-1559.995301,0.206,0.934,0.166,192,0,0,0,0,0,0,0,0,0,1.71E+09,0, 2024-03-05 16:08:58.708
23,-5067.453392,11439.04167,-9888.389395,-8638.479845,-5085.044215,29654.52876,-13378.01079,-1168.593904,0.206,0.934,0.166,192,0,0,0,0,0,0,0,0,0,1.71E+09,0, 2024-03-05 16:08:58.708
24,-6542.936747,11494.25048,-10368.32605,-8859.69506,-5116.359009,27265.26138,-13349.06529,-1210.324611,0.206,0.934,0.166,192,0,0,0,0,0,0,0,0,0,1.71E+09,0, 2024-03-05 16:08:58.708
25,-2910.755922,11177.28039,-7083.066652,-6631.24849,-3539.041107,30658.3456,-13705.35209,-1655.549008,0.2,0.932,0.166,192,6,64,29,32,5,48,0,0,0,1.71E+09,0, 2024-03-05 16:08:58.708
26,596.6351147,10942.14004,-4738.100438,-5146.176236,-2606.481624,34944.09143,-13940.91713,-1878.597066,0.2,0.932,0.166,192,0,0,0,0,0,0,0,0,0,1.71E+09,0, 2024-03-05 16:08:58.708
27,-770.7552041,11104.369,-6482.341168,-6393.068301,-3553.189761,34313.19109,-13735.97398,-1580.916534,0.2,0.932,0.166,192,0,0,0,0,0,0,0,0,0,1.71E+09,0, 2024-03-05 16:08:58.708
28,-5028.784875,11429.67629,-9856.605215,-8612.14949,-5067.654558,29727.77542,-13389.76781,-1187.1235,0.2,0.932,0.166,192,0,0,0,0,0,0,0,0,0,1.71E+09,0, 2024-03-05 16:08:58.708
29,-6589.808356,11497.69264,-10408.98388,-8884.952531,-5140.543597,27246.06124,-13345.01962,-1212.716247,0.2,0.932,0.166,192,0,0,0,0,0,0,0,0,0,1.71E+09,0, 2024-03-05 16:08:58.708
30,-2990.506946,11188.2998,-7143.706935,-6665.491362,-3570.624122,30580.27096,-13695.96436,-1651.659805,0.2,0.932,0.166,192,0,0,0,0,0,0,0,0,0,1.71E+09,0, 2024-03-05 16:08:58.708
31,554.1220968,10953.24885,-4759.222836,-5157.37446,-2614.215328,34882.26651,-13927.48373,-1870.215162,0.2,0.932,0.166,192,0,0,0,0,0,0,0,0,0,1.71E+09,0, 2024-03-05 16:08:58.708
32,-719.5473575,11101.28446,-6433.592014,-6360.591216,-3538.504665,34347.79159,-13732.57652,-1577.317903,0.2,0.932,0.166,192,0,0,0,0,0,0,0,0,0,1.71E+09,0, 2024-03-05 16:08:58.708
33,-4978.739319,11430.70447,-9817.668476,-8586.735557,-5060.747869,29786.60521,-13387.06325,-1178.048692,0.2,0.932,0.166,192,0,0,0,0,0,0,0,0,0,1.71E+09,0, 2024-03-05 16:08:58.708
34,-6620.407894,11506.47688,-10435.89538,-8901.962209,-5153.038222,27229.90092,-13333.12849,-1193.560802,0.2,0.932,0.166,192,0,0,0,0,0,0,0,0,0,1.71E+09,0, 2024-03-05 16:08:58.708
35,-3043.122952,11183.2036,-7180.922589,-6691.665255,-3585.912715,30523.49752,-13690.26466,-1646.228331,0.2,0.932,0.166,192,0,0,0,0,0,0,0,0,0,1.71E+09,0, 2024-03-05 16:08:58.708
36,537.0230123,10941.02245,-4761.010976,-5162.023623,-2617.523386,34857.52313,-13929.11541,-1876.294837,0.196,0.93,0.162,192,6,32,29,16,5,16,0,0,0,1.71E+09,0, 2024-03-05 16:08:58.708
37,-680.2753425,11089.52744,-6392.93419,-6338.105361,-3521.807912,34392.38332,-13739.32674,-1587.622057,0.196,0.93,0.162,192,0,0,0,0,0,0,0,0,0,1.71E+09,0, 2024-03-05 16:08:58.708
38,-4922.725847,11413.15835,-9779.759917,-8566.127249,-5051.78482,29857.75082,-13398.21677,-1191.146814,0.196,0.93,0.162,192,0,0,0,0,0,0,0,0,0,1.71E+09,0, 2024-03-05 16:08:58.708
39,-6619.960859,11496.59741,-10452.61448,-8917.47432,-5171.791336,27237.47817,-13341.35393,-1202.277983,0.196,0.93,0.162,192,0,0,0,0,0,0,0,0,0,1.71E+09,0, 2024-03-05 16:08:58.708
40,-3099.896383,11186.98104,-7228.911785,-6729.260889,-3610.387875,30456.66581,-13692.54454,-1643.993156,0.196,0.93,0.162,192,0,0,0,0,0,0,0,0,0,1.71E+09,0, 2024-03-05 16:08:58.708
41,512.5478521,10936.12742,-4769.974025,-5169.086774,-2614.75177,34814.83129,-13938.25727,-1881.703959,0.196,0.93,0.162,192,0,0,0,0,0,0,0,0,0,1.71E+09,0, 2024-03-05 16:08:58.708
42,-630.5874146,11077.47985,-6350.711745,-6307.59523,-3498.360932,34425.48626,-13752.20135,-1600.071979,0.196,0.93,0.162,192,0,0,0,0,0,0,0,0,0,1.71E+09,0, 2024-03-05 16:08:58.708
43,-4866.019471,11410.25262,-9742.164283,-8542.479103,-5034.886901,29908.33281,-13404.3635,-1197.293543,0.196,0.93,0.162,192,0,0,0,0,0,0,0,0,0,1.71E+09,0, 2024-03-05 16:08:58.708
44,-6641.083257,11501.0007,-10481.20236,-8940.54132,-5190.253876,27215.28288,-13339.20817,-1199.55107,0.196,0.93,0.162,192,0,0,0,0,0,0,0,0,0,1.71E+09,0, 2024-03-05 16:08:58.709
45,-3174.03712,11196.72641,-7292.949533,-6769.404622,-3639.311032,30367.52705,-13680.4299,-1635.633604,0.196,0.93,0.162,192,0,0,0,0,0,0,0,0,0,1.71E+09,0, 2024-03-05 16:08:58.709
46,490.2631629,10937.40147,-4788.950657,-5174.808821,-2618.21629,34774.75462,-13936.1115,-1882.307456,0.198,0.924,0.166,192,6,48,28,224,5,48,0,0,0,1.71E+09,0, 2024-03-05 16:08:58.709
47,-587.5826582,11074.64118,-6318.636992,-6282.784794,-3475.606856,34473.00607,-13752.84955,-1599.021447,0.198,0.924,0.166,192,0,0,0,0,0,0,0,0,0,1.71E+09,0, 2024-03-05 16:08:58.709
48,-4823.417046,11408.57624,-9711.6318,-8522.407236,-5009.741188,29970.20244,-13400.02726,-1190.923296,0.198,0.924,0.166,192,0,0,0,0,0,0,0,0,0,1.71E+09,0, 2024-03-05 16:08:58.709
49,-6657.891769,11498.13968,-10500.2237,-8955.762858,-5190.700911,27210.87959,-13334.38019,-1192.554974,0.198,0.924,0.166,192,0,0,0,0,0,0,0,0,0,1.71E+09,0, 2024-03-05 16:08:58.709
50,-3230.408219,11192.99366,-7337.161283,-6796.629047,-3653.303224,30311.7818,-13677.16654,-1630.269185,0.198,0.924,0.166,192,0,0,0,0,0,0,0,0,0,1.71E+09,0, 2024-03-05 16:08:58.709
51,477.4332616,10935.99331,-4791.498755,-5173.288902,-2610.437883,34750.48062,-13931.70821,-1877.546534,0.198,0.924,0.166,192,0,0,0,0,0,0,0,0,0,1.71E+09,0, 2024-03-05 16:08:58.709
52,-537.2912332,11074.06003,-6275.207552,-6256.096811,-3455.177361,34509.9982,-13755.42,-1605.436397,0.198,0.924,0.166,192,0,0,0,0,0,0,0,0,0,1.71E+09,0, 2024-03-05 16:08:58.709
53,-4772.678587,11411.9737,-9676.897189,-8503.408254,-4997.85006,30023.71252,-13400.09432,-1192.51027,0.198,0.924,0.166,192,0,0,0,0,0,0,0,0,0,1.71E+09,0, 2024-03-05 16:08:58.709
54,-6668.5312,11510.27668,-10519.87088,-8972.012576,-5202.949667,27200.03899,-13325.01481,-1179.4345,0.198,0.924,0.166,192,0,0,0,0,0,0,0,0,0,1.71E+09,0, 2024-03-05 16:08:58.709
55,-3268.316778,11210.24921,-7372.74526,-6819.427826,-3667.921265,30251.20857,-13666.92944,-1617.841615,0.198,0.924,0.166,192,0,0,0,0,0,0,0,0,0,1.71E+09,0, 2024-03-05 16:08:58.709
56,472.851154,10951.72893,-4796.594953,-5170.785507,-2608.403874,34714.47196,-13925.36031,-1876.630113,0.208,0.922,0.174,192,6,128,28,208,5,112,0,0,0,1.71E+09,0, 2024-03-05 16:08:58.709
57,-460.423584,11076.65283,-6221.205738,-6209.113444,-3422.633221,34570.52673,-13753.90008,-1605.950487,0.208,0.922,0.174,192,0,0,0,0,0,0,0,0,0,1.71E+09,0, 2024-03-05 16:08:58.709
58,-4687.138461,11406.36342,-9633.199529,-8465.343233,-4975.654778,30114.39355,-13403.60354,-1198.768759,0.208,0.922,0.174,192,0,0,0,0,0,0,0,0,0,1.71E+09,0, 2024-03-05 16:08:58.709
59,-6665.983101,11512.02011,-10545.32952,-8981.467364,-5217.701819,27213.5618,-13319.76215,-1175.925276,0.208,0.922,0.174,192,0,0,0,0,0,0,0,0,0,1.71E+09,0, 2024-03-05 16:08:58.709
60,-3328.532377,11213.69138,-7435.687773,-6853.804809,-3693.245792,30184.60038,-13658.6593,-1606.24106,0.208,0.922,0.174,192,0,0,0,0,0,0,0,0,0,1.71E+09,0, 2024-03-05 16:08:58.709
61,440.9328629,10949.69493,-4822.813549,-5185.56001,-2616.517558,34661.76655,-13924.66741,-1866.907104,0.208,0.922,0.174,192,0,0,0,0,0,0,0,0,0,1.71E+09,0, 2024-03-05 16:08:58.709
62,-413.8201968,11067.46627,-6192.193173,-6192.371987,-3414.228966,34590.53154,-13760.87383,-1610.867871,0.208,0.922,0.174,192,0,0,0,0,0,0,0,0,0,1.71E+09,0, 2024-03-05 16:08:58.709
63,-4635.081248,11405.84933,-9606.153918,-8452.893311,-4964.344795,30144.54605,-13399.80375,-1195.371293,0.208,0.922,0.174,192,0,0,0,0,0,0,0,0,0,1.71E+09,0, 2024-03-05 16:08:58.709
64,-6664.530237,11510.96958,-10566.04958,-9001.047492,-5228.98945,27190.91948,-13318.75632,-1175.321779,0.208,0.922,0.174,192,0,0,0,0,0,0,0,0,0,1.71E+09,0, 2024-03-05 16:08:58.709
65,-3376.074538,11213.40081,-7486.940323,-6890.97576,-3724.35942,30107.79978,-13656.02179,-1609.415008,0.208,0.922,0.174,192,0,0,0,0,0,0,0,0,0,1.71E+09,0, 2024-03-05 16:08:58.709
66,426.2030633,10952.80182,-4838.593881,-5196.691179,-2632.119075,34615.83371,-13919.21358,-1867.644711,0.208,0.928,0.174,192,6,128,29,0,5,112,0,0,0,1.71E+09,0, 2024-03-05 16:08:58.709
67,-365.696891,11072.11543,-6151.736516,-6163.31472,-3399.342704,34628.57421,-13758.81747,-1613.617136,0.208,0.928,0.174,192,0,0,0,0,0,0,0,0,0,1.71E+09,0, 2024-03-05 16:08:58.709
68,-4562.639244,11398.89793,-9561.562188,-8423.165491,-4953.235978,30234.62358,-13408.43152,-1202.277983,0.208,0.928,0.174,192,0,0,0,0,0,0,0,0,0,1.71E+09,0, 2024-03-05 16:08:58.709
69,-6679.751775,11519.28443,-10596.04562,-9020.359399,-5241.729944,27200.50838,-13306.50756,-1157.283921,0.208,0.928,0.174,192,0,0,0,0,0,0,0,0,0,1.71E+09,0, 2024-03-05 16:08:58.709
70,-3451.645786,11229.71758,-7550.396925,-6930.158368,-3741.592615,30039.64931,-13638.29686,-1587.800871,0.208,0.928,0.174,192,0,0,0,0,0,0,0,0,0,1.71E+09,0, 2024-03-05 16:08:58.709
71,401.034999,10949.87374,-4851.803762,-5200.781548,-2623.424247,34583.62485,-13917.91718,-1871.109232,0.208,0.928,0.174,192,0,0,0,0,0,0,0,0,0,1.71E+09,0, 2024-03-05 16:08:58.709
72,-323.1168178,11061.94539,-6119.37119,-6139.174836,-3374.800488,34668.42737,-13763.8019,-1624.94947,0.208,0.928,0.174,192,0,0,0,0,0,0,0,0,0,1.71E+09,0, 2024-03-05 16:08:58.709
73,-4510.582031,11397.86975,-9521.48551,-8392.320084,-4927.442065,30301.25413,-13407.42569,-1205.004895,0.208,0.928,0.174,192,0,0,0,0,0,0,0,0,0,1.71E+09,0, 2024-03-05 16:08:58.709
74,-6684.803269,11512.84713,-10601.45475,-9022.236946,-5251.475305,27226.05642,-13310.39677,-1163.877686,0.208,0.928,0.174,192,0,0,0,0,0,0,0,0,0,1.71E+09,0, 2024-03-05 16:08:58.709
75,-3516.488196,11222.9003,-7594.452214,-6960.042651,-3775.679025,29991.99539,-13641.58257,-1596.182775,0.208,0.928,0.174,192,0,0,0,0,0,0,0,0,0,1.71E+09,0, 2024-03-05 16:08:58.709
76,368.4014521,10944.2858,-4858.889265,-5203.75433,-2628.609851,34556.82511,-13920.44293,-1876.183078,0.21,0.924,0.172,192,6,144,28,224,5,96,0,0,0,1.71E+09,0, 2024-03-05 16:08:58.709
77,-277.9886458,11049.71898,-6069.504448,-6102.71914,-3350.392383,34728.55356,-13778.59876,-1645.803648,0.21,0.924,0.172,192,0,0,0,0,0,0,0,0,0,1.71E+09,0, 2024-03-05 16:08:58.709
78,-4474.014577,11387.40914,-9494.484603,-8375.064537,-4920.289507,30366.29771,-13419.71915,-1219.421771,0.21,0.924,0.172,192,0,0,0,0,0,0,0,0,0,1.71E+09,0, 2024-03-05 16:08:58.709
79,-6710.463072,11505.20283,-10632.63543,-9046.130961,-5269.624921,27217.89804,-13314.84477,-1161.217828,0.21,0.924,0.172,192,0,0,0,0,0,0,0,0,0,1.71E+09,0, 2024-03-05 16:08:58.709
80,-3571.11586,11223.81672,-7647.738772,-6996.252477,-3794.901525,29927.28709,-13637.96158,-1585.900973,0.21,0.924,0.172,192,0,0,0,0,0,0,0,0,0,1.71E+09,0, 2024-03-05 16:08:58.709
81,338.5395215,10956.33339,-4878.5588,-5219.579365,-2638.221102,34502.82329,-13909.13295,-1861.788554,0.21,0.924,0.172,192,0,0,0,0,0,0,0,0,0,1.71E+09,0, 2024-03-05 16:08:58.709
82,-221.9751742,11058.54792,-6016.419055,-6072.432527,-3328.107694,34761.41063,-13768.65223,-1631.587938,0.21,0.924,0.172,192,0,0,0,0,0,0,0,0,0,1.71E+09,0, 2024-03-05 16:08:58.709
83,-4381.79128,11382.06707,-9429.86571,-8335.837225,-4896.440196,30458.4763,-13424.39066,-1222.483959,0.21,0.924,0.172,192,0,0,0,0,0,0,0,0,0,1.71E+09,0, 2024-03-05 16:08:58.709
84,-6726.779846,11516.24459,-10663.48084,-9068.214484,-5289.674436,27218.07685,-13305.52409,-1156.412203,0.21,0.924,0.172,192,0,0,0,0,0,0,0,0,0,1.71E+09,0, 2024-03-05 16:08:58.709
85,-3646.441239,11226.25306,-7705.249811,-7033.334021,-3818.326154,29861.19298,-13638.76625,-1591.980647,0.21,0.924,0.172,192,0,0,0,0,0,0,0,0,0,1.71E+09,0, 2024-03-05 16:08:58.709
86,301.0332943,10948.46558,-4904.151547,-5233.705668,-2639.942186,34462.43369,-13922.70046,-1879.580543,0.206,0.922,0.172,192,6,112,28,208,5,96,0,0,0,1.71E+09,0, 2024-03-05 16:08:58.709
87,-183.9101534,11045.47215,-5990.960418,-6052.070087,-3313.132025,34798.49217,-13786.15365,-1644.283729,0.206,0.922,0.172,192,0,0,0,0,0,0,0,0,0,1.71E+09,0, 2024-03-05 16:08:58.709
88,-4351.459962,11382.37999,-9414.979448,-8325.13074,-4892.215716,30502.77746,-13428.27987,-1220.82993,0.206,0.922,0.172,192,0,0,0,0,0,0,0,0,0,1.71E+09,0, 2024-03-05 16:08:58.709
89,-6741.934328,11514.3894,-10683.37389,-9079.323301,-5305.499471,27224.64826,-13311.73787,-1155.451078,0.206,0.922,0.172,192,0,0,0,0,0,0,0,0,0,1.71E+09,0, 2024-03-05 16:08:58.709
90,-3712.088312,11231.03633,-7760.07864,-7065.60994,-3855.161828,29804.19604,-13636.2852,-1579.97776,0.206,0.922,0.172,192,0,0,0,0,0,0,0,0,0,1.71E+09,0, 2024-03-05 16:08:58.709
91,268.3550439,10943.72701,-4918.389609,-5241.104095,-2659.008224,34432.34824,-13925.00269,-1877.144203,0.206,0.922,0.172,192,0,0,0,0,0,0,0,0,0,1.71E+09,0, 2024-03-05 16:08:58.709
92,-151.5671792,11033.71513,-5952.627176,-6030.254785,-3301.106787,34843.82151,-13794.82613,-1658.432383,0.206,0.922,0.172,192,0,0,0,0,0,0,0,0,0,1.71E+09,0, 2024-03-05 16:08:59.189
93,-4310.422159,11372.20995,-9381.921218,-8308.85867,-4876.167163,30566.59169,-13434.31484,-1234.308032,0.206,0.922,0.172,192,0,0,0,0,0,0,0,0,0,1.71E+09,0, 2024-03-05 16:08:59.189
94,-6772.042128,11517.60805,-10706.6197,-9101.205659,-5313.367285,27212.15364,-13302.05957,-1154.311139,0.206,0.922,0.172,192,0,0,0,0,0,0,0,0,0,1.71E+09,0, 2024-03-05 16:08:59.189
95,-3792.39813,11239.97703,-7814.572193,-7107.38535,-3872.126802,29712.15155,-13621.98009,-1568.623074,0.206,0.922,0.172,192,0,0,0,0,0,0,0,0,0,1.71E+09,0, 2024-03-05 16:08:59.189
96,235.2744621,10950.18666,-4933.52174,-5256.169171,-2653.353233,34361.22499,-13915.50319,-1870.684549,0.204,0.93,0.172,192,6,96,29,16,5,96,0,0,0,1.71E+09,0, 2024-03-05 16:08:59.189
97,-93.5196988,11038.76663,-5909.175385,-6001.353979,-3276.944551,34864.60863,-13786.66774,-1649.178761,0.204,0.93,0.172,192,0,0,0,0,0,0,0,0,0,1.71E+09,0, 2024-03-05 16:08:59.189
98,-4226.469007,11379.96601,-9329.618136,-8269.609007,-4845.299404,30637.02203,-13421.28377,-1219.310012,0.204,0.93,0.172,192,0,0,0,0,0,0,0,0,0,1.71E+09,0, 2024-03-05 16:08:59.189
99,-6725.349334,11514.52351,-10696.67318,-9094.16486,-5303.934849,27254.86782,-13304.20533,-1152.411241,0.204,0.93,0.172,192,0,0,0,0,0,0,0,0,0,1.71E+09,0, 2024-03-05 16:08:59.189
100,-3836.721639,11239.12766,-7872.396156,-7146.344441,-3891.930448,29668.27508,-13622.22595,-1572.400519,0.204,0.93,0.172,192,0,0,0,0,0,0,0,0,0,1.71E+09,0, 2024-03-05 16:08:59.189
101,182.7255109,10955.75225,-4971.564409,-5275.883409,-2664.193829,34308.7878,-13912.75393,-1874.216124,0.204,0.93,0.172,192,0,0,0,0,0,0,0,0,0,1.71E+09,0, 2024-03-05 16:08:59.189
102,-74.43130904,11039.39248,-5878.374681,-5975.180087,-3256.068022,34890.58136,-13788.00884,-1657.739479,0.204,0.93,0.172,192,0,0,0,0,0,0,0,0,0,1.71E+09,0, 2024-03-05 16:08:59.189
103,-4173.785946,11369.99713,-9285.629903,-8236.930756,-4829.004983,30711.76627,-13431.18559,-1227.803675,0.204,0.93,0.172,192,0,0,0,0,0,0,0,0,0,1.71E+09,0, 2024-03-05 16:08:59.189
104,-6737.195758,11513.47298,-10716.07449,-9103.552592,-5318.30702,27267.87654,-13298.90797,-1138.888435,0.204,0.93,0.172,192,0,0,0,0,0,0,0,0,0,1.71E+09,0, 2024-03-05 16:08:59.189
105,-3910.013009,11244.33562,-7926.621488,-7176.83222,-3917.500844,29602.44919,-13611.34066,-1553.557998,0.204,0.93,0.172,192,0,0,0,0,0,0,0,0,0,1.71E+09,0, 2024-03-05 16:08:59.189
106,141.8888738,10957.96507,-4992.731511,-5283.70652,-2669.066509,34258.63049,-13908.61886,-1861.922665,0.21,0.93,0.17,192,6,144,29,16,5,80,0,0,0,1.71E+09,0, 2024-03-05 16:08:59.189
107,-17.25554672,11027.27783,-5828.396181,-5939.417295,-3231.592862,34938.43644,-13805.08558,-1675.084433,0.21,0.93,0.17,192,0,0,0,0,0,0,0,0,0,1.71E+09,0, 2024-03-05 16:08:59.189
108,-4096.001875,11359.60357,-9237.5513,-8211.494471,-4812.688209,30792.88075,-13444.73075,-1252.85998,0.21,0.93,0.17,192,0,0,0,0,0,0,0,0,0,1.71E+09,0, 2024-03-05 16:08:59.189
109,-6737.799256,11518.12214,-10739.45442,-9126.194909,-5331.539253,27267.13893,-13294.66114,-1141.302424,0.21,0.93,0.17,192,0,0,0,0,0,0,0,0,0,1.71E+09,0, 2024-03-05 16:08:59.189
110,-3965.735908,11250.43765,-7977.047023,-7219.211128,-3932.342402,29533.15878,-13604.65748,-1549.914664,0.21,0.93,0.17,192,0,0,0,0,0,0,0,0,0,1.71E+09,0, 2024-03-05 16:08:59.189
111,114.753856,10955.0817,-5007.483662,-5304.314828,-2663.858552,34209.18843,-13906.74131,-1867.331787,0.21,0.93,0.17,192,0,0,0,0,0,0,0,0,0,1.71E+09,0, 2024-03-05 16:08:59.189
112,27.24677649,11014.80556,-5791.180526,-5925.179234,-3198.914611,34965.16913,-13810.4947,-1690.17186,0.21,0.93,0.17,192,0,0,0,0,0,0,0,0,0,1.71E+09,0, 2024-03-05 16:08:59.189
113,-4024.811569,11349.83585,-9193.004274,-8191.780232,-4779.607627,30861.18768,-13452.88914,-1262.7171,0.21,0.93,0.17,192,0,0,0,0,0,0,0,0,0,1.71E+09,0, 2024-03-05 16:08:59.189
114,-6705.165709,11510.07551,-10736.34752,-9131.536976,-5328.566471,27301.87354,-13304.3618,-1155.719299,0.21,0.93,0.17,192,0,0,0,0,0,0,0,0,0,1.71E+09,0, 2024-03-05 16:08:59.189
115,-4002.951563,11250.61646,-8034.647469,-7256.963224,-3966.965254,29478.9111,-13606.31151,-1558.341272,0.21,0.93,0.17,192,0,0,0,0,0,0,0,0,0,1.71E+09,0, 2024-03-05 16:08:59.189
116,97.76653025,10955.61814,-5040.854817,-5319.871643,-2682.254038,34158.74054,-13912.08338,-1876.85363,0.216,0.928,0.17,192,6,192,29,0,5,80,0,0,0,1.71E+09,0, 2024-03-05 16:08:59.189
117,71.70439621,11021.62284,-5774.595532,-5902.514565,-3191.426777,34986.6268,-13810.74057,-1683.712206,0.216,0.928,0.17,192,0,0,0,0,0,0,0,0,0,1.71E+09,0, 2024-03-05 16:08:59.189
118,-3958.426888,11353.658,-9157.822628,-8156.822104,-4763.044985,30925.00191,-13451.52568,-1247.115582,0.216,0.928,0.17,192,0,0,0,0,0,0,0,0,0,1.71E+09,0, 2024-03-05 16:08:59.189
119,-6701.812947,11511.12604,-10749.44565,-9131.492273,-5339.272957,27321.96776,-13300.562,-1133.792237,0.216,0.928,0.17,192,0,0,0,0,0,0,0,0,0,1.71E+09,0, 2024-03-05 16:08:59.189
120,-4081.249724,11268.20728,-8095.891249,-7290.602599,-3996.76013,29411.61,-13587.42429,-1522.779646,0.216,0.928,0.17,192,0,0,0,0,0,0,0,0,0,1.71E+09,0, 2024-03-05 16:08:59.189
121,35.15929403,10971.21966,-5065.307625,-5331.986288,-2689.406596,34107.06331,-13894.89489,-1847.058755,0.216,0.928,0.17,192,0,0,0,0,0,0,0,0,0,1.71E+09,0, 2024-03-05 16:08:59.189
122,87.06004465,11018.80652,-5725.667563,-5868.830486,-3170.974931,35029.96683,-13807.27605,-1675.062081,0.216,0.928,0.17,192,0,0,0,0,0,0,0,0,0,1.71E+09,0, 2024-03-05 16:08:59.189
123,-3920.697143,11343.01857,-9104.245496,-8123.830929,-4745.923548,31013.15719,-13454.09613,-1255.206913,0.216,0.928,0.17,192,0,0,0,0,0,0,0,0,0,1.71E+09,0, 2024-03-05 16:08:59.189
124,-6742.604881,11516.87044,-10764.68954,-9146.557349,-5350.85116,27333.12128,-13290.99545,-1127.444342,0.216,0.928,0.17,192,0,0,0,0,0,0,0,0,0,1.71E+09,0, 2024-03-05 16:08:59.189
125,-4169.092079,11266.5309,-8143.053429,-7322.051504,-4019.491854,29356.51295,-13585.52439,-1525.439504,0.216,0.928,0.17,192,0,0,0,0,0,0,0,0,0,1.71E+09,0, 2024-03-05 16:08:59.189
126,-18.17196824,10964.49178,-5088.084053,-5341.798704,-2705.589259,34056.9507,-13895.27487,-1855.731232,0.216,0.932,0.17,192,6,192,29,32,5,80,0,0,0,1.71E+09,0, 2024-03-05 16:08:59.189
127,117.726638,11009.66466,-5697.392606,-5844.511788,-3159.843762,35049.23404,-13814.51801,-1694.306933,0.216,0.932,0.17,192,0,0,0,0,0,0,0,0,0,1.71E+09,0, 2024-03-05 16:08:59.189
128,-3861.643834,11340.85045,-9068.92974,-8097.344112,-4727.75158,31061.2805,-13458.63354,-1266.852172,0.216,0.932,0.17,192,0,0,0,0,0,0,0,0,0,1.71E+09,0, 2024-03-05 16:08:59.189
129,-6711.625363,11510.92488,-10769.00342,-9151.340622,-5354.226274,27342.95605,-13301.05374,-1148.589092,0.216,0.932,0.17,192,0,0,0,0,0,0,0,0,0,1.71E+09,0, 2024-03-05 16:08:59.189
130,-4204.430187,11272.09649,-8200.430358,-7365.860923,-4044.078773,29277.16425,-13586.19494,-1530.893329,0.216,0.932,0.17,192,0,0,0,0,0,0,0,0,0,1.71E+09,0, 2024-03-05 16:08:59.189
131,-32.8347126,10968.80567,-5112.693323,-5358.629567,-2712.5183,33990.87894,-13901.62276,-1861.09565,0.216,0.932,0.17,192,0,0,0,0,0,0,0,0,0,1.71E+09,0, 2024-03-05 16:08:59.189
132,172.220191,11011.96689,-5659.864027,-5819.321372,-3134.586291,35066.75781,-13821.78233,-1696.206831,0.216,0.932,0.17,192,0,0,0,0,0,0,0,0,0,1.71E+09,0, 2024-03-05 16:08:59.189
133,-3793.023979,11342.10215,-9027.914289,-8069.851466,-4707.992638,31118.09863,-13466.76957,-1265.220495,0.216,0.932,0.17,192,0,0,0,0,0,0,0,0,0,1.71E+09,0, 2024-03-05 16:08:59.189
134,-6697.342598,11516.334,-10782.01214,-9156.302709,-5361.647053,27357.1047,-13301.05374,-1137.614386,0.216,0.932,0.17,192,0,0,0,0,0,0,0,0,0,1.71E+09,0, 2024-03-05 16:08:59.189
135,-4248.776048,11280.45604,-8251.615852,-7391.498374,-4066.899904,29227.69984,-13582.39515,-1516.878786,0.216,0.932,0.17,192,0,0,0,0,0,0,0,0,0,1.71E+09,0, 2024-03-05 16:08:59.189
136,-66.98817813,10968.11276,-5144.969242,-5372.711166,-2719.447341,33949.48351,-13902.09215,-1860.134525,0.214,0.928,0.172,192,6,176,29,0,5,96,0,0,0,1.71E+09,0, 2024-03-05 16:08:59.189
137,209.4134938,10995.58306,-5633.108989,-5794.153308,-3119.07418,35108.86849,-13832.93585,-1710.15432,0.214,0.928,0.172,192,0,0,0,0,0,0,0,0,0,1.71E+09,0, 2024-03-05 16:08:59.189
138,-3749.371022,11330.34513,-9000.958085,-8051.679498,-4697.017932,31191.4347,-13472.53632,-1274.697635,0.214,0.928,0.172,192,0,0,0,0,0,0,0,0,0,1.71E+09,0, 2024-03-05 16:08:59.189
139,-6715.17929,11511.66248,-10798.03834,-9170.116087,-5375.952169,27376.34955,-13302.73012,-1140.050726,0.214,0.928,0.172,192,0,0,0,0,0,0,0,0,0,1.71E+09,0, 2024-03-05 16:08:59.189
140,-4330.516378,11274.37637,-8309.685684,-7430.278651,-4102.416826,29166.03138,-13582.05987,-1517.683449,0.214,0.928,0.172,192,0,0,0,0,0,0,0,0,0,1.71E+09,0, 2024-03-05 16:08:59.189
141,-122.4652079,10958.278,-5179.301522,-5392.827736,-2742.268472,33891.25721,-13907.61303,-1863.129659,0.214,0.928,0.172,192,0,0,0,0,0,0,0,0,0,1.71E+09,0, 2024-03-05 16:08:59.189
142,230.9382237,10991.09036,-5615.495815,-5782.798622,-3116.168453,35117.56332,-13836.71329,-1707.695628,0.214,0.928,0.172,192,0,0,0,0,0,0,0,0,0,1.71E+09,0, 2024-03-05 16:08:59.189
143,-3660.031099,11314.16247,-8948.275023,-8013.234498,-4681.148193,31270.44812,-13485.76855,-1279.570315,0.214,0.928,0.172,192,0,0,0,0,0,0,0,0,0,1.71E+09,0, 2024-03-05 16:08:59.189
144,-6680.511735,11505.13578,-10804.74386,-9171.993634,-5394.951152,27407.88787,-13305.45703,-1131.467656,0.214,0.928,0.172,192,0,0,0,0,0,0,0,0,0,1.71E+09,0, 2024-03-05 16:08:59.189
145,-4393.995332,11287.54154,-8376.025662,-7476.882038,-4131.898777,29091.66713,-13566.86068,-1500.293791,0.214,0.928,0.172,192,0,0,0,0,0,0,0,0,0,1.71E+09,0, 2024-03-05 16:08:59.189
146,-166.9004758,10968.6492,-5207.285906,-5413.190176,-2748.348146,33825.43133,-13900.05814,-1857.76524,0.212,0.932,0.172,192,6,160,29,32,5,96,0,0,0,1.71E+09,0, 2024-03-05 16:08:59.189
147,272.6465789,10992.45381,-5570.97114,-5750.299186,-3097.080063,35147.58171,-13843.35176,-1712.948288,0.212,0.932,0.172,192,0,0,0,0,0,0,0,0,0,1.71E+09,0, 2024-03-05 16:08:59.189
148,-3615.551128,11322.96906,-8903.795052,-7984.17723,-4666.5078,31329.83671,-13485.63444,-1274.317655,0.212,0.932,0.172,192,0,0,0,0,0,0,0,0,0,1.71E+09,0, 2024-03-05 16:08:59.189
149,-6684.646807,11508.82381,-10801.52521,-9170.40666,-5393.76651,27430.03844,-13309.14507,-1131.13238,0.212,0.932,0.172,192,0,0,0,0,0,0,0,0,0,1.71E+09,0, 2024-03-05 16:08:59.189
150,-4467.689033,11286.33455,-8428.194634,-7506.520451,-4160.285492,29042.85092,-13578.59535,-1505.188823,0.212,0.932,0.172,192,0,0,0,0,0,0,0,0,0,1.71E+09,0, 2024-03-05 16:08:59.189
151,-233.1063429,10975.91352,-5242.691069,-5428.903452,-2767.950626,33771.67538,-13901.68982,-1856.379432,0.212,0.932,0.172,192,0,0,0,0,0,0,0,0,0,1.71E+09,0, 2024-03-05 16:08:59.189
152,285.4764802,10997.30414,-5536.325936,-5720.906642,-3082.953761,35172.21334,-13845.1399,-1718.268003,0.212,0.932,0.172,192,0,0,0,0,0,0,0,0,0,1.71E+09,0, 2024-03-05 16:08:59.189
153,-3553.346223,11315.28006,-8842.2607,-7939.339631,-4648.067611,31421.14358,-13499.35842,-1294.143652,0.212,0.932,0.172,192,0,0,0,0,0,0,0,0,0,1.71E+09,0, 2024-03-05 16:08:59.189
154,-6689.877115,11515.35052,-10803.31335,-9174.988768,-5409.748007,27455.85471,-13308.16159,-1129.679517,0.212,0.932,0.172,192,0,0,0,0,0,0,0,0,0,1.71E+09,0, 2024-03-05 16:08:59.189
155,-4549.809343,11302.00312,-8482.956407,-7546.48537,-4196.383559,28969.67131,-13563.39616,-1486.614524,0.212,0.932,0.172,192,0,0,0,0,0,0,0,0,0,1.71E+09,0, 2024-03-05 16:08:59.189
156,-288.5833727,10980.1827,-5266.048642,-5448.371821,-2784.066234,33702.98847,-13895.49838,-1849.830371,0.214,0.932,0.172,192,6,176,29,32,5,96,0,0,0,1.71E+09,0, 2024-03-05 16:08:59.189
157,321.3063265,10989.92807,-5493.410587,-5700.231278,-3067.218133,35194.25216,-13848.58207,-1725.040582,0.214,0.932,0.172,192,0,0,0,0,0,0,0,0,0,1.71E+09,0, 2024-03-05 16:08:59.189
158,-3483.653484,11306.74169,-8791.030501,-7913.053979,-4623.883024,31490.45634,-13506.35451,-1306.146539,0.214,0.932,0.172,192,0,0,0,0,0,0,0,0,0,1.71E+09,0, 2024-03-05 16:08:59.189
159,-6663.747926,11513.54003,-10803.55922,-9179.146192,-5404.070664,27486.94599,-13307.78161,-1132.16056,0.214,0.932,0.172,192,0,0,0,0,0,0,0,0,0,1.71E+09,0, 2024-03-05 16:08:59.189
160,-4592.791747,11309.40155,-8536.086504,-7579.096565,-4209.705199,28915.17775,-13556.48947,-1484.871088,0.214,0.932,0.172,192,0,0,0,0,0,0,0,0,0,1.71E+09,0, 2024-03-05 16:08:59.189
161,-306.9341549,10987.31291,-5292.4237,-5455.904359,-2783.216868,33658.12852,-13894.60431,-1851.99849,0.214,0.932,0.172,192,0,0,0,0,0,0,0,0,0,1.71E+09,0, 2024-03-05 16:08:59.189
162,380.5160976,10985.41301,-5464.062746,-5666.636606,-3045.246368,35236.72047,-13864.07183,-1743.927806,0.214,0.932,0.172,192,0,0,0,0,0,0,0,0,0,1.71E+09,0, 2024-03-05 16:08:59.189
163,-3412.597288,11311.07793,-8766.331824,-7885.248409,-4610.963715,31556.88573,-13505.70631,-1298.278725,0.214,0.932,0.172,192,0,0,0,0,0,0,0,0,0,1.71E+09,0, 2024-03-05 16:08:59.189
164,-6638.892786,11513.7412,-10825.84391,-9182.789526,-5416.051199,27506.41435,-13308.42981,-1122.370496,0.214,0.932,0.172,192,0,0,0,0,0,0,0,0,0,1.71E+09,0, 2024-03-05 16:08:59.189
165,-4628.018096,11309.04392,-8591.719996,-7610.768987,-4237.220196,28871.81537,-13554.56722,-1470.789489,0.214,0.932,0.172,192,0,0,0,0,0,0,0,0,0,1.71E+09,0, 2024-03-05 16:08:59.189
166,-343.658071,10989.10105,-5326.621869,-5479.284284,-2793.856298,33607.9712,-13884.25546,-1833.960633,0.21,0.932,0.172,192,6,144,29,32,5,96,0,0,0,1.71E+09,0, 2024-03-05 16:08:59.189
167,397.1457955,10987.02234,-5442.314499,-5655.460734,-3023.095789,35241.36963,-13852.91831,-1720.369067,0.21,0.932,0.172,192,0,0,0,0,0,0,0,0,0,1.71E+09,0, 2024-03-05 16:08:59.189
168,-3364.630445,11302.07018,-8723.394123,-7860.795601,-4586.04152,31614.73204,-13507.89678,-1298.792815,0.21,0.932,0.172,192,0,0,0,0,0,0,0,0,0,1.71E+09,0, 2024-03-05 16:08:59.189
169,-6639.429228,11511.2378,-10821.55237,-9185.739957,-5415.358295,27531.56007,-13301.50077,-1116.715505,0.21,0.932,0.172,192,0,0,0,0,0,0,0,0,0,1.71E+09,0, 2024-03-05 16:08:59.189
170,-4700.169528,11313.38016,-8636.892871,-7647.738772,-4261.874171,28809.90104,-13544.79951,-1466.520305,0.21,0.932,0.172,192,0,0,0,0,0,0,0,0,0,1.71E+09,0, 2024-03-05 16:08:59.189
171,-397.2352025,10993.10201,-5350.024146,-5496.249258,-2809.390761,33541.00538,-13879.0475,-1832.887749,0.21,0.932,0.172,192,0,0,0,0,0,0,0,0,0,1.71E+09,0, 2024-03-05 16:08:59.189
172,419.4528364,10982.0826,-5411.804368,-5632.952527,-3013.819815,35245.16943,-13856.71811,-1736.842303,0.21,0.932,0.172,192,0,0,0,0,0,0,0,0,0,1.71E+09,0, 2024-03-05 16:08:59.189
173,-3317.535319,11303.34423,-8679.562352,-7830.844263,-4562.415726,31654.6299,-13506.91331,-1308.873452,0.21,0.932,0.172,192,0,0,0,0,0,0,0,0,0,1.71E+09,0, 2024-03-05 16:08:59.189
174,-6647.341746,11519.61971,-10824.63692,-9186.723433,-5412.519623,27526.12859,-13295.06347,-1112.200452,0.21,0.932,0.172,192,0,0,0,0,0,0,0,0,0,1.71E+09,0, 2024-03-05 16:08:59.189
175,-4768.856438,11319.52689,-8684.770308,-7673.33152,-4279.263828,28736.16263,-13541.33499,-1459.546561,0.21,0.932,0.172,192,0,0,0,0,0,0,0,0,0,1.71E+09,0, 2024-03-05 16:08:59.189
176,-446.1631711,10984.04956,-5378.701434,-5505.860508,-2818.599679,33483.91902,-13887.00472,-1840.97908,0.21,0.932,0.172,192,0,0,0,0,0,0,0,0,0,1.71E+09,0, 2024-03-05 16:08:59.189
177,446.1184676,10973.34307,-5387.575077,-5606.242193,-3000.654638,35264.41428,-13864.94355,-1741.357355,0.212,0.924,0.172,192,6,160,28,224,5,96,0,0,0,1.71E+09,0, 2024-03-05 16:08:59.189
178,-3257.006795,11291.78837,-8643.061953,-7799.79769,-4549.362308,31726.46841,-13517.86566,-1313.299097,0.212,0.924,0.172,192,0,0,0,0,0,0,0,0,0,1.71E+09,0, 2024-03-05 16:08:59.189
179,-6628.409818,11515.10465,-10831.05187,-9187.930428,-5419.582775,27561.06437,-13300.40554,-1114.547386,0.212,0.924,0.172,192,0,0,0,0,0,0,0,0,0,1.71E+09,0, 2024-03-05 16:08:59.189
180,-4824.825206,11319.0128,-8739.107399,-7707.909668,-4298.396921,28689.5816,-13538.47397,-1456.842,0.212,0.924,0.172,192,0,0,0,0,0,0,0,0,0,1.71E+09,0, 2024-03-05 16:08:59.189
181,-503.7859683,10986.84352,-5415.80533,-5529.352192,-2827.853302,33428.84432,-13886.26711,-1844.331842,0.212,0.924,0.172,192,0,0,0,0,0,0,0,0,0,1.71E+09,0, 2024-03-05 16:08:59.189
182,459.462459,10970.03501,-5358.40605,-5588.092576,-2987.087129,35290.11879,-13874.08541,-1758.791716,0.212,0.924,0.172,192,0,0,0,0,0,0,0,0,0,1.71E+09,0, 2024-03-05 16:08:59.189
183,-3215.566661,11292.12365,-8599.118423,-7773.802611,-4533.827845,31794.03773,-13522.09014,-1321.032801,0.212,0.924,0.172,192,0,0,0,0,0,0,0,0,0,1.71E+09,0, 2024-03-05 16:08:59.189
184,-6645.419496,11521.65371,-10836.19277,-9194.099509,-5424.991897,27580.30922,-13294.23646,-1104.153824,0.212,0.924,0.172,192,0,0,0,0,0,0,0,0,0,1.71E+09,0, 2024-03-05 16:08:59.189
185,-4918.993106,11332.91558,-8795.187926,-7745.840579,-4326.82834,28624.29215,-13523.11832,-1437.150113,0.212,0.924,0.172,192,0,0,0,0,0,0,0,0,0,1.71E+09,0, 2024-03-05 16:08:59.189
186,-583.5146408,10998.91347,-5449.981147,-5550.429887,-2841.331403,33362.50435,-13872.6549,-1823.477664,0.212,0.924,0.172,192,0,0,0,0,0,0,0,0,0,1.71E+09,0, 2024-03-05 16:08:59.189
187,457.7860782,10982.39553,-5327.113608,-5563.706823,-2958.834524,35299.17124,-13858.90858,-1736.484675,0.216,0.932,0.174,192,6,192,29,32,5,112,0,0,0,1.71E+09,0, 2024-03-05 16:08:59.189
188,-3155.060489,11289.19557,-8532.621984,-7729.657916,-4493.728816,31879.06377,-13523.09597,-1319.222309,0.216,0.932,0.174,192,0,0,0,0,0,0,0,0,0,1.71E+09,0, 2024-03-05 16:08:59.189
189,-6612.093045,11517.38453,-10820.68066,-9183.571837,-5414.285411,27634.31104,-13298.19272,-1107.953621,0.216,0.932,0.174,192,0,0,0,0,0,0,0,0,0,1.71E+09,0, 2024-03-05 16:08:59.189
190,-4965.037699,11333.54143,-8847.356897,-7777.89298,-4345.201474,28578.33696,-13526.62754,-1441.285186,0.216,0.932,0.174,192,0,0,0,0,0,0,0,0,0,1.71E+09,0, 2024-03-05 16:08:59.189
191,-613.1754056,10994.35371,-5474.590418,-5564.332672,-2842.493694,33310.06715,-13881.01445,-1832.418362,0.216,0.932,0.174,192,0,0,0,0,0,0,0,0,0,1.71E+09,0, 2024-03-05 16:08:59.189
192,510.5361951,10965.56466,-5288.154517,-5537.778799,-2942.093067,35332.85532,-13880.52271,-1759.663434,0.216,0.932,0.174,192,0,0,0,0,0,0,0,0,0,1.71E+09,0, 2024-03-05 16:08:59.189
193,-3089.055787,11283.02649,-8490.444242,-7705.070997,-4474.841592,31950.27643,-13530.38264,-1323.133865,0.216,0.932,0.174,192,0,0,0,0,0,0,0,0,0,1.71E+09,0, 2024-03-05 16:08:59.189
194,-6597.832632,11515.75285,-10819.51837,-9189.316236,-5419.493368,27663.05538,-13302.64071,-1105.003191,0.216,0.932,0.174,192,0,0,0,0,0,0,0,0,0,1.71E+09,0, 2024-03-05 16:08:59.189
195,-5019.307735,11339.33053,-8897.022473,-7814.639248,-4377.343282,28520.87063,-13525.68877,-1434.579663,0.216,0.932,0.174,192,0,0,0,0,0,0,0,0,0,1.71E+09,0, 2024-03-05 16:08:59.189
196,-666.7748888,10998.757,-5508.073331,-5589.970123,-2865.828915,33244.66595,-13880.3886,-1830.987851,0.216,0.932,0.174,192,0,0,0,0,0,0,0,0,0,1.71E+09,0, 2024-03-05 16:08:59.189
197,532.2844425,10963.48595,-5261.041851,-5520.120921,-2932.727686,35350.69202,-13887.02707,-1763.016196,0.212,0.928,0.174,192,6,160,29,0,5,112,0,0,0,1.71E+09,0, 2024-03-05 16:08:59.189
198,-3022.71581,11270.55422,-8442.924433,-7669.576427,-4458.122487,32029.78158,-13550.78978,-1346.580845,0.212,0.928,0.174,192,0,0,0,0,0,0,0,0,0,1.71E+09,0, 2024-03-05 16:08:59.189
199,-6571.994015,11508.71205,-10815.91973,-9181.180201,-5418.576946,27706.75304,-13315.49297,-1123.823359,0.212,0.928,0.174,192,0,0,0,0,0,0,0,0,0,1.71E+09,0, 2024-03-05 16:08:59.190
200,-5083.613704,11345.81254,-8951.828951,-7850.53615,-4392.497765,28466.98057,-13519.89967,-1430.198721,0.212,0.928,0.174,192,0,0,0,0,0,0,0,0,0,1.71E+09,0, 2024-03-05 16:08:59.190
201,-712.3947993,11005.01549,-5542.584424,-5608.365608,-2866.253598,33184.96444,-13879.98627,-1833.714763,0.212,0.928,0.174,192,0,0,0,0,0,0,0,0,0,1.71E+09,0, 2024-03-05 16:08:59.190
202,570.4835737,10953.74059,-5227.290717,-5496.7857,-2901.859927,35372.55202,-13903.74618,-1787.916039,0.212,0.928,0.174,192,0,0,0,0,0,0,0,0,0,1.71E+09,0, 2024-03-05 16:08:59.190
203,-2970.233914,11268.27434,-8404.390026,-7647.157627,-4422.382047,32086.82324,-13555.64011,-1357.555551,0.212,0.928,0.174,192,0,0,0,0,0,0,0,0,0,1.71E+09,0, 2024-03-05 16:08:59.190
204,-6566.204913,11506.25336,-10819.94305,-9187.483393,-5410.329152,27730.15532,-13323.69606,-1131.914691,0.212,0.928,0.174,192,0,0,0,0,0,0,0,0,0,1.71E+09,0, 2024-03-05 16:08:59.190
205,-5136.453228,11342.88446,-9000.287533,-7882.387386,-4406.177033,28424.80283,-13524.32531,-1435.719602,0.212,0.928,0.174,192,0,0,0,0,0,0,0,0,0,1.71E+09,0, 2024-03-05 16:08:59.190
206,-770.3528727,11002.26623,-5581.47646,-5631.052629,-2875.931904,33139.50099,-13880.67918,-1831.323127,0.212,0.928,0.174,192,0,0,0,0,0,0,0,0,0,1.71E+09,0, 2024-03-05 16:08:59.190
207,571.7799749,10949.4267,-5211.44333,-5481.452403,-2889.946448,35403.75506,-13906.62955,-1791.268801,0.214,0.924,0.174,192,6,176,28,224,5,112,0,0,0,1.71E+09,0, 2024-03-05 16:08:59.190
208,-2913.080503,11256.62908,-8351.975185,-7611.685409,-4402.220774,32188.99306,-13564.5361,-1363.590522,0.214,0.924,0.174,192,0,0,0,0,0,0,0,0,0,1.71E+09,0, 2024-03-05 16:08:59.190
209,-6538.444047,11500.66543,-10800.18411,-9177.603922,-5408.943344,27804.29605,-13323.69606,-1124.158636,0.214,0.924,0.174,192,0,0,0,0,0,0,0,0,0,1.71E+09,0, 2024-03-05 16:08:59.190
210,-5195.975923,11343.3762,-9051.473028,-7919.871261,-4442.945652,28388.52595,-13524.72765,-1426.063648,0.214,0.924,0.174,192,0,0,0,0,0,0,0,0,0,1.71E+09,0, 2024-03-05 16:08:59.190
211,-826.6569169,10999.78518,-5618.356838,-5659.774621,-2901.569355,33079.17363,-13886.06595,-1837.939243,0.214,0.924,0.174,192,0,0,0,0,0,0,0,0,0,1.71E+09,0, 2024-03-05 16:08:59.190
212,587.60501,10944.82225,-5191.013836,-5474.657473,-2882.123337,35406.66078,-13910.74227,-1795.448577,0.214,0.924,0.174,192,0,0,0,0,0,0,0,0,0,1.71E+09,0, 2024-03-05 16:08:59.670
213,-2832.055429,11242.03339,-8294.195925,-7579.320083,-4378.371463,32263.24555,-13582.97629,-1378.521488,0.214,0.924,0.174,192,0,0,0,0,0,0,0,0,0,1.71E+09,0, 2024-03-05 16:08:59.670
214,-6477.155563,11482.24759,-10782.52623,-9174.429974,-5411.379684,27865.1375,-13344.43847,-1141.660052,0.214,0.924,0.174,192,0,0,0,0,0,0,0,0,0,1.71E+09,0, 2024-03-05 16:08:59.670
215,-5230.978755,11342.61624,-9110.213412,-7966.11702,-4475.758013,28344.11303,-13526.58284,-1430.221072,0.214,0.924,0.174,192,0,0,0,0,0,0,0,0,0,1.71E+09,0, 2024-03-05 16:08:59.670
216,-875.718996,11012.57038,-5677.812478,-5699.381912,-2923.831692,32997.72388,-13875.96296,-1827.232757,0.214,0.924,0.174,192,0,0,0,0,0,0,0,0,0,1.71E+09,0, 2024-03-05 16:08:59.670
217,615.4329318,10952.77947,-5176.507554,-5460.061784,-2861.78325,35402.21279,-13906.67425,-1788.631295,0.21,0.928,0.17,192,6,144,29,0,5,80,0,0,0,1.71E+09,0, 2024-03-05 16:08:59.670
218,-2762.094469,11249.87885,-8250.632376,-7546.597129,-4353.538675,32321.62831,-13577.61187,-1366.317435,0.21,0.928,0.17,192,0,0,0,0,0,0,0,0,0,1.71E+09,0, 2024-03-05 16:08:59.670
219,-6453.350956,11498.47496,-10775.70895,-9160.79541,-5403.89185,27889.70207,-13328.7252,-1123.890415,0.21,0.928,0.17,192,0,0,0,0,0,0,0,0,0,1.71E+09,0, 2024-03-05 16:08:59.670
220,-5270.228418,11349.0759,-9137.706058,-7975.683567,-4485.682188,28305.3104,-13518.87149,-1422.2415,0.21,0.928,0.17,192,0,0,0,0,0,0,0,0,0,1.71E+09,0, 2024-03-05 16:08:59.670
221,-909.8501098,11007.09421,-5689.502441,-5703.852261,-2924.524596,32955.38967,-13875.13594,-1827.948013,0.21,0.928,0.17,192,0,0,0,0,0,0,0,0,0,1.71E+09,0, 2024-03-05 16:08:59.670
222,649.2734729,10941.82711,-5136.587338,-5429.26108,-2845.198255,35429.77249,-13911.59164,-1796.432054,0.21,0.928,0.17,192,0,0,0,0,0,0,0,0,0,1.71E+09,0, 2024-03-05 16:08:59.670
223,-2681.069396,11234.97024,-8189.835631,-7499.658465,-4329.018811,32413.7175,-13583.24451,-1376.733348,0.21,0.928,0.17,192,0,0,0,0,0,0,0,0,0,1.71E+09,0, 2024-03-05 16:08:59.670
224,-6432.51913,11495.41277,-10768.42228,-9157.867331,-5402.10371,27933.73501,-13320.16448,-1115.553214,0.21,0.928,0.17,192,0,0,0,0,0,0,0,0,0,1.71E+09,0, 2024-03-05 16:08:59.670
225,-5343.67625,11361.57052,-9192.356073,-8017.928364,-4503.563583,28241.40677,-13496.34093,-1400.627363,0.21,0.928,0.17,192,0,0,0,0,0,0,0,0,0,1.71E+09,0, 2024-03-05 16:08:59.670
226,-993.4903375,11013.3974,-5730.227319,-5730.11556,-2935.700469,32873.93992,-13863.87066,-1811.586536,0.21,0.928,0.17,192,0,0,0,0,0,0,0,0,0,1.71E+09,0, 2024-03-05 16:08:59.670
227,634.923653,10943.68231,-5119.30944,-5414.821853,-2830.446104,35417.23316,-13911.65869,-1793.079292,0.21,0.93,0.172,192,6,144,29,16,5,96,0,0,0,1.71E+09,0, 2024-03-05 16:08:59.670
228,-2656.616587,11237.0713,-8151.524741,-7476.345596,-4306.532956,32449.32383,-13582.70807,-1377.828583,0.21,0.93,0.172,192,0,0,0,0,0,0,0,0,0,1.71E+09,0, 2024-03-05 16:08:59.670
229,-6427.624098,11493.60228,-10758.05107,-9149.776,-5393.38653,27955.55031,-13322.01968,-1112.915708,0.21,0.93,0.172,192,0,0,0,0,0,0,0,0,0,1.71E+09,0, 2024-03-05 16:08:59.670
230,-5404.204774,11366.95729,-9241.798132,-8047.186798,-4520.729723,28184.58863,-13490.41772,-1382.835374,0.21,0.93,0.172,192,0,0,0,0,0,0,0,0,0,1.71E+09,0, 2024-03-05 16:08:59.670
231,-1044.407611,11023.47803,-5770.371052,-5753.629595,-2945.982271,32801.63202,-13851.91248,-1795.828557,0.21,0.93,0.172,192,0,0,0,0,0,0,0,0,0,1.71E+09,0, 2024-03-05 16:08:59.670
232,658.8400196,10945.71631,-5098.745835,-5397.968638,-2811.938859,35413.47807,-13907.07659,-1793.57103,0.21,0.93,0.172,192,0,0,0,0,0,0,0,0,0,1.71E+09,0, 2024-03-05 16:08:59.670
233,-2577.98315,11231.59513,-8100.339246,-7442.326241,-4278.235647,32517.31783,-13588.8995,-1388.602124,0.21,0.93,0.172,192,0,0,0,0,0,0,0,0,0,1.71E+09,0, 2024-03-05 16:08:59.670
234,-6402.478385,11494.85397,-10752.44078,-9152.905244,-5393.274771,27985.6134,-13322.57847,-1127.42199,0.21,0.93,0.172,192,0,0,0,0,0,0,0,0,0,1.71E+09,0, 2024-03-05 16:08:59.670
235,-5467.460211,11371.80762,-9292.760109,-8086.011778,-4551.083392,28126.87643,-13487.55669,-1391.597258,0.21,0.93,0.172,192,0,0,0,0,0,0,0,0,0,1.71E+09,0, 2024-03-05 16:08:59.670
236,-1109.317077,11024.23799,-5805.440939,-5777.970645,-2964.04248,32730.68759,-13855.9805,-1805.730379,0.21,0.93,0.172,192,0,0,0,0,0,0,0,0,0,1.71E+09,0, 2024-03-05 16:08:59.670
237,674.3297785,10938.36259,-5070.537933,-5379.5508,-2796.940839,35423.15637,-13920.71115,-1804.97042,0.212,0.928,0.178,192,6,160,29,0,5,144,0,0,0,1.71E+09,0, 2024-03-05 16:08:59.670
238,-2528.183464,11225.62721,-8051.992423,-7411.883165,-4256.800325,32580.88619,-13599.0919,-1396.604049,0.212,0.928,0.178,192,0,0,0,0,0,0,0,0,0,1.71E+09,0, 2024-03-05 16:08:59.670
239,-6369.889542,11489.44485,-10733.17358,-9141.662317,-5391.508984,28040.06225,-13334.93898,-1132.317022,0.212,0.928,0.178,192,0,0,0,0,0,0,0,0,0,1.71E+09,0, 2024-03-05 16:08:59.670
240,-5519.182148,11367.47138,-9342.850368,-8120.411112,-4579.403052,28094.06407,-13496.22917,-1393.050121,0.212,0.928,0.178,192,0,0,0,0,0,0,0,0,0,1.71E+09,0, 2024-03-05 16:08:59.670
241,-1180.708549,11028.68599,-5855.866475,-5809.598364,-2982.907353,32660.4137,-13851.73367,-1794.755673,0.212,0.928,0.178,192,0,0,0,0,0,0,0,0,0,1.71E+09,0, 2024-03-05 16:08:59.670
242,663.8915138,10938.00496,-5061.932512,-5370.118364,-2786.010836,35409.16418,-13919.99589,-1806.75856,0.212,0.928,0.178,192,0,0,0,0,0,0,0,0,0,1.71E+09,0, 2024-03-05 16:08:59.670
243,-2483.54703,11221.17921,-8008.227707,-7377.439127,-4228.435961,32635.13388,-13602.73523,-1399.30861,0.212,0.928,0.178,192,0,0,0,0,0,0,0,0,0,1.71E+09,0, 2024-03-05 16:08:59.670
244,-6349.258882,11484.371,-10717.12502,-9125.144377,-5374.901637,28080.3401,-13338.3141,-1128.584281,0.212,0.928,0.178,192,0,0,0,0,0,0,0,0,0,1.71E+09,0, 2024-03-05 16:08:59.670
245,-5576.670835,11368.18664,-9387.442099,-8145.10979,-4594.579887,28047.81831,-13494.95512,-1389.205621,0.212,0.928,0.178,192,0,0,0,0,0,0,0,0,0,1.71E+09,0, 2024-03-05 16:08:59.670
246,-1245.416849,11023.25452,-5897.396016,-5833.00064,-3004.253269,32598.27585,-13859.48972,-1809.865452,0.212,0.928,0.178,192,0,0,0,0,0,0,0,0,0,1.71E+09,0, 2024-03-05 16:08:59.670
247,672.8098598,10934.36163,-5041.257148,-5352.996928,-2780.758176,35421.43529,-13923.68393,-1805.842138,0.214,0.92,0.176,192,6,176,28,192,5,128,0,0,0,1.71E+09,0, 2024-03-05 16:08:59.670
248,-2432.80857,11220.01692,-7962.876017,-7345.274966,-4210.979248,32702.63615,-13600.27654,-1389.719712,0.214,0.92,0.176,192,0,0,0,0,0,0,0,0,0,1.71E+09,0, 2024-03-05 16:08:59.670
249,-6330.952803,11490.94242,-10707.58083,-9119.869366,-5372.152373,28123.56837,-13326.66884,-1114.077999,0.214,0.92,0.176,192,0,0,0,0,0,0,0,0,0,1.71E+09,0, 2024-03-05 16:08:59.670
250,-5631.499664,11375.71917,-9435.297183,-8177.877447,-4607.230974,28009.84269,-13480.71706,-1374.274656,0.214,0.92,0.176,192,0,0,0,0,0,0,0,0,0,1.71E+09,0, 2024-03-05 16:08:59.670
251,-1291.573202,11027.59075,-5935.416333,-5853.161914,-3003.538013,32546.53156,-13853.76768,-1797.884917,0.214,0.92,0.176,192,0,0,0,0,0,0,0,0,0,1.71E+09,0, 2024-03-05 16:08:59.670
252,693.2393543,10926.47146,-5031.176511,-5337.350707,-2762.005062,35429.59367,-13933.60811,-1825.064638,0.214,0.92,0.176,192,0,0,0,0,0,0,0,0,0,1.71E+09,0, 2024-03-05 16:08:59.670
253,-2362.780555,11208.57283,-7923.268726,-7313.781358,-4187.867545,32772.37359,-13617.44268,-1419.93927,0.214,0.92,0.176,192,0,0,0,0,0,0,0,0,0,1.71E+09,0, 2024-03-05 16:08:59.670
254,-6292.73132,11491.65767,-10700.04829,-9113.163842,-5365.044518,28170.59644,-13330.20041,-1124.180987,0.214,0.92,0.176,192,0,0,0,0,0,0,0,0,0,1.71E+09,0, 2024-03-05 16:08:59.670
255,-5684.473298,11394.44994,-9491.645931,-8210.734512,-4630.745009,27951.99638,-13465.76374,-1357.712013,0.214,0.92,0.176,192,0,0,0,0,0,0,0,0,0,1.71E+09,0, 2024-03-05 16:08:59.670
0,-1350.11242,11045.38274,-5977.14704,-5874.373719,-3020.145359,32464.3442,-13836.06509,-1779.847059,0.214,0.92,0.176,192,0,0,0,0,0,0,0,0,0,1.71E+09,0, 2024-03-05 16:08:59.670
1,709.3773138,10934.89807,-5005.896688,-5316.563584,-2744.771867,35416.40614,-13925.76264,-1816.995659,0.216,0.92,0.18,192,6,192,28,192,5,160,0,0,0,1.71E+09,0, 2024-03-05 16:08:59.670
2,-2277.955684,11200.03446,-7854.268891,-7267.714413,-4152.104754,32845.30733,-13622.69534,-1423.046162,0.216,0.92,0.18,192,0,0,0,0,0,0,0,0,0,1.71E+09,0, 2024-03-05 16:08:59.670
3,-6230.280546,11479.72184,-10668.35352,-9092.957865,-5356.394393,28239.9539,-13339.90107,-1129.031316,0.216,0.92,0.18,192,0,0,0,0,0,0,0,0,0,1.71E+09,0, 2024-03-05 16:08:59.670
4,-5702.757025,11391.25364,-9525.598231,-8238.718896,-4656.002481,27936.26075,-13474.59268,-1361.802383,0.216,0.92,0.18,192,0,0,0,0,0,0,0,0,0,1.71E+09,0, 2024-03-05 16:08:59.670
5,-1398.973334,11052.98234,-6023.348096,-5910.069455,-3046.386307,32402.11694,-13841.8542,-1785.323237,0.216,0.92,0.18,192,0,0,0,0,0,0,0,0,0,1.71E+09,0, 2024-03-05 16:08:59.670
6,703.5435085,10944.91165,-4998.297095,-5313.411988,-2733.327774,35404.2915,-13922.20872,-1813.665249,0.216,0.92,0.18,192,0,0,0,0,0,0,0,0,0,1.71E+09,0, 2024-03-05 16:08:59.670
7,-2236.560254,11214.07136,-7808.604277,-7237.964241,-4122.153416,32893.56475,-13614.04522,-1415.826549,0.216,0.92,0.18,192,0,0,0,0,0,0,0,0,0,1.71E+09,0, 2024-03-05 16:08:59.670
8,-6214.008476,11498.02792,-10652.68495,-9078.988025,-5341.195207,28270.26287,-13329.01577,-1117.006077,0.216,0.92,0.18,192,0,0,0,0,0,0,0,0,0,1.71E+09,0, 2024-03-05 16:08:59.670
9,-5757.228226,11405.11172,-9567.239531,-8257.673175,-4662.395079,27884.87409,-13464.93673,-1354.649824,0.216,0.92,0.18,192,0,0,0,0,0,0,0,0,0,1.71E+09,0, 2024-03-05 16:08:59.670
10,-1435.853712,11054.12228,-6041.073029,-5916.015019,-3043.435877,32351.02085,-13842.27888,-1790.754711,0.216,0.92,0.18,192,0,0,0,0,0,0,0,0,0,1.71E+09,0, 2024-03-05 16:08:59.670
11,739.708631,10936.61916,-4971.787926,-5290.255581,-2723.604765,35419.0213,-13938.45844,-1837.291042,0.214,0.918,0.172,192,6,176,28,176,5,96,0,0,0,1.71E+09,0, 2024-03-05 16:08:59.670
12,-2145.588654,11199.25215,-7759.609253,-7201.732063,-4109.52468,32973.60634,-13637.96158,-1448.884779,0.214,0.918,0.172,192,0,0,0,0,0,0,0,0,0,1.71E+09,0, 2024-03-05 16:08:59.670
13,-6146.752077,11487.41084,-10634.06594,-9065.018185,-5348.012489,28339.91091,-13344.7514,-1132.406429,0.214,0.918,0.172,192,0,0,0,0,0,0,0,0,0,1.71E+09,0, 2024-03-05 16:08:59.670
14,-5790.46527,11407.41395,-9614.736988,-8289.435004,-4698.381388,27857.4485,-13463.14859,-1339.025955,0.214,0.918,0.172,192,0,0,0,0,0,0,0,0,0,1.71E+09,0, 2024-03-05 16:08:59.670
15,-1490.056692,11053.00469,-6091.677379,-5945.206397,-3077.365825,32289.28534,-13843.48587,-1783.110414,0.214,0.918,0.172,192,0,0,0,0,0,0,0,0,0,1.71E+09,0, 2024-03-05 16:08:59.670
16,747.7999625,10931.4112,-4961.103792,-5283.594761,-2724.767056,35420.49651,-13944.56046,-1840.017955,0.214,0.918,0.172,192,0,0,0,0,0,0,0,0,0,1.71E+09,0, 2024-03-05 16:08:59.670
17,-2093.26322,11197.57577,-7717.431512,-7178.598008,-4093.811404,33035.74419,-13638.90036,-1437.865369,0.214,0.918,0.172,192,0,0,0,0,0,0,0,0,0,1.71E+09,0, 2024-03-05 16:08:59.670
18,-6110.050513,11484.34865,-10612.80943,-9059.743173,-5341.441076,28389.04004,-13344.25966,-1130.864159,0.214,0.918,0.172,192,0,0,0,0,0,0,0,0,0,1.71E+09,0, 2024-03-05 16:08:59.670
19,-5820.863643,11404.99996,-9651.751477,-8323.230842,-4719.995525,27827.3854,-13461.15928,-1344.546836,0.214,0.918,0.172,192,0,0,0,0,0,0,0,0,0,1.71E+09,0, 2024-03-05 16:08:59.670
20,-1571.886429,11066.97453,-6151.222426,-5988.814651,-3100.812805,32195.56447,-13829.00194,-1772.359225,0.214,0.918,0.172,192,0,0,0,0,0,0,0,0,0,1.71E+09,0, 2024-03-05 16:08:59.670
21,721.3578488,10942.96705,-4963.24956,-5280.420814,-2712.5183,35377.24589,-13932.84815,-1826.562205,0.218,0.92,0.178,192,6,208,28,192,5,144,0,0,0,1.71E+09,0, 2024-03-05 16:08:59.670
22,-2051.085478,11199.69919,-7672.280988,-7143.036383,-4064.441212,33072.73633,-13636.10639,-1438.468866,0.218,0.92,0.178,192,0,0,0,0,0,0,0,0,0,1.71E+09,0, 2024-03-05 16:08:59.670
23,-6076.634655,11487.74612,-10582.92515,-9032.630507,-5317.547061,28436.96218,-13340.28105,-1126.505569,0.218,0.92,0.178,192,0,0,0,0,0,0,0,0,0,1.71E+09,0, 2024-03-05 16:08:59.670
24,-5877.033577,11415.8182,-9693.035149,-8345.157903,-4730.836121,27782.5031,-13450.87748,-1336.477856,0.218,0.92,0.178,192,0,0,0,0,0,0,0,0,0,1.71E+09,0, 2024-03-05 16:08:59.670
25,-1634.471313,11071.31077,-6189.175688,-6008.238317,-3108.278287,32130.69971,-13824.12926,-1771.331045,0.218,0.92,0.178,192,0,0,0,0,0,0,0,0,0,1.71E+09,0, 2024-03-05 16:08:59.670
26,726.8116745,10937.64734,-4942.864769,-5264.036985,-2696.156823,35383.01264,-13940.44774,-1841.247301,0.218,0.92,0.178,192,0,0,0,0,0,0,0,0,0,1.71E+09,0, 2024-03-05 16:08:59.670
27,-1991.249858,11194.58064,-7615.306391,-7105.105472,-4031.003002,33151.05684,-13645.44942,-1453.712756,0.218,0.92,0.178,192,0,0,0,0,0,0,0,0,0,1.71E+09,0, 2024-03-05 16:08:59.670
28,-6029.964212,11479.99006,-10563.36737,-9019.97942,-5308.874584,28500.19526,-13351.36752,-1142.487066,0.218,0.92,0.178,192,0,0,0,0,0,0,0,0,0,1.71E+09,0, 2024-03-05 16:08:59.670
29,-5900.502908,11416.30994,-9743.728905,-8380.719528,-4756.138296,27756.57508,-13453.35853,-1339.137714,0.218,0.92,0.178,192,0,0,0,0,0,0,0,0,0,1.71E+09,0, 2024-03-05 16:08:59.670
30,-1664.959093,11068.80737,-6232.649831,-6037.183826,-3126.919642,32076.7873,-13829.73955,-1781.679902,0.218,0.92,0.178,192,0,0,0,0,0,0,0,0,0,1.71E+09,0, 2024-03-05 16:08:59.670
31,771.2469424,10923.7222,-4927.643231,-5250.737697,-2692.133509,35399.06119,-13957.16685,-1859.285159,0.218,0.93,0.184,192,6,208,29,16,5,192,0,0,0,1.71E+09,0, 2024-03-05 16:08:59.670
32,-1898.24425,11184.09767,-7574.648568,-7076.696405,-4021.123531,33221.75541,-13657.22879,-1460.373576,0.218,0.93,0.184,192,0,0,0,0,0,0,0,0,0,1.71E+09,0, 2024-03-05 16:08:59.670
33,-5967.222865,11478.22427,-10547.98937,-9013.050379,-5313.881375,28552.23013,-13356.8884,-1141.011851,0.218,0.93,0.184,192,0,0,0,0,0,0,0,0,0,1.71E+09,0, 2024-03-05 16:08:59.670
34,-5941.965394,11430.19038,-9791.919266,-8415.141215,-4784.279142,27705.12136,-13442.22736,-1321.770408,0.218,0.93,0.184,192,0,0,0,0,0,0,0,0,0,1.71E+09,0, 2024-03-05 16:08:59.670
35,-1716.971602,11076.67519,-6272.167715,-6061.07784,-3149.137276,32001.46192,-13823.01168,-1769.408795,0.218,0.93,0.184,192,0,0,0,0,0,0,0,0,0,1.71E+09,0, 2024-03-05 16:08:59.670
36,770.1070035,10930.60654,-4914.343943,-5238.891272,-2687.14907,35378.31877,-13953.12118,-1855.015976,0.218,0.93,0.184,192,0,0,0,0,0,0,0,0,0,1.71E+09,0, 2024-03-05 16:08:59.670
37,-1847.12581,11180.54374,-7523.775998,-7040.464227,-3996.804833,33278.57355,-13664.67192,-1473.181125,0.218,0.93,0.184,192,0,0,0,0,0,0,0,0,0,1.71E+09,0, 2024-03-05 16:08:59.670
38,-5939.640813,11479.61008,-10526.24113,-8997.471213,-5301.856137,28595.90543,-13358.78829,-1142.509418,0.218,0.93,0.184,192,0,0,0,0,0,0,0,0,0,1.71E+09,0, 2024-03-05 16:08:59.670
39,-5980.253933,11428.04461,-9824.865738,-8437.090628,-4796.594953,27671.59375,-13446.58595,-1324.139693,0.218,0.93,0.184,192,0,0,0,0,0,0,0,0,0,1.71E+09,0, 2024-03-05 16:08:59.670
40,-1771.643969,11077.32339,-6317.966439,-6092.5938,-3160.067279,31922.49321,-13821.84938,-1769.185277,0.218,0.93,0.184,192,0,0,0,0,0,0,0,0,0,1.71E+09,0, 2024-03-05 16:08:59.670
41,770.3081692,10936.28388,-4920.870652,-5243.026345,-2670.117041,35330.5978,-13940.82772,-1847.170514,0.216,0.926,0.186,192,6,192,28,240,5,208,0,0,0,1.71E+09,0, 2024-03-05 16:08:59.670
42,-1779.444728,11178.73325,-7484.638093,-7010.110558,-3960.282083,33312.10116,-13657.65347,-1460.999425,0.216,0.926,0.186,192,0,0,0,0,0,0,0,0,0,1.71E+09,0, 2024-03-05 16:08:59.670
43,-5875.692472,11471.31759,-10498.10028,-8976.795849,-5282.141898,28646.80036,-13358.2295,-1137.659089,0.216,0.926,0.186,192,0,0,0,0,0,0,0,0,0,1.71E+09,0, 2024-03-05 16:08:59.670
44,-6014.496805,11427.86579,-9867.937549,-8467.153724,-4812.419988,27639.58605,-13437.13116,-1313.612022,0.216,0.926,0.186,192,0,0,0,0,0,0,0,0,0,1.71E+09,0, 2024-03-05 16:08:59.670
45,-1852.222008,11088.20869,-6370.604798,-6123.841539,-3175.758204,31844.08329,-13803.4986,-1747.302919,0.216,0.926,0.186,192,0,0,0,0,0,0,0,0,0,1.71E+09,0, 2024-03-05 16:08:59.670
46,753.79023,10934.27222,-4908.599545,-5226.642516,-2660.081108,35323.66876,-13938.68195,-1842.834275,0.216,0.926,0.186,192,0,0,0,0,0,0,0,0,0,1.71E+09,0, 2024-03-05 16:08:59.670
47,-1735.769419,11166.14922,-7431.910328,-6970.704433,-3937.304489,33383.76086,-13663.59903,-1470.767137,0.216,0.926,0.186,192,0,0,0,0,0,0,0,0,0,1.71E+09,0, 2024-03-05 16:08:59.670
48,-5868.919893,11471.65286,-10481.18001,-8964.100059,-5265.802773,28703.37262,-13346.71835,-1125.298575,0.216,0.926,0.186,192,0,0,0,0,0,0,0,0,0,1.71E+09,0, 2024-03-05 16:08:59.670
49,-6077.841649,11430.21273,-9912.082244,-8493.975817,-4826.613346,27616.07201,-13424.39066,-1295.350646,0.216,0.926,0.186,192,0,0,0,0,0,0,0,0,0,1.71E+09,0, 2024-03-05 16:08:59.670
50,-1927.033296,11091.20382,-6421.455016,-6158.71026,-3197.99819,31777.67626,-13793.64148,-1735.881178,0.216,0.926,0.186,192,0,0,0,0,0,0,0,0,0,1.71E+09,0, 2024-03-05 16:08:59.670
51,738.0993054,10935.97095,-4901.178765,-5225.167301,-2654.202599,35307.17317,-13934.99391,-1842.76722,0.216,0.926,0.186,192,0,0,0,0,0,0,0,0,0,1.71E+09,0, 2024-03-05 16:08:59.670
52,-1686.70734,11161.74593,-7377.684996,-6938.987307,-3915.198614,33444.49055,-13670.03634,-1484.088777,0.214,0.922,0.184,192,6,176,28,208,5,192,0,0,0,1.71E+09,0, 2024-03-05 16:08:59.670
53,-5838.677983,11473.26219,-10461.04109,-8953.438276,-5267.389747,28748.5455,-13352.30629,-1134.798066,0.214,0.922,0.184,192,0,0,0,0,0,0,0,0,0,1.71E+09,0, 2024-03-05 16:08:59.670
54,-6122.299269,11440.42748,-9955.690498,-8522.921327,-4854.97771,27568.97689,-13424.32361,-1299.061036,0.214,0.922,0.184,192,0,0,0,0,0,0,0,0,0,1.71E+09,0, 2024-03-05 16:08:59.670
55,-1971.245047,11091.67321,-6454.133267,-6174.937627,-3216.103103,31718.86882,-13804.48208,-1753.092021,0.214,0.922,0.184,192,0,0,0,0,0,0,0,0,0,1.71E+09,0, 2024-03-05 16:08:59.670
56,762.1944859,10928.01373,-4882.827983,-5206.749464,-2644.703107,35323.78052,-13950.01429,-1857.407612,0.214,0.922,0.184,192,0,0,0,0,0,0,0,0,0,1.71E+09,0, 2024-03-05 16:08:59.670
57,-1617.416932,11161.32124,-7337.340097,-6910.399426,-3895.372617,33516.3514,-13675.11018,-1483.529983,0.214,0.922,0.184,192,0,0,0,0,0,0,0,0,0,1.71E+09,0, 2024-03-05 16:08:59.670
58,-5793.952142,11471.58581,-10448.70293,-8946.665698,-5263.902874,28810.12455,-13358.16245,-1139.089601,0.214,0.922,0.184,192,0,0,0,0,0,0,0,0,0,1.71E+09,0, 2024-03-05 16:08:59.670
59,-6174.132964,11448.29529,-10007.79241,-8561.768658,-4871.585056,27539.89727,-13412.90187,-1286.700521,0.214,0.922,0.184,192,0,0,0,0,0,0,0,0,0,1.71E+09,0, 2024-03-05 16:08:59.670
60,-2050.817257,11102.20088,-6509.699703,-6214.276697,-3229.715315,31648.39377,-13787.80768,-1732.416657,0.214,0.922,0.184,192,0,0,0,0,0,0,0,0,0,1.71E+09,0, 2024-03-05 16:08:59.670
61,727.2363576,10937.71439,-4887.790071,-5211.108054,-2635.76241,35291.34813,-13940.04541,-1846.09763,0.214,0.922,0.184,192,0,0,0,0,0,0,0,0,0,1.71E+09,0, 2024-03-05 16:08:59.671
62,-1577.250847,11157.87907,-7287.428652,-6875.955388,-3861.733241,33570.24146,-13679.69229,-1491.353094,0.214,0.922,0.18,192,6,176,28,208,5,160,0,0,0,1.71E+09,0, 2024-03-05 16:08:59.671
63,-5757.898779,11460.11936,-10410.79437,-8919.955363,-5242.422848,28878.11856,-13366.67846,-1148.700851,0.214,0.922,0.18,192,0,0,0,0,0,0,0,0,0,1.71E+09,0, 2024-03-05 16:08:59.671
64,-6215.59545,11441.94739,-10041.87882,-8580.924103,-4893.2886,27523.20051,-13417.88631,-1290.52267,0.214,0.922,0.18,192,0,0,0,0,0,0,0,0,0,1.71E+09,0, 2024-03-05 16:08:59.671
65,-2128.690735,11102.80438,-6561.578102,-6243.646889,-3250.994176,31568.24041,-13787.53946,-1735.478846,0.214,0.922,0.18,192,0,0,0,0,0,0,0,0,0,1.71E+09,0, 2024-03-05 16:08:59.671
66,716.0157819,10929.91363,-4877.552972,-5201.943839,-2620.65263,35267.11884,-13947.37678,-1859.240456,0.214,0.922,0.18,192,0,0,0,0,0,0,0,0,0,1.71E+09,0, 2024-03-05 16:08:59.671
67,-1538.179998,11154.95099,-7242.635756,-6848.418039,-3834.955851,33603.90319,-13678.86528,-1494.325876,0.214,0.922,0.18,192,0,0,0,0,0,0,0,0,0,1.71E+09,0, 2024-03-05 16:08:59.671
68,-5727.455703,11456.47603,-10386.40861,-8906.164337,-5237.483113,28910.0592,-13368.17603,-1155.674595,0.214,0.922,0.18,192,0,0,0,0,0,0,0,0,0,1.71E+09,0, 2024-03-05 16:08:59.671
69,-6260.924788,11443.48966,-10076.09935,-8610.495461,-4917.629649,27481.51451,-13416.70166,-1290.343856,0.214,0.922,0.18,192,0,0,0,0,0,0,0,0,0,1.71E+09,0, 2024-03-05 16:08:59.671
70,-2204.887832,11106.85004,-6608.270896,-6281.935427,-3282.621894,31482.58853,-13785.4831,-1734.852998,0.214,0.922,0.18,192,0,0,0,0,0,0,0,0,0,1.71E+09,0, 2024-03-05 16:08:59.671
71,705.8457382,10927.96903,-4870.199248,-5200.848603,-2635.404782,35240.67673,-13951.42245,-1868.874057,0.214,0.922,0.18,192,0,0,0,0,0,0,0,0,0,1.71E+09,0, 2024-03-05 16:08:59.671
72,-1466.207381,11149.27365,-7184.610627,-6812.655248,-3827.937404,33666.55513,-13693.2151,-1512.251975,0.21,0.928,0.19,192,6,144,29,0,5,240,0,0,0,1.71E+09,0, 2024-03-05 16:08:59.671
73,-5678.393624,11463.49448,-10356.65844,-8890.674578,-5231.515197,28966.85499,-13367.1702,-1145.772773,0.21,0.928,0.19,192,0,0,0,0,0,0,0,0,0,1.71E+09,0, 2024-03-05 16:08:59.671
74,-6306.455291,11459.53822,-10117.98651,-8639.217453,-4935.913376,27438.59916,-13400.83193,-1266.852172,0.21,0.928,0.19,192,0,0,0,0,0,0,0,0,0,1.71E+09,0, 2024-03-05 16:08:59.671
75,-2270.199629,11115.79074,-6651.052135,-6307.371713,-3300.6374,31410.28063,-13775.96125,-1717.418637,0.21,0.928,0.19,192,0,0,0,0,0,0,0,0,0,1.71E+09,0, 2024-03-05 16:08:59.671
76,700.5036712,10934.58515,-4866.913541,-5191.349112,-2624.698296,35210.65834,-13945.11926,-1852.624339,0.21,0.928,0.19,192,0,0,0,0,0,0,0,0,0,1.71E+09,0, 2024-03-05 16:08:59.671
77,-1405.656505,11146.0103,-7141.158836,-6773.740861,-3799.103653,33714.11964,-13691.02462,-1502.528966,0.21,0.928,0.19,192,0,0,0,0,0,0,0,0,0,1.71E+09,0, 2024-03-05 16:09:00.151
78,-5630.605594,11462.08632,-10330.66336,-8867.406412,-5216.427769,29018.77809,-13365.04678,-1146.711546,0.21,0.928,0.19,192,0,0,0,0,0,0,0,0,0,1.71E+09,0, 2024-03-05 16:09:00.151
79,-6328.672925,11462.39924,-10146.77556,-8652.963776,-4947.379821,27420.09192,-13394.86401,-1254.514009,0.21,0.928,0.19,192,0,0,0,0,0,0,0,0,0,1.71E+09,0, 2024-03-05 16:09:00.151
80,-2312.355019,11120.52931,-6695.487403,-6328.315297,-3316.931822,31347.69575,-13772.42968,-1713.507082,0.21,0.928,0.19,192,0,0,0,0,0,0,0,0,0,1.71E+09,0, 2024-03-05 16:09:00.151
81,691.428863,10946.27511,-4875.250742,-5190.790318,-2624.452427,35178.94121,-13939.57602,-1849.986833,0.21,0.928,0.19,192,0,0,0,0,0,0,0,0,0,1.71E+09,0, 2024-03-05 16:09:00.151
82,-1365.266903,11160.98597,-7102.64678,-6743.543654,-3774.919066,33752.00585,-13682.3745,-1498.170376,0.208,0.924,0.188,192,6,128,28,224,5,224,0,0,0,1.71E+09,0, 2024-03-05 16:09:00.151
83,-5583.733986,11470.44587,-10293.58182,-8834.504644,-5194.679522,29084.73809,-13360.1741,-1141.883569,0.208,0.924,0.188,192,0,0,0,0,0,0,0,0,0,1.71E+09,0, 2024-03-05 16:09:00.151
84,-6365.933283,11472.39047,-10179.72203,-8667.648872,-4960.656757,27406.85968,-13387.28677,-1252.412945,0.208,0.924,0.188,192,0,0,0,0,0,0,0,0,0,1.71E+09,0, 2024-03-05 16:09:00.151
85,-2407.193471,11138.94715,-6756.68648,-6360.725327,-3338.769476,31262.98264,-13752.60368,-1694.843375,0.208,0.924,0.188,192,0,0,0,0,0,0,0,0,0,1.71E+09,0, 2024-03-05 16:09:00.151
86,664.7855836,10944.71049,-4860.543294,-5173.758289,-2608.962668,35160.65748,-13938.95017,-1857.295854,0.208,0.924,0.188,192,0,0,0,0,0,0,0,0,0,1.71E+09,0, 2024-03-05 16:09:00.151
87,-1311.734475,11144.78095,-7041.335945,-6701.857651,-3747.515827,33827.13006,-13696.61256,-1516.67762,0.208,0.924,0.188,192,0,0,0,0,0,0,0,0,0,1.71E+09,0, 2024-03-05 16:09:00.151
88,-5537.376468,11460.87932,-10268.3467,-8820.601859,-5189.963304,29148.01587,-13372.75813,-1156.389851,0.208,0.924,0.188,192,0,0,0,0,0,0,0,0,0,1.71E+09,0, 2024-03-05 16:09:00.151
89,-6389.60378,11468.76949,-10221.18452,-8698.538983,-4994.966685,27385.06673,-13391.08657,-1259.38669,0.208,0.924,0.188,192,0,0,0,0,0,0,0,0,0,1.71E+09,0, 2024-03-05 16:09:00.151
90,-2448.097163,11137.42723,-6802.798128,-6392.129528,-3368.184372,31203.83992,-13751.26258,-1693.211698,0.208,0.924,0.188,192,0,0,0,0,0,0,0,0,0,1.71E+09,0, 2024-03-05 16:09:00.151
91,681.2364675,10937.22265,-4857.570512,-5169.936141,-2612.807168,35153.43787,-13943.06289,-1854.747755,0.208,0.924,0.188,192,0,0,0,0,0,0,0,0,0,1.71E+09,0, 2024-03-05 16:09:00.151
92,-1227.066067,11134.70031,-6991.536259,-6665.938397,-3729.030934,33896.12989,-13702.04403,-1518.912794,0.212,0.926,0.184,192,6,160,28,240,5,192,0,0,0,1.71E+09,0, 2024-03-05 16:09:00.151
93,-5474.545714,11455.11257,-10237.30013,-8799.568868,-5185.336493,29217.88743,-13368.15368,-1151.293653,0.212,0.926,0.184,192,0,0,0,0,0,0,0,0,0,1.71E+09,0, 2024-03-05 16:09:00.151
94,-6417.342295,11474.15626,-10259.94244,-8726.098684,-5018.950107,27362.13384,-13380.67065,-1242.444067,0.212,0.926,0.184,192,0,0,0,0,0,0,0,0,0,1.71E+09,0, 2024-03-05 16:09:00.151
95,-2511.307897,11141.65171,-6855.123562,-6430.842749,-3388.122128,31127.06168,-13747.37337,-1682.639323,0.212,0.926,0.184,192,0,0,0,0,0,0,0,0,0,1.71E+09,0, 2024-03-05 16:09:00.151
96,657.9683015,10943.97288,-4872.814402,-5180.888496,-2611.153139,35106.72273,-13938.59255,-1850.545627,0.212,0.926,0.184,192,0,0,0,0,0,0,0,0,0,1.71E+09,0, 2024-03-05 16:09:00.151
97,-1171.946665,11131.07933,-6951.884264,-6637.261109,-3701.694751,33937.63708,-13704.23451,-1521.773818,0.212,0.926,0.184,192,0,0,0,0,0,0,0,0,0,1.71E+09,0, 2024-03-05 16:09:00.151
98,-5417.079379,11447.49063,-10209.24869,-8781.642769,-5162.783583,29277.63364,-13373.22752,-1151.025432,0.212,0.926,0.184,192,0,0,0,0,0,0,0,0,0,1.71E+09,0, 2024-03-05 16:09:00.151
99,-6436.207168,11472.27871,-10291.52546,-8749.925643,-5026.102665,27346.50997,-13378.94957,-1236.58791,0.212,0.926,0.184,192,0,0,0,0,0,0,0,0,0,1.71E+09,0, 2024-03-05 16:09:00.151
100,-2563.610979,11139.0142,-6905.213822,-6462.269302,-3413.357248,31062.55455,-13747.30632,-1685.589753,0.212,0.926,0.184,192,0,0,0,0,0,0,0,0,0,1.71E+09,0, 2024-03-05 16:09:00.151
101,653.9449875,10930.78535,-4871.652111,-5176.798126,-2613.768293,35089.06485,-13944.18048,-1860.134525,0.212,0.926,0.184,192,0,0,0,0,0,0,0,0,0,1.71E+09,0, 2024-03-05 16:09:00.151
102,-1112.513377,11117.8024,-6903.380979,-6606.795681,-3684.77448,33994.52227,-13715.83506,-1536.905949,0.22,0.922,0.178,192,6,224,28,208,5,144,0,0,0,1.71E+09,0, 2024-03-05 16:09:00.151
103,-5367.234989,11444.31668,-10180.30318,-8764.208408,-5151.361841,29336.97752,-13376.66969,-1154.311139,0.22,0.922,0.178,192,0,0,0,0,0,0,0,0,0,1.71E+09,0, 2024-03-05 16:09:00.151
104,-6460.3247,11468.56832,-10329.52342,-8773.439678,-5041.41361,27328.60623,-13379.66482,-1237.884311,0.22,0.922,0.178,192,0,0,0,0,0,0,0,0,0,1.71E+09,0, 2024-03-05 16:09:00.151
105,-2629.570976,11138.50011,-6965.049441,-6497.786224,-3430.590442,30988.01148,-13745.65229,-1686.997913,0.22,0.922,0.178,192,0,0,0,0,0,0,0,0,0,1.71E+09,0, 2024-03-05 16:09:00.151
106,635.5495018,10928.14784,-4883.476184,-5178.116879,-2603.374732,35059.69465,-13950.10369,-1866.281255,0.22,0.922,0.178,192,0,0,0,0,0,0,0,0,0,1.71E+09,0, 2024-03-05 16:09:00.151
107,-1063.205429,11115.58957,-6866.701766,-6579.705367,-3654.934902,34044.45607,-13722.67469,-1546.78542,0.22,0.922,0.178,192,0,0,0,0,0,0,0,0,0,1.71E+09,0, 2024-03-05 16:09:00.151
108,-5308.338142,11436.87355,-10146.14971,-8742.817788,-5131.714658,29408.43605,-13386.41505,-1166.224619,0.22,0.922,0.178,192,0,0,0,0,0,0,0,0,0,1.71E+09,0, 2024-03-05 16:09:00.151
109,-6481.827078,11469.41769,-10359.02773,-8799.412405,-5058.132715,27321.1631,-13383.2411,-1238.778381,0.22,0.922,0.178,192,0,0,0,0,0,0,0,0,0,1.71E+09,0, 2024-03-05 16:09:00.151
110,-2696.134471,11146.7032,-7014.782073,-6538.824026,-3449.52237,30920.21864,-13739.55026,-1676.760814,0.22,0.922,0.178,192,0,0,0,0,0,0,0,0,0,1.71E+09,0, 2024-03-05 16:09:00.151
111,617.1987196,10926.38206,-4886.359559,-5189.248048,-2595.305752,35029.40804,-13947.28737,-1870.148107,0.22,0.922,0.178,192,0,0,0,0,0,0,0,0,0,1.71E+09,0, 2024-03-05 16:09:00.151
112,-998.6535905,11102.64791,-6817.147948,-6552.100963,-3625.430599,34098.6814,-13728.5532,-1556.329615,0.218,0.92,0.184,192,6,208,28,192,5,192,0,0,0,1.71E+09,0, 2024-03-05 16:09:00.151
113,-5265.176924,11433.61019,-10125.72022,-8734.77116,-5116.470768,29458.34749,-13385.76685,-1164.615293,0.218,0.92,0.184,192,0,0,0,0,0,0,0,0,0,1.71E+09,0, 2024-03-05 16:09:00.151
114,-6532.163207,11482.15818,-10406.18991,-8833.208243,-5066.358157,27277.33133,-13369.96417,-1222.908643,0.218,0.92,0.184,192,0,0,0,0,0,0,0,0,0,1.71E+09,0, 2024-03-05 16:09:00.151
115,-2758.697004,11151.26296,-7058.345623,-6561.511047,-3455.400879,30848.78246,-13735.52695,-1670.882305,0.218,0.92,0.184,192,0,0,0,0,0,0,0,0,0,1.71E+09,0, 2024-03-05 16:09:00.151
116,590.7789577,10935.9039,-4895.769643,-5189.382158,-2589.539002,34990.06897,-13943.44287,-1860.045118,0.218,0.92,0.184,192,0,0,0,0,0,0,0,0,0,1.71E+09,0, 2024-03-05 16:09:00.151
117,-974.8936862,11116.88597,-6779.529962,-6523.267212,-3596.172165,34126.71049,-13715.63389,-1536.995356,0.218,0.92,0.184,192,0,0,0,0,0,0,0,0,0,1.71E+09,0, 2024-03-05 16:09:00.151
118,-5231.582252,11440.40512,-10086.06822,-8704.171622,-5091.459166,29515.32209,-13378.659,-1150.779563,0.218,0.92,0.184,192,0,0,0,0,0,0,0,0,0,1.71E+09,0, 2024-03-05 16:09:00.151
119,-6559.432335,11485.71211,-10421.4785,-8843.601804,-5072.41548,27274.22443,-13360.03999,-1206.21189,0.218,0.92,0.184,192,0,0,0,0,0,0,0,0,0,1.71E+09,0, 2024-03-05 16:09:00.151
120,-2823.718229,11151.37472,-7093.259048,-6588.131975,-3477.618513,30797.68637,-13729.98371,-1664.221485,0.218,0.92,0.184,192,0,0,0,0,0,0,0,0,0,1.71E+09,0, 2024-03-05 16:09:00.151
121,581.6817977,10926.15854,-4880.838678,-5181.447289,-2588.35436,34992.34885,-13945.40983,-1866.080089,0.218,0.92,0.184,192,0,0,0,0,0,0,0,0,0,1.71E+09,0, 2024-03-05 16:09:00.151
122,-924.5799094,11108.23585,-6732.099561,-6492.466508,-3581.509421,34198.30313,-13722.25001,-1549.110001,0.216,0.922,0.182,192,6,192,28,208,5,176,0,0,0,1.71E+09,0, 2024-03-05 16:09:00.151
123,-5189.806842,11435.17482,-10058.41912,-8684.233866,-5082.54082,29593.24027,-13382.81642,-1160.256703,0.216,0.922,0.182,192,0,0,0,0,0,0,0,0,0,1.71E+09,0, 2024-03-05 16:09:00.151
124,-6590.165983,11483.65575,-10455.63197,-8860.633833,-5098.254096,27277.57719,-13364.5774,-1209.944631,0.216,0.922,0.182,192,0,0,0,0,0,0,0,0,0,1.71E+09,0, 2024-03-05 16:09:00.151
125,-2917.617907,11164.69636,-7163.398822,-6628.94626,-3512.263717,30711.78862,-13723.07703,-1656.420726,0.216,0.922,0.182,192,0,0,0,0,0,0,0,0,0,1.71E+09,0, 2024-03-05 16:09:00.151
126,542.9015211,10932.43938,-4886.873649,-5179.323873,-2592.645895,34943.44323,-13949.47785,-1867.577656,0.216,0.922,0.182,192,0,0,0,0,0,0,0,0,0,1.71E+09,0, 2024-03-05 16:09:00.151
127,-863.4702401,11093.34959,-6670.788726,-6445.170217,-3564.723261,34262.85497,-13744.5347,-1563.95156,0.216,0.922,0.182,192,0,0,0,0,0,0,0,0,0,1.71E+09,0, 2024-03-05 16:09:00.151
128,-5125.858501,11431.12915,-10020.21998,-8656.897683,-5080.976198,29668.02921,-13392.91941,-1165.755232,0.216,0.922,0.182,192,0,0,0,0,0,0,0,0,0,1.71E+09,0, 2024-03-05 16:09:00.151
129,-6616.876318,11496.41859,-10498.65907,-8890.898095,-5127.356068,27250.77745,-13353.40152,-1201.227451,0.216,0.922,0.182,192,0,0,0,0,0,0,0,0,0,1.71E+09,0, 2024-03-05 16:09:00.151
130,-2970.144507,11175.82752,-7220.149901,-6661.088069,-3536.314194,30637.15615,-13710.49299,-1646.876531,0.216,0.922,0.182,192,0,0,0,0,0,0,0,0,0,1.71E+09,0, 2024-03-05 16:09:00.151
131,537.9841373,10945.96218,-4904.799748,-5182.587228,-2590.053092,34899.92439,-13939.64308,-1862.079127,0.216,0.922,0.182,192,0,0,0,0,0,0,0,0,0,1.71E+09,0, 2024-03-05 16:09:00.151
132,-802.0252945,11108.28055,-6630.667344,-6413.073112,-3532.313232,34290.72759,-13735.90693,-1566.678472,0.212,0.924,0.186,192,6,160,28,224,5,208,0,0,0,1.71E+09,0, 2024-03-05 16:09:00.151
133,-5045.951014,11429.74334,-9969.235655,-8619.749083,-5053.774125,29742.03584,-13397.90385,-1177.400491,0.212,0.924,0.186,192,0,0,0,0,0,0,0,0,0,1.71E+09,0, 2024-03-05 16:09:00.151
134,-6620.139673,11503.45939,-10512.71832,-8895.793128,-5130.418257,27260.20989,-13349.44527,-1190.386854,0.212,0.924,0.186,192,0,0,0,0,0,0,0,0,0,1.71E+09,0, 2024-03-05 16:09:00.151
135,-3030.762438,11188.07628,-7261.90296,-6684.624456,-3552.720374,30583.31079,-13701.28407,-1634.158389,0.212,0.924,0.186,192,0,0,0,0,0,0,0,0,0,1.71E+09,0, 2024-03-05 16:09:00.151
136,507.6304683,10953.09239,-4907.928992,-5181.447289,-2589.00256,34878.75728,-13934.61394,-1850.813848,0.212,0.924,0.186,192,0,0,0,0,0,0,0,0,0,1.71E+09,0, 2024-03-05 16:09:00.151
137,-756.9865295,11101.75384,-6585.76269,-6378.427908,-3509.045066,34353.82657,-13741.07018,-1562.856324,0.212,0.924,0.186,192,0,0,0,0,0,0,0,0,0,1.71E+09,0, 2024-03-05 16:09:00.151
138,-4990.697502,11428.33518,-9936.378591,-8593.016397,-5037.658517,29819.48463,-13395.28869,-1169.085642,0.212,0.924,0.186,192,0,0,0,0,0,0,0,0,0,1.71E+09,0, 2024-03-05 16:09:00.151
139,-6626.554623,11499.19021,-10540.63565,-8911.931087,-5150.780696,27266.7813,-13349.51232,-1191.929125,0.212,0.924,0.186,192,0,0,0,0,0,0,0,0,0,1.71E+09,0, 2024-03-05 16:09:00.151
140,-3073.297807,11188.23274,-7313.624896,-6712.877061,-3576.614389,30532.57233,-13699.07125,-1631.140903,0.212,0.924,0.186,192,0,0,0,0,0,0,0,0,0,1.71E+09,0, 2024-03-05 16:09:00.151
141,502.3331049,10945.13517,-4918.188443,-5181.223772,-2586.029778,34858.48425,-13938.19021,-1858.279331,0.212,0.924,0.186,192,0,0,0,0,0,0,0,0,0,1.71E+09,0, 2024-03-05 16:09:00.151
142,-699.9448776,11092.32141,-6543.920224,-6350.7788,-3486.693321,34405.16852,-13751.21787,-1575.865039,0.214,0.926,0.182,192,6,176,28,240,5,176,0,0,0,1.71E+09,0, 2024-03-05 16:09:00.151
143,-4946.619862,11422.54608,-9907.54484,-8579.359481,-5017.407837,29873.19587,-13402.68712,-1178.92041,0.214,0.926,0.182,192,0,0,0,0,0,0,0,0,0,1.71E+09,0, 2024-03-05 16:09:00.151
144,-6663.703223,11501.6042,-10570.92226,-8937.568538,-5152.345318,27246.93295,-13346.31602,-1189.425729,0.214,0.926,0.182,192,0,0,0,0,0,0,0,0,0,1.71E+09,0, 2024-03-05 16:09:00.151
145,-3163.867076,11190.46792,-7372.387632,-6757.938177,-3600.106072,30444.3947,-13696.21023,-1626.335278,0.214,0.926,0.182,192,0,0,0,0,0,0,0,0,0,1.71E+09,0, 2024-03-05 16:09:00.151
146,460.5800462,10941.58124,-4932.918243,-5194.970095,-2601.631296,34806.5835,-13941.69944,-1859.240456,0.214,0.926,0.182,192,0,0,0,0,0,0,0,0,0,1.71E+09,0, 2024-03-05 16:09:00.151
147,-658.7282608,11078.30686,-6500.647247,-6323.017934,-3482.938228,34444.93228,-13759.89035,-1585.029255,0.214,0.926,0.182,192,0,0,0,0,0,0,0,0,0,1.71E+09,0, 2024-03-05 16:09:00.151
148,-4906.409074,11423.06017,-9875.134811,-8558.4606,-5021.744075,29927.4212,-13402.88829,-1176.640532,0.214,0.926,0.182,192,0,0,0,0,0,0,0,0,0,1.71E+09,0, 2024-03-05 16:09:00.151
149,-6704.450453,11508.6003,-10603.08642,-8962.58014,-5180.30735,27217.27219,-13335.56483,-1174.226543,0.214,0.926,0.182,192,0,0,0,0,0,0,0,0,0,1.71E+09,0, 2024-03-05 16:09:00.151
150,-3261.43244,11199.36391,-7436.492436,-6800.093567,-3628.51514,30339.78854,-13681.30162,-1609.459711,0.214,0.926,0.182,192,0,0,0,0,0,0,0,0,0,1.71E+09,0, 2024-03-05 16:09:00.151
151,413.9543073,10940.73188,-4945.345812,-5199.619257,-2595.52927,34745.54089,-13935.26214,-1854.725403,0.214,0.926,0.182,192,0,0,0,0,0,0,0,0,0,1.71E+09,0, 2024-03-05 16:09:00.151
