Sample Index, EXG Channel 0, EXG Channel 1, EXG Channel 2, EXG Channel 3, EXG Channel 4, EXG Channel 5, EXG Channel 6, EXG Channel 7, Accel Channel 0, Accel Channel 1, Accel Channel 2, Other, Other, Other, Other, Other, Other, Other, Analog Channel 0, Analog Channel 1, Analog Channel 2, Timestamp, Other, Timestamp (Formatted)
0,25522.78644,17597.19313,11839.24965,-6936.953299,8224.927869,27562.0702,-7238.768904,4958.488638,0.158,0.9,0.334,192,4,240,28,32,10,112,0,0,0,1.71E+09,0, 2024-03-05 16:19:21.677
1,27101.80308,17572.06977,11917.68192,-6748.975128,8322.850862,27653.24296,-7252.716393,4938.193254,0.158,0.9,0.334,192,0,0,0,0,0,0,0,0,0,1.71E+09,0, 2024-03-05 16:19:21.677
2,26990.71491,17528.52857,11893.76556,-6689.765357,8515.299382,28160.87343,-7258.19257,4936.561577,0.158,0.9,0.334,192,0,0,0,0,0,0,0,0,0,1.71E+09,0, 2024-03-05 16:19:21.677
3,25309.57315,17547.32639,11830.19719,-6846.562844,8527.011696,28311.16656,-7227.660087,4985.198973,0.158,0.9,0.334,192,0,0,0,0,0,0,0,0,0,1.71E+09,0, 2024-03-05 16:19:21.677
4,24369.61524,17591.44874,11792.62391,-7007.629515,8345.202606,27918.62523,-7209.532822,5002.745092,0.158,0.9,0.334,192,0,0,0,0,0,0,0,0,0,1.71E+09,0, 2024-03-05 16:19:21.677
5,25513.59987,17594.77915,11845.97753,-6925.710371,8232.572166,27566.58525,-7233.538596,4965.730603,0.158,0.9,0.334,192,0,0,0,0,0,0,0,0,0,1.71E+09,0, 2024-03-05 16:19:21.677
6,27116.62228,17558.61402,11906.46135,-6748.192817,8329.399923,27668.68802,-7255.622119,4938.617937,0.158,0.9,0.334,192,0,0,0,0,0,0,0,0,0,1.71E+09,0, 2024-03-05 16:19:21.677
7,26990.5808,17535.01058,11895.28547,-6691.441738,8523.904803,28157.00658,-7243.865102,4955.135877,0.158,0.9,0.334,192,0,0,0,0,0,0,0,0,0,1.71E+09,0, 2024-03-05 16:19:21.677
8,25308.00853,17545.13592,11827.26912,-6851.547283,8534.655992,28305.8245,-7225.223747,4978.716967,0.158,0.9,0.334,192,0,0,0,0,0,0,0,0,0,1.71E+09,0, 2024-03-05 16:19:21.677
9,24360.92041,17583.89385,11784.59964,-7017.419579,8346.767228,27916.99355,-7215.903069,4991.233944,0.158,0.9,0.334,192,0,0,0,0,0,0,0,0,0,1.71E+09,0, 2024-03-05 16:19:21.677
10,25498.49009,17591.24757,11839.11554,-6934.673421,8227.36421,27567.56873,-7234.477369,4963.003691,0.152,0.896,0.332,192,4,192,28,0,10,96,0,0,0,1.71E+09,0, 2024-03-05 16:19:21.677
11,27097.60095,17566.19126,11909.0318,-6752.484352,8320.056894,27664.03886,-7244.759172,4944.518798,0.152,0.896,0.332,192,0,0,0,0,0,0,0,0,0,1.71E+09,0, 2024-03-05 16:19:21.677
12,27009.02099,17525.19816,11893.34087,-6689.474784,8519.657972,28170.59644,-7248.603672,4946.396344,0.152,0.896,0.332,192,0,0,0,0,0,0,0,0,0,1.71E+09,0, 2024-03-05 16:19:21.677
13,25338.47396,17538.20688,11822.15057,-6854.005975,8528.889242,28322.05186,-7231.772808,4969.865676,0.152,0.896,0.332,192,0,0,0,0,0,0,0,0,0,1.71E+09,0, 2024-03-05 16:19:21.677
14,24380.45584,17584.98908,11784.30906,-7020.325306,8338.228862,27923.83318,-7219.099369,4980.885086,0.152,0.896,0.332,192,0,0,0,0,0,0,0,0,0,1.71E+09,0, 2024-03-05 16:19:21.677
15,25505.77676,17596.7461,11838.91438,-6939.300232,8215.338971,27557.35398,-7238.746552,4958.578045,0.152,0.896,0.332,192,0,0,0,0,0,0,0,0,0,1.71E+09,0, 2024-03-05 16:19:21.677
16,27107.65923,17572.94149,11916.38552,-6750.338584,8316.793539,27651.96891,-7244.110971,4954.957063,0.152,0.896,0.332,192,0,0,0,0,0,0,0,0,0,1.71E+09,0, 2024-03-05 16:19:21.677
17,27001.95783,17541.20201,11907.44482,-6684.065662,8524.351838,28151.35159,-7234.834997,4971.251484,0.152,0.896,0.332,192,0,0,0,0,0,0,0,0,0,1.71E+09,0, 2024-03-05 16:19:21.677
18,25349.2922,17543.16897,11831.85122,-6837.130408,8544.826036,28330.1879,-7225.804892,4980.236886,0.152,0.896,0.332,192,0,0,0,0,0,0,0,0,0,1.71E+09,0, 2024-03-05 16:19:21.677
19,24401.10885,17584.36323,11783.03501,-7008.925916,8349.114162,27947.57073,-7215.925421,4984.684883,0.152,0.896,0.332,192,0,0,0,0,0,0,0,0,0,1.71E+09,0, 2024-03-05 16:19:21.677
20,25501.90991,17596.50023,11839.24965,-6937.35563,8222.491529,27565.53472,-7234.097389,4964.27774,0.152,0.898,0.328,192,4,192,28,16,10,64,0,0,0,1.71E+09,0, 2024-03-05 16:19:21.677
21,27098.42796,17559.10576,11905.41081,-6759.949834,8313.59724,27648.07971,-7257.656128,4941.613071,0.152,0.898,0.328,192,0,0,0,0,0,0,0,0,0,1.71E+09,0, 2024-03-05 16:19:21.677
22,27001.77902,17525.17581,11892.20093,-6696.828508,8512.393655,28138.67815,-7248.022526,4955.158228,0.152,0.898,0.328,192,0,0,0,0,0,0,0,0,0,1.71E+09,0, 2024-03-05 16:19:21.677
23,25332.5731,17539.19036,11822.28468,-6847.613376,8529.492739,28302.91877,-7227.280107,4981.0639,0.152,0.898,0.328,192,0,0,0,0,0,0,0,0,0,1.71E+09,0, 2024-03-05 16:19:21.677
24,24367.38007,17582.30687,11779.0564,-7016.056122,8338.742952,27912.14322,-7221.222785,4982.829688,0.152,0.898,0.328,192,0,0,0,0,0,0,0,0,0,1.71E+09,0, 2024-03-05 16:19:21.677
25,25488.85649,17598.51189,11839.58493,-6934.606366,8223.206785,27548.21212,-7234.2315,4957.192237,0.152,0.898,0.328,192,0,0,0,0,0,0,0,0,0,1.71E+09,0, 2024-03-05 16:19:21.677
26,27094.78463,17569.11934,11912.76454,-6751.836151,8320.056894,27635.1604,-7242.836922,4946.418696,0.152,0.898,0.328,192,0,0,0,0,0,0,0,0,0,1.71E+09,0, 2024-03-05 16:19:21.677
27,27018.36401,17530.38377,11895.21842,-6688.088976,8514.092387,28139.19224,-7245.966166,4953.168923,0.152,0.898,0.328,192,0,0,0,0,0,0,0,0,0,1.71E+09,0, 2024-03-05 16:19:21.677
28,25346.07355,17540.39735,11826.03977,-6847.166341,8529.559795,28307.41147,-7225.916651,4973.397252,0.152,0.898,0.328,192,0,0,0,0,0,0,0,0,0,1.71E+09,0, 2024-03-05 16:19:21.677
29,24375.60551,17574.86374,11778.27409,-7018.358352,8339.033525,27921.08392,-7220.26166,4977.08529,0.152,0.898,0.328,192,0,0,0,0,0,0,0,0,0,1.71E+09,0, 2024-03-05 16:19:21.677
30,25484.74377,17599.27185,11840.63546,-6938.115589,8223.854986,27551.11784,-7225.447264,4970.156249,0.152,0.894,0.326,192,4,192,27,240,10,48,0,0,0,1.71E+09,0, 2024-03-05 16:19:21.677
31,27080.63597,17570.50515,11914.15035,-6752.819628,8316.279449,27628.7678,-7236.064343,4956.856961,0.152,0.894,0.326,192,0,0,0,0,0,0,0,0,0,1.71E+09,0, 2024-03-05 16:19:21.677
32,27013.15606,17527.47804,11895.5537,-6686.680816,8515.813472,28136.30887,-7241.227596,4953.012461,0.152,0.894,0.326,192,0,0,0,0,0,0,0,0,0,1.71E+09,0, 2024-03-05 16:19:21.677
33,25342.76549,17534.04946,11821.52472,-6847.769838,8529.649202,28305.77979,-7226.587203,4977.018234,0.152,0.894,0.326,192,0,0,0,0,0,0,0,0,0,1.71E+09,0, 2024-03-05 16:19:21.677
34,24367.04479,17571.62274,11776.66477,-7018.648925,8338.899414,27920.41337,-7220.306363,4984.126089,0.152,0.894,0.326,192,0,0,0,0,0,0,0,0,0,1.71E+09,0, 2024-03-05 16:19:21.677
35,25488.36475,17580.38462,11825.72685,-6942.116552,8218.155291,27563.3666,-7242.456942,4956.119353,0.152,0.894,0.326,192,0,0,0,0,0,0,0,0,0,1.71E+09,0, 2024-03-05 16:19:21.677
36,27081.68651,17559.61985,11895.57605,-6765.895398,8303.09192,27632.25468,-7254.415125,4943.222397,0.152,0.894,0.326,192,0,0,0,0,0,0,0,0,0,1.71E+09,0, 2024-03-05 16:19:21.677
37,27009.02099,17519.78904,11884.22136,-6694.16865,8500.279009,28136.24181,-7254.392773,4951.090211,0.152,0.894,0.326,192,0,0,0,0,0,0,0,0,0,1.71E+09,0, 2024-03-05 16:19:21.677
38,25342.38551,17534.18357,11820.85417,-6845.042925,8523.48012,28310.92069,-7229.247061,4981.265066,0.152,0.894,0.326,192,0,0,0,0,0,0,0,0,0,1.71E+09,0, 2024-03-05 16:19:21.677
39,24380.58995,17578.03769,11783.63851,-7004.589677,8345.046144,27939.30059,-7213.489081,4988.23881,0.152,0.894,0.326,192,0,0,0,0,0,0,0,0,0,1.71E+09,0, 2024-03-05 16:19:21.677
40,25488.54357,17587.17955,11831.80652,-6932.125322,8217.104759,27572.19554,-7237.271337,4957.751031,0.148,0.9,0.33,192,4,160,28,32,10,80,0,0,0,1.71E+09,0, 2024-03-05 16:19:21.677
41,27089.42021,17566.10186,11905.09789,-6754.808933,8303.963638,27643.09527,-7247.843712,4953.280682,0.148,0.9,0.33,192,0,0,0,0,0,0,0,0,0,1.71E+09,0, 2024-03-05 16:19:21.677
42,27006.62935,17535.56937,11902.57214,-6683.775089,8508.280934,28130.3633,-7238.634794,4969.776269,0.148,0.9,0.33,192,0,0,0,0,0,0,0,0,0,1.71E+09,0, 2024-03-05 16:19:21.677
43,25348.44283,17539.97267,11829.83957,-6834.425847,8533.359591,28309.1102,-7224.62025,4985.131918,0.148,0.9,0.33,192,0,0,0,0,0,0,0,0,0,1.71E+09,0, 2024-03-05 16:19:21.677
44,24362.17211,17576.20485,11776.32949,-7011.719884,8344.822627,27922.49208,-7221.736875,4983.746109,0.148,0.9,0.33,192,0,0,0,0,0,0,0,0,0,1.71E+09,0, 2024-03-05 16:19:21.677
45,25467.66704,17590.71113,11835.40515,-6932.840578,8231.588689,27563.07603,-7237.472503,4961.349662,0.148,0.9,0.33,192,0,0,0,0,0,0,0,0,0,1.71E+09,0, 2024-03-05 16:19:21.677
46,27065.92853,17568.71701,11918.03955,-6751.143247,8326.717714,27630.15361,-7235.662012,4958.756859,0.148,0.9,0.33,192,0,0,0,0,0,0,0,0,0,1.71E+09,0, 2024-03-05 16:19:21.677
47,27007.07638,17532.57424,11904.33793,-6680.57879,8525.558832,28129.87156,-7236.712544,4969.463345,0.148,0.9,0.33,192,0,0,0,0,0,0,0,0,0,1.71E+09,0, 2024-03-05 16:19:21.677
48,25335.63528,17554.54601,11840.14372,-6830.49194,8543.909615,28298.51547,-7209.577526,5002.879203,0.148,0.9,0.33,192,0,0,0,0,0,0,0,0,0,1.71E+09,0, 2024-03-05 16:19:21.677
49,24346.83881,17589.95117,11793.65209,-6998.107672,8354.813856,27920.63688,-7203.542555,4999.973476,0.148,0.9,0.33,192,0,0,0,0,0,0,0,0,0,1.71E+09,0, 2024-03-05 16:19:21.677
50,25447.48341,17592.96865,11836.79096,-6928.12436,8224.637297,27556.63872,-7234.678535,4959.159191,0.154,0.9,0.326,192,4,208,28,32,10,48,0,0,0,1.71E+09,0, 2024-03-05 16:19:21.677
51,27068.43192,17564.76075,11907.35542,-6747.701078,8315.273621,27635.74155,-7249.833018,4948.206836,0.154,0.9,0.326,192,0,0,0,0,0,0,0,0,0,1.71E+09,0, 2024-03-05 16:19:21.677
52,27022.18616,17531.32254,11898.57118,-6678.522429,8520.328524,28140.04161,-7242.94868,4960.05326,0.154,0.9,0.326,192,0,0,0,0,0,0,0,0,0,1.71E+09,0, 2024-03-05 16:19:21.677
53,25354.18723,17538.09512,11829.12431,-6835.096399,8539.148693,28307.56793,-7226.631907,4977.554676,0.154,0.9,0.326,192,0,0,0,0,0,0,0,0,0,1.71E+09,0, 2024-03-05 16:19:21.677
54,24362.038,17577.88123,11779.32462,-7006.623686,8351.505798,27929.97991,-7221.155729,4981.734452,0.154,0.9,0.326,192,0,0,0,0,0,0,0,0,0,1.71E+09,0, 2024-03-05 16:19:21.677
55,25447.61752,17593.95213,11829.48194,-6932.773522,8223.13973,27556.48226,-7237.584262,4955.18058,0.154,0.9,0.326,192,0,0,0,0,0,0,0,0,0,1.71E+09,0, 2024-03-05 16:19:21.677
56,27056.92077,17567.10769,11903.62268,-6754.741878,8310.467995,27623.82807,-7248.491913,4941.590719,0.154,0.9,0.326,192,0,0,0,0,0,0,0,0,0,1.71E+09,0, 2024-03-05 16:19:21.677
57,27027.26001,17527.14277,11897.23008,-6677.784822,8520.239117,28139.9075,-7241.898148,4958.868618,0.154,0.9,0.326,192,0,0,0,0,0,0,0,0,0,1.71E+09,0, 2024-03-05 16:19:21.677
58,25380.0482,17536.23993,11822.5529,-6831.989507,8540.087466,28323.08004,-7224.530843,4981.913266,0.154,0.9,0.326,192,0,0,0,0,0,0,0,0,0,1.71E+09,0, 2024-03-05 16:19:21.677
59,24375.44905,17572.53916,11772.46264,-7011.652829,8347.951871,27938.00419,-7219.099369,4983.477889,0.154,0.9,0.326,192,0,0,0,0,0,0,0,0,0,1.71E+09,0, 2024-03-05 16:19:21.677
60,25460.87211,17586.66546,11829.23607,-6936.774485,8225.352553,27566.20527,-7231.661049,4962.936635,0.156,0.9,0.322,192,4,224,28,32,10,16,0,0,0,1.71E+09,0, 2024-03-05 16:19:21.677
61,27084.1452,17553.54018,11898.12415,-6757.289977,8315.206565,27642.08944,-7245.675593,4943.468266,0.156,0.9,0.322,192,0,0,0,0,0,0,0,0,0,1.71E+09,0, 2024-03-05 16:19:21.677
62,27031.88682,17519.05143,11884.6684,-6692.022883,8507.968009,28130.85504,-7244.558006,4953.548903,0.156,0.9,0.322,192,0,0,0,0,0,0,0,0,0,1.71E+09,0, 2024-03-05 16:19:21.677
63,25376.51663,17532.686,11821.12239,-6841.287832,8530.409161,28308.90904,-7220.731046,4987.545906,0.156,0.9,0.322,192,0,0,0,0,0,0,0,0,0,1.71E+09,0, 2024-03-05 16:19:21.677
64,24376.38782,17570.88513,11777.6706,-7010.311724,8343.101542,27931.36572,-7213.287915,4995.816051,0.156,0.9,0.322,192,0,0,0,0,0,0,0,0,0,1.71E+09,0, 2024-03-05 16:19:21.677
65,25452.66902,17589.25826,11835.04752,-6936.662726,8220.815148,27557.42104,-7228.531805,4969.686862,0.156,0.9,0.322,192,0,0,0,0,0,0,0,0,0,1.71E+09,0, 2024-03-05 16:19:21.677
66,27065.30268,17558.32345,11908.92004,-6756.194741,8311.116196,27624.38686,-7243.641584,4951.090211,0.156,0.9,0.322,192,0,0,0,0,0,0,0,0,0,1.71E+09,0, 2024-03-05 16:19:21.677
67,27037.54181,17522.89593,11893.58674,-6685.138546,8509.890259,28129.51393,-7245.921462,4955.314691,0.156,0.9,0.322,192,0,0,0,0,0,0,0,0,0,1.71E+09,0, 2024-03-05 16:19:21.677
68,25366.65951,17540.3303,11828.3867,-6838.203292,8527.101103,28297.88963,-7218.629982,4988.082348,0.156,0.9,0.322,192,0,0,0,0,0,0,0,0,0,1.71E+09,0, 2024-03-05 16:19:21.677
69,24374.33146,17579.64701,11789.8523,-6999.649942,8354.098601,27934.22674,-7205.576564,4995.7937,0.156,0.9,0.322,192,0,0,0,0,0,0,0,0,0,1.71E+09,0, 2024-03-05 16:19:21.677
70,25447.50577,17599.3836,11844.77053,-6926.559738,8234.382657,27563.3219,-7219.5017,4976.280627,0.158,0.896,0.326,192,4,240,28,0,10,48,0,0,0,1.71E+09,0, 2024-03-05 16:19:21.677
71,27057.74779,17569.45462,11913.16687,-6749.310404,8318.224051,27627.33729,-7235.63966,4953.705365,0.158,0.896,0.326,192,0,0,0,0,0,0,0,0,0,1.71E+09,0, 2024-03-05 16:19:21.678
72,27022.20851,17530.56258,11898.43707,-6680.690549,8515.634658,28118.91921,-7230.878738,4962.22138,0.158,0.896,0.326,192,0,0,0,0,0,0,0,0,0,1.71E+09,0, 2024-03-05 16:19:21.678
73,25355.57304,17533.82594,11826.79973,-6837.80096,8534.052495,28294.46981,-7219.032314,4983.902572,0.158,0.896,0.326,192,0,0,0,0,0,0,0,0,0,1.71E+09,0, 2024-03-05 16:19:21.678
74,24353.23141,17570.54985,11776.5083,-7008.300067,8349.024755,27928.5941,-7215.567793,4987.769423,0.158,0.896,0.326,192,0,0,0,0,0,0,0,0,0,1.71E+09,0, 2024-03-05 16:19:21.678
75,25430.92077,17589.43708,11831.40419,-6932.639412,8227.632431,27564.81946,-7230.319945,4963.607188,0.158,0.896,0.326,192,0,0,0,0,0,0,0,0,0,1.71E+09,0, 2024-03-05 16:19:21.678
76,27050.59523,17562.43617,11899.12997,-6760.352166,8305.66237,27624.63273,-7247.106105,4942.10481,0.158,0.896,0.326,192,0,0,0,0,0,0,0,0,0,1.71E+09,0, 2024-03-05 16:19:21.678
77,27014.36305,17528.37211,11891.86566,-6689.519488,8507.610382,28110.85023,-7241.719334,4954.28651,0.158,0.896,0.326,192,0,0,0,0,0,0,0,0,0,1.71E+09,0, 2024-03-05 16:19:21.678
78,25367.28536,17538.76567,11826.75503,-6834.179978,8540.713315,28303.07523,-7219.88168,4978.582856,0.158,0.896,0.326,192,0,0,0,0,0,0,0,0,0,1.71E+09,0, 2024-03-05 16:19:21.678
79,24366.91068,17575.80251,11774.87663,-7004.299105,8355.909092,27939.4794,-7208.929325,4986.294208,0.158,0.896,0.326,192,0,0,0,0,0,0,0,0,0,1.71E+09,0, 2024-03-05 16:19:21.678
80,25428.19386,17589.54884,11829.92897,-6936.014525,8229.375867,27562.27136,-7225.111988,4965.775307,0.156,0.9,0.332,192,4,224,28,32,10,96,0,0,0,1.71E+09,0, 2024-03-05 16:19:21.678
81,27053.56801,17557.07175,11897.38654,-6760.262759,8306.958772,27625.14682,-7245.295613,4947.960967,0.156,0.9,0.332,192,0,0,0,0,0,0,0,0,0,1.71E+09,0, 2024-03-05 16:19:21.678
82,27027.34942,17527.47804,11894.45846,-6686.680816,8505.486966,28119.23213,-7235.885529,4960.701461,0.156,0.9,0.332,192,0,0,0,0,0,0,0,0,0,1.71E+09,0, 2024-03-05 16:19:21.678
83,25366.81597,17538.74332,11826.06212,-6836.884539,8529.001001,28299.58836,-7212.57266,4984.215496,0.156,0.9,0.332,192,0,0,0,0,0,0,0,0,0,1.71E+09,0, 2024-03-05 16:19:21.678
84,24354.86309,17570.39339,11771.30035,-7010.26702,8345.962566,27929.06349,-7209.018732,4991.099833,0.156,0.9,0.332,192,0,0,0,0,0,0,0,0,0,1.71E+09,0, 2024-03-05 16:19:21.678
85,25394.1745,17581.01047,11817.65787,-6950.274938,8213.684942,27540.3443,-7230.76698,4968.63633,0.156,0.9,0.332,192,0,0,0,0,0,0,0,0,0,1.71E+09,0, 2024-03-05 16:19:21.678
86,27015.83827,17553.02609,11891.93271,-6769.874009,8297.191059,27600.96223,-7244.848579,4946.061068,0.156,0.9,0.332,192,0,0,0,0,0,0,0,0,0,1.71E+09,0, 2024-03-05 16:19:21.678
87,27012.64197,17515.07282,11883.01437,-6693.587505,8499.831974,28107.78804,-7244.937986,4951.000804,0.156,0.9,0.332,192,0,0,0,0,0,0,0,0,0,1.71E+09,0, 2024-03-05 16:19:21.678
88,25388.05013,17519.81139,11812.71813,-6839.902024,8529.582146,28313.22292,-7225.022581,4973.106679,0.156,0.9,0.332,192,0,0,0,0,0,0,0,0,0,1.71E+09,0, 2024-03-05 16:19:21.678
89,24380.79111,17558.77048,11759.90096,-7015.117349,8340.709906,27948.44245,-7215.52309,4986.651836,0.156,0.9,0.332,192,0,0,0,0,0,0,0,0,0,1.71E+09,0, 2024-03-05 16:19:21.678
90,25400.85768,17585.16789,11821.79294,-6949.693793,8206.35357,27548.05565,-7226.810721,4979.275761,0.152,0.902,0.33,192,4,192,28,48,10,80,0,0,0,1.71E+09,0, 2024-03-05 16:19:21.678
91,27031.23862,17555.1495,11895.79956,-6764.666052,8297.526335,27615.42381,-7243.753343,4953.526551,0.152,0.902,0.33,192,0,0,0,0,0,0,0,0,0,1.71E+09,0, 2024-03-05 16:19:21.678
92,27025.60598,17517.93385,11882.58968,-6692.022883,8499.720216,28115.92407,-7242.30048,4956.476981,0.152,0.902,0.33,192,0,0,0,0,0,0,0,0,0,1.71E+09,0, 2024-03-05 16:19:21.678
93,25381.59047,17528.61798,11815.10977,-6839.834969,8528.486911,28308.59611,-7223.882642,4979.275761,0.152,0.902,0.33,192,0,0,0,0,0,0,0,0,0,1.71E+09,0, 2024-03-05 16:19:21.678
94,24364.36258,17563.19613,11761.39853,-7015.877308,8341.983955,27942.72041,-7224.128511,4980.080423,0.152,0.902,0.33,192,0,0,0,0,0,0,0,0,0,1.71E+09,0, 2024-03-05 16:19:21.678
95,25409.97719,17580.45168,11816.07089,-6949.760848,8217.216518,27563.34425,-7236.846654,4961.059089,0.152,0.902,0.33,192,0,0,0,0,0,0,0,0,0,1.71E+09,0, 2024-03-05 16:19:21.678
96,27045.72255,17553.31666,11887.59647,-6769.538733,8300.454414,27621.19056,-7251.15177,4941.456609,0.152,0.902,0.33,192,0,0,0,0,0,0,0,0,0,1.71E+09,0, 2024-03-05 16:19:21.678
97,27048.74004,17518.71616,11882.52263,-6691.978179,8505.106986,28120.01444,-7241.004079,4954.510028,0.152,0.902,0.33,192,0,0,0,0,0,0,0,0,0,1.71E+09,0, 2024-03-05 16:19:21.678
98,25408.52432,17524.79583,11809.96887,-6838.024478,8533.225481,28318.07325,-7221.602764,4979.052243,0.152,0.902,0.33,192,0,0,0,0,0,0,0,0,0,1.71E+09,0, 2024-03-05 16:19:21.678
99,24362.99912,17565.85599,11763.45489,-7015.094997,8343.302708,27936.90895,-7209.24225,4993.513822,0.152,0.902,0.33,192,0,0,0,0,0,0,0,0,0,1.71E+09,0, 2024-03-05 16:19:22.151
100,25403.47283,17580.60814,11815.98149,-6943.480008,8217.104759,27558.49392,-7227.034238,4971.273836,0.152,0.904,0.332,192,4,192,28,64,10,96,0,0,0,1.71E+09,0, 2024-03-05 16:19:22.151
101,27031.73036,17556.95999,11889.33991,-6765.426012,8295.157051,27611.55696,-7240.333526,4954.487676,0.152,0.904,0.332,192,0,0,0,0,0,0,0,0,0,1.71E+09,0, 2024-03-05 16:19:22.151
102,27051.15402,17517.12918,11878.00758,-6686.323188,8500.591934,28119.85798,-7241.764038,4958.175714,0.152,0.904,0.332,192,0,0,0,0,0,0,0,0,0,1.71E+09,0, 2024-03-05 16:19:22.151
103,25398.68956,17531.14373,11812.98635,-6835.521082,8533.113722,28310.20544,-7216.841843,4984.371958,0.152,0.904,0.332,192,0,0,0,0,0,0,0,0,0,1.71E+09,0, 2024-03-05 16:19:22.151
104,24365.50252,17571.24276,11767.4335,-7004.097939,8354.277415,27949.98472,-7209.152843,4990.67515,0.152,0.904,0.332,192,0,0,0,0,0,0,0,0,0,1.71E+09,0, 2024-03-05 16:19:22.151
105,25400.03066,17588.00657,11822.26233,-6940.261357,8226.47014,27566.92053,-7227.011886,4966.021176,0.152,0.904,0.332,192,0,0,0,0,0,0,0,0,0,1.71E+09,0, 2024-03-05 16:19:22.151
106,27037.63122,17563.28554,11895.35253,-6759.547503,8309.37276,27619.96122,-7239.975898,4945.792847,0.152,0.904,0.332,192,0,0,0,0,0,0,0,0,0,1.71E+09,0, 2024-03-05 16:19:22.151
107,27053.61272,17532.26132,11887.75294,-6680.824659,8513.265373,28116.68403,-7233.896224,4955.381746,0.152,0.904,0.332,192,0,0,0,0,0,0,0,0,0,1.71E+09,0, 2024-03-05 16:19:22.151
108,25399.89655,17535.94935,11812.9193,-6833.732943,8536.019449,28308.39495,-7219.546404,4977.509973,0.152,0.904,0.332,192,0,0,0,0,0,0,0,0,0,1.71E+09,0, 2024-03-05 16:19:22.151
109,24358.57348,17575.10961,11764.08073,-7004.50027,8351.237577,27947.03429,-7209.711636,4991.233944,0.152,0.904,0.332,192,0,0,0,0,0,0,0,0,0,1.71E+09,0, 2024-03-05 16:19:22.151
110,25388.54186,17586.17372,11815.10977,-6939.814322,8217.954125,27563.59012,-7230.76698,4963.786002,0.144,0.896,0.332,192,4,128,28,0,10,96,0,0,0,1.71E+09,0, 2024-03-05 16:19:22.151
111,27043.77795,17545.11357,11875.41477,-6764.554294,8294.195925,27625.88443,-7257.656128,4933.454684,0.144,0.896,0.332,192,0,0,0,0,0,0,0,0,0,1.71E+09,0, 2024-03-05 16:19:22.151
112,27077.99847,17507.20501,11868.97747,-6691.262924,8497.932076,28127.34582,-7251.665861,4941.21074,0.144,0.896,0.332,192,0,0,0,0,0,0,0,0,0,1.71E+09,0, 2024-03-05 16:19:22.151
113,25410.82655,17525.33228,11806.37024,-6843.634766,8528.643373,28307.79145,-7218.965258,4978.359339,0.144,0.896,0.332,192,0,0,0,0,0,0,0,0,0,1.71E+09,0, 2024-03-05 16:19:22.151
114,24355.19837,17569.76754,11764.12544,-7012.502195,8347.81776,27937.06542,-7206.917668,4996.106624,0.144,0.896,0.332,192,0,0,0,0,0,0,0,0,0,1.71E+09,0, 2024-03-05 16:19:22.151
115,25402.22113,17577.63536,11814.08159,-6939.546101,8224.123207,27570.27329,-7232.890395,4967.451688,0.144,0.896,0.332,192,0,0,0,0,0,0,0,0,0,1.71E+09,0, 2024-03-05 16:19:22.151
116,27046.70603,17559.32928,11887.12709,-6762.274416,8307.517565,27620.4306,-7235.013811,4958.935673,0.144,0.896,0.332,192,0,0,0,0,0,0,0,0,0,1.71E+09,0, 2024-03-05 16:19:22.151
117,27075.2492,17518.58205,11877.35938,-6685.674988,8513.399483,28112.86189,-7236.53373,4960.544999,0.144,0.896,0.332,192,0,0,0,0,0,0,0,0,0,1.71E+09,0, 2024-03-05 16:19:22.151
118,25414.06756,17531.54606,11810.39355,-6835.699896,8541.227405,28304.75161,-7213.377322,4990.429281,0.144,0.896,0.332,192,0,0,0,0,0,0,0,0,0,1.71E+09,0, 2024-03-05 16:19:22.151
119,24356.9418,17562.86085,11754.80476,-7016.100826,8354.255063,27939.88173,-7215.277221,4983.36613,0.144,0.896,0.332,192,0,0,0,0,0,0,0,0,0,1.71E+09,0, 2024-03-05 16:19:22.151
120,25369.87816,17580.18346,11806.6161,-6955.438191,8223.542061,27549.41911,-7225.402561,4959.695632,0.142,0.888,0.332,192,4,112,27,192,10,96,0,0,0,1.71E+09,0, 2024-03-05 16:19:22.151
121,27018.29696,17558.81519,11890.41279,-6768.35409,8311.853804,27600.4705,-7230.454055,4955.582911,0.142,0.888,0.332,192,0,0,0,0,0,0,0,0,0,1.71E+09,0, 2024-03-05 16:19:22.151
122,27065.5262,17520.32548,11878.00758,-6686.658464,8513.019504,28105.73168,-7232.868044,4959.315653,0.142,0.888,0.332,192,0,0,0,0,0,0,0,0,0,1.71E+09,0, 2024-03-05 16:19:22.151
123,25404.38925,17526.78514,11802.90571,-6842.785399,8530.967955,28293.17341,-7220.351067,4974.693653,0.142,0.888,0.332,192,0,0,0,0,0,0,0,0,0,1.71E+09,0, 2024-03-05 16:19:22.151
124,24353.92432,17562.77145,11755.58707,-7014.178576,8348.667127,27937.84773,-7213.533785,4982.829688,0.142,0.888,0.332,192,0,0,0,0,0,0,0,0,0,1.71E+09,0, 2024-03-05 16:19:22.151
125,25380.85286,17574.23789,11805.99026,-6949.291462,8219.585803,27557.30928,-7232.845692,4951.157266,0.142,0.888,0.332,192,0,0,0,0,0,0,0,0,0,1.71E+09,0, 2024-03-05 16:19:22.151
126,27041.2522,17548.08635,11872.71021,-6773.293826,8294.330036,27611.69107,-7249.587148,4934.751086,0.142,0.888,0.332,192,0,0,0,0,0,0,0,0,0,1.71E+09,0, 2024-03-05 16:19:22.151
127,27092.63886,17516.45863,11866.63054,-6691.754662,8495.339274,28113.86771,-7240.422933,4953.63831,0.142,0.888,0.332,192,0,0,0,0,0,0,0,0,0,1.71E+09,0, 2024-03-05 16:19:22.151
128,25421.37658,17525.33228,11799.95528,-6844.573539,8520.417931,28294.64862,-7216.640677,4980.661569,0.142,0.888,0.332,192,0,0,0,0,0,0,0,0,0,1.71E+09,0, 2024-03-05 16:19:22.151
129,24356.78534,17565.18544,11756.03411,-7015.072646,8347.571891,27936.81955,-7204.481328,4992.150365,0.142,0.888,0.332,192,0,0,0,0,0,0,0,0,0,1.71E+09,0, 2024-03-05 16:19:22.151
130,25379.22119,17581.30104,11811.15351,-6945.446962,8224.659648,27563.23249,-7223.949697,4964.14363,0.142,0.888,0.332,192,0,0,0,0,0,0,0,0,0,1.71E+09,0, 2024-03-05 16:19:22.151
131,27047.42128,17545.20298,11874.07367,-6766.767116,8296.989894,27619.7377,-7251.308233,4931.331269,0.146,0.892,0.336,192,4,144,27,224,10,128,0,0,0,1.71E+09,0, 2024-03-05 16:19:22.151
132,27090.71661,17508.70258,11866.94346,-6692.872249,8489.594876,28108.07861,-7248.313099,4946.038717,0.146,0.892,0.336,192,0,0,0,0,0,0,0,0,0,1.71E+09,0, 2024-03-05 16:19:22.151
133,25440.53202,17519.43141,11803.12923,-6834.649364,8524.530652,28304.88572,-7226.251927,4976.347682,0.146,0.892,0.336,192,0,0,0,0,0,0,0,0,0,1.71E+09,0, 2024-03-05 16:19:22.151
134,24378.0195,17563.95609,11752.90486,-7007.853032,8345.224958,27951.52699,-7214.070226,4989.110528,0.146,0.892,0.336,192,0,0,0,0,0,0,0,0,0,1.71E+09,0, 2024-03-05 16:19:22.151
135,25375.13082,17580.63049,11804.51504,-6945.715183,8213.304962,27556.54932,-7233.046857,4958.958025,0.146,0.892,0.336,192,0,0,0,0,0,0,0,0,0,1.71E+09,0, 2024-03-05 16:19:22.151
136,27011.23381,17561.00566,11880.2204,-6771.148058,8287.490402,27586.54536,-7242.568701,4945.614033,0.146,0.892,0.336,192,0,0,0,0,0,0,0,0,0,1.71E+09,0, 2024-03-05 16:19:22.151
137,27055.57967,17528.46152,11878.3652,-6685.83145,8493.484079,28081.0777,-7233.85152,4966.848191,0.146,0.892,0.336,192,0,0,0,0,0,0,0,0,0,1.71E+09,0, 2024-03-05 16:19:22.151
138,25430.13846,17525.62285,11801.72107,-6828.592042,8526.363495,28303.79049,-7224.799064,4985.243676,0.146,0.892,0.336,192,0,0,0,0,0,0,0,0,0,1.71E+09,0, 2024-03-05 16:19:22.151
139,24366.21778,17565.4313,11750.11089,-7005.036712,8344.062667,27952.82339,-7216.350104,4992.373883,0.146,0.892,0.336,192,0,0,0,0,0,0,0,0,0,1.71E+09,0, 2024-03-05 16:19:22.151
140,25383.17745,17577.36714,11803.9786,-6942.317717,8221.016314,27573.38018,-7236.421971,4958.958025,0.146,0.892,0.336,192,0,0,0,0,0,0,0,0,0,1.71E+09,0, 2024-03-05 16:19:22.151
141,27023.61667,17554.30014,11877.6276,-6770.835134,8296.006417,27600.69401,-7244.87093,4939.80258,0.154,0.894,0.328,192,4,208,27,240,10,64,0,0,0,1.71E+09,0, 2024-03-05 16:19:22.151
142,27091.45422,17518.82792,11871.14559,-6680.0647,8495.965123,28102.1107,-7242.903977,4955.918188,0.154,0.894,0.328,192,0,0,0,0,0,0,0,0,0,1.71E+09,0, 2024-03-05 16:19:22.151
143,25456.15589,17527.36628,11802.6822,-6826.580385,8524.821225,28307.65734,-7222.094503,4986.070691,0.154,0.894,0.328,192,0,0,0,0,0,0,0,0,0,1.71E+09,0, 2024-03-05 16:19:22.151
144,24399.07484,17568.04646,11761.33147,-6994.441985,8354.724449,27966.07798,-7211.455072,4990.451633,0.154,0.894,0.328,192,0,0,0,0,0,0,0,0,0,1.71E+09,0, 2024-03-05 16:19:22.151
145,25397.81784,17588.09597,11807.01844,-6941.021316,8221.35159,27572.06143,-7227.235404,4964.255388,0.154,0.894,0.328,192,0,0,0,0,0,0,0,0,0,1.71E+09,0, 2024-03-05 16:19:22.151
146,27013.78191,17567.51002,11883.72962,-6767.482372,8294.933533,27584.69016,-7231.102256,4959.136839,0.154,0.894,0.328,192,0,0,0,0,0,0,0,0,0,1.71E+09,0, 2024-03-05 16:19:22.151
147,27085.12868,17526.40516,11881.87443,-6676.35431,8501.843631,28085.79392,-7229.291764,4968.368109,0.154,0.894,0.328,192,0,0,0,0,0,0,0,0,0,1.71E+09,0, 2024-03-05 16:19:22.151
148,25441.42609,17529.57911,11808.20308,-6823.182919,8528.755132,28292.23463,-7215.500738,4993.893801,0.154,0.894,0.328,192,0,0,0,0,0,0,0,0,0,1.71E+09,0, 2024-03-05 16:19:22.151
149,24371.76101,17563.06202,11756.50349,-6996.252477,8353.606862,27953.40454,-7210.672761,4994.921982,0.154,0.894,0.328,192,0,0,0,0,0,0,0,0,0,1.71E+09,0, 2024-03-05 16:19:22.151
150,25379.22119,17579.11057,11806.14672,-6939.14377,8223.497358,27575.12362,-7230.722276,4963.160153,0.154,0.894,0.328,192,0,0,0,0,0,0,0,0,0,1.71E+09,0, 2024-03-05 16:19:22.151
151,27018.54283,17553.42842,11873.49252,-6768.778773,8294.039463,27602.88448,-7247.821361,4943.624728,0.152,0.9,0.33,192,4,192,28,32,10,80,0,0,0,1.71E+09,0, 2024-03-05 16:19:22.151
152,27120.57854,17510.9154,11862.83074,-6680.668197,8502.84946,28118.56158,-7252.381116,4944.183522,0.152,0.9,0.33,192,0,0,0,0,0,0,0,0,0,1.71E+09,0, 2024-03-05 16:19:22.151
153,25484.11792,17522.96299,11791.1487,-6831.251899,8535.572414,28319.9508,-7230.655221,4971.340891,0.152,0.9,0.33,192,0,0,0,0,0,0,0,0,0,1.71E+09,0, 2024-03-05 16:19:22.151
154,24386.82608,17562.88321,11740.18672,-7008.612991,8354.433877,27955.70677,-7222.206261,4976.638255,0.152,0.9,0.33,192,0,0,0,0,0,0,0,0,0,1.71E+09,0, 2024-03-05 16:19:22.151
155,25366.74891,17586.79957,11801.81048,-6942.295366,8228.750018,27558.89625,-7230.878738,4962.333138,0.152,0.9,0.33,192,0,0,0,0,0,0,0,0,0,1.71E+09,0, 2024-03-05 16:19:22.151
156,27009.37861,17561.87738,11873.89486,-6763.86139,8301.30378,27589.54049,-7244.73682,4951.067859,0.152,0.9,0.33,192,0,0,0,0,0,0,0,0,0,1.71E+09,0, 2024-03-05 16:19:22.151
157,27098.875,17518.80557,11870.18447,-6673.269769,8507.766844,28092.63356,-7246.65907,4951.984281,0.152,0.9,0.33,192,0,0,0,0,0,0,0,0,0,1.71E+09,0, 2024-03-05 16:19:22.151
158,25480.564,17519.2526,11790.96988,-6823.920527,8541.920309,28309.60194,-7234.723238,4965.30592,0.152,0.9,0.33,192,0,0,0,0,0,0,0,0,0,1.71E+09,0, 2024-03-05 16:19:22.151
159,24391.20703,17558.03288,11741.61723,-7007.942439,8361.251159,27953.29278,-7227.1907,4972.436127,0.152,0.9,0.33,192,0,0,0,0,0,0,0,0,0,1.71E+09,0, 2024-03-05 16:19:22.151
160,25367.9112,17578.35061,11797.47424,-6946.96688,8233.823864,27558.53862,-7239.774733,4950.263196,0.152,0.9,0.33,192,0,0,0,0,0,0,0,0,0,1.71E+09,0, 2024-03-05 16:19:22.151
161,27004.28242,17562.8385,11872.55375,-6770.164582,8305.930591,27580.77861,-7248.58132,4938.461475,0.154,0.898,0.336,192,4,208,28,16,10,128,0,0,0,1.71E+09,0, 2024-03-05 16:19:22.151
162,27103.81473,17523.49943,11870.74326,-6673.605046,8516.349914,28087.85028,-7245.049744,4954.241807,0.154,0.898,0.336,192,0,0,0,0,0,0,0,0,0,1.71E+09,0, 2024-03-05 16:19:22.151
163,25476.1607,17532.61894,11804.13506,-6818.667867,8557.097144,28301.17533,-7221.625116,4982.09208,0.154,0.898,0.336,192,0,0,0,0,0,0,0,0,0,1.71E+09,0, 2024-03-05 16:19:22.151
164,24391.76582,17560.06689,11741.75134,-6999.24761,8380.3619,27957.04787,-7224.776712,4975.788888,0.154,0.898,0.336,192,0,0,0,0,0,0,0,0,0,1.71E+09,0, 2024-03-05 16:19:22.151
165,25374.88495,17573.0309,11782.47622,-6947.123342,8239.277689,27570.20623,-7248.626023,4942.440086,0.154,0.898,0.336,192,0,0,0,0,0,0,0,0,0,1.71E+09,0, 2024-03-05 16:19:22.151
166,26997.37573,17555.48478,11858.80743,-6779.440556,8300.677931,27571.18971,-7258.639605,4930.057219,0.154,0.898,0.336,192,0,0,0,0,0,0,0,0,0,1.71E+09,0, 2024-03-05 16:19:22.151
167,27106.04991,17520.21373,11862.92015,-6682.098708,8514.919402,28074.41688,-7258.997233,4938.461475,0.154,0.898,0.336,192,0,0,0,0,0,0,0,0,0,1.71E+09,0, 2024-03-05 16:19:22.151
168,25482.03921,17528.48387,11795.66375,-6825.775722,8552.269167,28287.04903,-7240.37823,4965.037699,0.154,0.898,0.336,192,0,0,0,0,0,0,0,0,0,1.71E+09,0, 2024-03-05 16:19:22.151
169,24396.23617,17570.54985,11746.98165,-6996.29718,8380.22779,27952.89045,-7224.664953,4978.404043,0.154,0.898,0.336,192,0,0,0,0,0,0,0,0,0,1.71E+09,0, 2024-03-05 16:19:22.151
170,25355.7295,17592.81219,11802.25751,-6937.176816,8247.1008,27555.81171,-7235.796122,4960.097964,0.154,0.898,0.336,192,0,0,0,0,0,0,0,0,0,1.71E+09,0, 2024-03-05 16:19:22.151
171,27011.81495,17570.77337,11882.88026,-6754.965395,8324.147263,27587.81941,-7244.178026,4954.398269,0.156,0.898,0.332,192,4,224,28,16,10,96,0,0,0,1.71E+09,0, 2024-03-05 16:19:22.151
172,27125.92061,17527.52275,11872.88903,-6666.921874,8526.050571,28092.70061,-7251.263529,4957.661624,0.156,0.898,0.332,192,0,0,0,0,0,0,0,0,0,1.71E+09,0, 2024-03-05 16:19:22.151
173,25506.80494,17531.85898,11797.16132,-6812.275268,8558.304138,28307.07619,-7235.282032,4974.291322,0.156,0.898,0.332,192,0,0,0,0,0,0,0,0,0,1.71E+09,0, 2024-03-05 16:19:22.151
174,24392.794,17578.44002,11751.20613,-6988.585828,8383.580552,27952.28695,-7213.489081,4991.345703,0.156,0.898,0.332,192,0,0,0,0,0,0,0,0,0,1.71E+09,0, 2024-03-05 16:19:22.151
175,25358.99286,17586.59841,11795.37318,-6930.068961,8249.492437,27563.70188,-7237.69602,4964.79183,0.156,0.898,0.332,192,0,0,0,0,0,0,0,0,0,1.71E+09,0, 2024-03-05 16:19:22.151
176,27009.69154,17564.64899,11862.83074,-6762.162657,8316.704132,27581.06918,-7251.419991,4944.429391,0.156,0.898,0.332,192,0,0,0,0,0,0,0,0,0,1.71E+09,0, 2024-03-05 16:19:22.151
177,27112.08488,17530.7861,11870.34093,-6667.458316,8521.915498,28074.10396,-7248.380154,4952.185446,0.156,0.898,0.332,192,0,0,0,0,0,0,0,0,0,1.71E+09,0, 2024-03-05 16:19:22.151
178,25504.99445,17529.89203,11799.12827,-6809.056617,8561.634548,28297.50965,-7233.225671,4975.006577,0.156,0.898,0.332,192,0,0,0,0,0,0,0,0,0,1.71E+09,0, 2024-03-05 16:19:22.151
179,24379.82999,17572.71797,11750.37912,-6992.475032,8382.686482,27939.90409,-7220.418122,4989.892839,0.156,0.898,0.332,192,0,0,0,0,0,0,0,0,0,1.71E+09,0, 2024-03-05 16:19:22.151
180,25345.29124,17584.20677,11800.80465,-6929.219595,8250.744134,27554.58236,-7241.518169,4959.785039,0.156,0.898,0.332,192,0,0,0,0,0,0,0,0,0,1.71E+09,0, 2024-03-05 16:19:22.151
181,27005.44471,17561.22918,11869.62567,-6757.088811,8318.648734,27576.33061,-7253.610462,4941.031926,0.152,0.898,0.334,192,4,192,28,16,10,112,0,0,0,1.71E+09,0, 2024-03-05 16:19:22.151
182,27128.26754,17524.84054,11868.50808,-6667.905351,8524.307135,28076.80852,-7249.855369,4950.129086,0.152,0.898,0.334,192,0,0,0,0,0,0,0,0,0,1.71E+09,0, 2024-03-05 16:19:22.151
183,25502.40165,17539.70445,11802.27987,-6812.387027,8560.449905,28282.2434,-7223.435607,4983.388482,0.152,0.898,0.334,192,0,0,0,0,0,0,0,0,0,1.71E+09,0, 2024-03-05 16:19:22.151
184,24388.9495,17566.50419,11741.10314,-6993.056177,8383.647607,27942.38513,-7226.564852,4977.688787,0.152,0.898,0.334,192,0,0,0,0,0,0,0,0,0,1.71E+09,0, 2024-03-05 16:19:22.151
185,25340.68678,17577.25538,11781.71626,-6942.429476,8241.803436,27551.16255,-7249.318927,4949.816161,0.152,0.898,0.334,192,0,0,0,0,0,0,0,0,0,1.71E+09,0, 2024-03-05 16:19:22.151
186,26982.2436,17559.26222,11863.45659,-6766.141268,8310.222126,27561.89138,-7251.330584,4944.339984,0.152,0.898,0.334,192,0,0,0,0,0,0,0,0,0,1.71E+09,0, 2024-03-05 16:19:22.151
187,27135.10718,17512.05534,11856.77342,-6669.000586,8521.624925,28081.12241,-7257.477314,4938.260309,0.152,0.898,0.334,192,0,0,0,0,0,0,0,0,0,1.71E+09,0, 2024-03-05 16:19:22.151
188,25528.55319,17522.71712,11787.9524,-6818.399646,8558.862932,28292.86048,-7233.158616,4971.83263,0.152,0.898,0.334,192,0,0,0,0,0,0,0,0,0,1.71E+09,0, 2024-03-05 16:19:22.151
189,24391.87758,17562.43617,11739.44911,-7001.661599,8381.211267,27928.99644,-7221.647468,4979.968665,0.152,0.898,0.334,192,0,0,0,0,0,0,0,0,0,1.71E+09,0, 2024-03-05 16:19:22.151
190,25346.38647,17572.58386,11790.18757,-6937.690906,8250.610024,27545.57461,-7236.265509,4956.812257,0.152,0.898,0.334,192,0,0,0,0,0,0,0,0,0,1.71E+09,0, 2024-03-05 16:19:22.151
191,27006.18231,17546.65584,11857.17575,-6764.308425,8311.831452,27575.43654,-7250.771791,4935.108714,0.154,0.9,0.334,192,4,208,28,32,10,112,0,0,0,1.71E+09,0, 2024-03-05 16:19:22.151
192,27134.14605,17510.62483,11855.2088,-6677.069566,8515.120568,28067.73371,-7248.558968,4941.568368,0.154,0.9,0.334,192,0,0,0,0,0,0,0,0,0,1.71E+09,0, 2024-03-05 16:19:22.151
193,25523.97108,17514.60344,11781.73861,-6824.367562,8553.833789,28275.8061,-7234.857349,4966.512914,0.154,0.9,0.334,192,0,0,0,0,0,0,0,0,0,1.71E+09,0, 2024-03-05 16:19:22.151
194,24400.72887,17550.94737,11726.01571,-7001.92982,8377.120897,27927.96826,-7233.695058,4972.883162,0.154,0.9,0.334,192,0,0,0,0,0,0,0,0,0,1.71E+09,0, 2024-03-05 16:19:22.151
195,25335.92586,17577.72476,11785.71722,-6936.439209,8243.792742,27537.52798,-7237.628965,4963.76365,0.154,0.9,0.334,192,0,0,0,0,0,0,0,0,0,1.71E+09,0, 2024-03-05 16:19:22.151
196,26977.12505,17552.62376,11858.33804,-6763.146134,8305.997647,27554.87294,-7250.570625,4947.670394,0.154,0.9,0.334,192,0,0,0,0,0,0,0,0,0,1.71E+09,0, 2024-03-05 16:19:22.151
197,27127.10525,17512.2118,11856.39344,-6669.358214,8518.316867,28058.88242,-7251.174122,4949.145609,0.154,0.9,0.334,192,0,0,0,0,0,0,0,0,0,1.71E+09,0, 2024-03-05 16:19:22.151
198,25534.49876,17516.63745,11791.64044,-6812.767006,8568.183609,28278.48831,-7231.996325,4971.050319,0.154,0.9,0.334,192,0,0,0,0,0,0,0,0,0,1.71E+09,0, 2024-03-05 16:19:22.151
199,24421.27012,17548.22046,11731.46954,-6997.481823,8389.995502,27941.13343,-7228.397695,4973.50901,0.154,0.9,0.334,192,0,0,0,0,0,0,0,0,0,1.71E+09,0, 2024-03-05 16:19:22.151
200,25330.29322,17571.42157,11780.21869,-6948.464447,8244.642108,27535.35986,-7243.820398,4952.900702,0.154,0.9,0.334,192,0,0,0,0,0,0,0,0,0,1.71E+09,0, 2024-03-05 16:19:22.151
201,26967.22322,17549.76273,11852.21366,-6775.283131,8310.043312,27547.42981,-7253.454,4935.823969,0.156,0.9,0.334,192,4,224,28,32,10,112,0,0,0,1.71E+09,0, 2024-03-05 16:19:22.151
202,27116.42112,17513.55291,11857.62279,-6673.761508,8526.654068,28046.36545,-7249.341279,4952.297205,0.156,0.9,0.334,192,0,0,0,0,0,0,0,0,0,1.71E+09,0, 2024-03-05 16:19:22.151
203,25542.03129,17515.13988,11791.01459,-6810.420073,8582.242856,28277.706,-7230.722276,4977.129993,0.156,0.9,0.334,192,0,0,0,0,0,0,0,0,0,1.71E+09,0, 2024-03-05 16:19:22.151
204,24423.12532,17560.2457,11739.78439,-6991.983294,8408.03336,27936.26075,-7215.903069,4992.686807,0.156,0.9,0.334,192,0,0,0,0,0,0,0,0,0,1.71E+09,0, 2024-03-05 16:19:22.151
205,25338.18338,17571.06394,11782.31976,-6940.529578,8262.165876,27541.73011,-7240.400581,4956.633443,0.156,0.9,0.334,192,0,0,0,0,0,0,0,0,0,1.71E+09,0, 2024-03-05 16:19:22.151
206,26977.92971,17546.7676,11846.60338,-6775.819573,8320.280411,27551.34136,-7257.074983,4935.332231,0.156,0.9,0.334,192,0,0,0,0,0,0,0,0,0,1.71E+09,0, 2024-03-05 16:19:22.151
207,27135.59891,17504.07577,11851.43135,-6679.796479,8534.521882,28049.27117,-7257.81259,4938.863807,0.156,0.9,0.334,192,0,0,0,0,0,0,0,0,0,1.71E+09,0, 2024-03-05 16:19:22.151
208,25559.86799,17504.43339,11784.48788,-6821.77476,8583.092223,28274.80027,-7241.272299,4958.846266,0.156,0.9,0.334,192,0,0,0,0,0,0,0,0,0,1.71E+09,0, 2024-03-05 16:19:22.151
209,24457.12232,17541.55964,11727.64739,-6999.716997,8413.576593,27950.9235,-7230.476407,4971.095022,0.156,0.9,0.334,192,0,0,0,0,0,0,0,0,0,1.71E+09,0, 2024-03-05 16:19:22.151
210,25348.71106,17567.2865,11779.50344,-6948.352688,8265.719803,27544.23351,-7236.757247,4958.041603,0.156,0.9,0.334,192,0,0,0,0,0,0,0,0,0,1.71E+09,0, 2024-03-05 16:19:22.151
211,27000.77319,17540.10678,11849.39734,-6770.298692,8325.197795,27566.40644,-7252.626986,4936.718039,0.156,0.904,0.332,192,4,224,28,64,10,96,0,0,0,1.71E+09,0, 2024-03-05 16:19:22.151
212,27133.18493,17510.35661,11851.29724,-6683.819793,8528.173986,28040.30812,-7245.273262,4949.324423,0.156,0.904,0.332,192,0,0,0,0,0,0,0,0,0,1.71E+09,0, 2024-03-05 16:19:22.151
213,25538.99146,17518.42559,11788.86882,-6821.238318,8578.890095,28252.62734,-7225.26845,4980.058072,0.156,0.904,0.332,192,0,0,0,0,0,0,0,0,0,1.71E+09,0, 2024-03-05 16:19:22.151
214,24418.18558,17557.16116,11735.98459,-6994.330227,8409.977962,27920.2122,-7215.679552,4989.51286,0.156,0.904,0.332,192,0,0,0,0,0,0,0,0,0,1.71E+09,0, 2024-03-05 16:19:22.151
215,25322.20189,17572.49446,11779.95047,-6940.037839,8263.350518,27530.93422,-7235.170273,4961.282606,0.156,0.904,0.332,192,0,0,0,0,0,0,0,0,0,1.71E+09,0, 2024-03-05 16:19:22.151
216,26975.2922,17551.55087,11852.21366,-6765.962454,8324.214318,27553.1295,-7248.491913,4944.876426,0.156,0.904,0.332,192,0,0,0,0,0,0,0,0,0,1.71E+09,0, 2024-03-05 16:19:22.151
217,27136.00125,17514.78225,11854.65,-6672.755679,8531.303231,28043.54913,-7245.787352,4954.107696,0.156,0.904,0.332,192,0,0,0,0,0,0,0,0,0,1.71E+09,0, 2024-03-05 16:19:22.151
218,25544.6241,17517.28565,11786.32072,-6818.421998,8572.653958,28248.13464,-7227.816549,4975.543019,0.156,0.904,0.332,192,0,0,0,0,0,0,0,0,0,1.71E+09,0, 2024-03-05 16:19:22.151
219,24417.55973,17558.65873,11734.7776,-6992.296218,8398.243296,27912.81377,-7218.428817,4987.411796,0.156,0.904,0.332,192,0,0,0,0,0,0,0,0,0,1.71E+09,0, 2024-03-05 16:19:22.487
220,25312.47888,17578.2165,11782.8115,-6934.449903,8250.319451,27532.54354,-7235.416142,4967.854019,0.156,0.904,0.332,192,0,0,0,0,0,0,0,0,0,1.71E+09,0, 2024-03-05 16:19:22.487
221,26962.48465,17556.78118,11858.60626,-6751.255006,8316.011228,27575.25773,-7244.960337,4952.431315,0.16,0.906,0.332,192,5,0,28,80,10,96,0,0,0,1.71E+09,0, 2024-03-05 16:19:22.487
222,27133.25198,17515.89984,11858.4498,-6661.289234,8528.151635,28067.89018,-7246.726125,4952.923054,0.16,0.906,0.332,192,0,0,0,0,0,0,0,0,0,1.71E+09,0, 2024-03-05 16:19:22.487
223,25569.83686,17518.78321,11791.8416,-6811.02357,8582.488725,28271.38046,-7232.286898,4970.715042,0.16,0.906,0.332,192,0,0,0,0,0,0,0,0,0,1.71E+09,0, 2024-03-05 16:19:22.487
224,24455.11066,17547.66167,11728.74263,-6997.727692,8405.552316,27932.03627,-7232.421009,4973.911342,0.16,0.906,0.332,192,0,0,0,0,0,0,0,0,0,1.71E+09,0, 2024-03-05 16:19:22.487
225,25339.47978,17567.66648,11769.40045,-6950.587863,8249.380678,27546.1334,-7249.47539,4950.039679,0.16,0.906,0.332,192,0,0,0,0,0,0,0,0,0,1.71E+09,0, 2024-03-05 16:19:22.487
226,26968.72079,17551.64028,11848.10094,-6767.683538,8305.572963,27572.62022,-7253.409297,4943.490618,0.16,0.906,0.332,192,0,0,0,0,0,0,0,0,0,1.71E+09,0, 2024-03-05 16:19:22.487
227,27157.54833,17505.03689,11844.92699,-6673.716804,8517.132225,28069.72302,-7259.824247,4940.942519,0.16,0.906,0.332,192,0,0,0,0,0,0,0,0,0,1.71E+09,0, 2024-03-05 16:19:22.487
228,25595.899,17511.27303,11780.33045,-6821.461835,8570.955225,28264.47377,-7239.975898,4965.462382,0.16,0.906,0.332,192,0,0,0,0,0,0,0,0,0,1.71E+09,0, 2024-03-05 16:19:22.487
229,24454.59657,17551.81909,11724.85342,-7006.690741,8398.131537,27912.05381,-7230.610517,4974.693653,0.16,0.906,0.332,192,0,0,0,0,0,0,0,0,0,1.71E+09,0, 2024-03-05 16:19:22.487
230,25346.85586,17572.00272,11769.62397,-6942.049496,8252.979309,27546.24516,-7244.513302,4955.672318,0.16,0.906,0.332,192,0,0,0,0,0,0,0,0,0,1.71E+09,0, 2024-03-05 16:19:22.487
231,26997.46513,17545.15827,11837.17094,-6764.420183,8302.041388,27590.63573,-7259.757192,4936.226301,0.158,0.904,0.326,192,4,240,28,64,10,48,0,0,0,1.71E+09,0, 2024-03-05 16:19:22.487
232,27169.59592,17509.93192,11842.84828,-6674.722633,8512.08073,28070.63944,-7256.426782,4946.239882,0.158,0.904,0.326,192,0,0,0,0,0,0,0,0,0,1.71E+09,0, 2024-03-05 16:19:22.487
233,25579.67163,17518.53734,11783.97379,-6823.45114,8567.736574,28251.01802,-7236.28786,4972.145554,0.158,0.904,0.326,192,0,0,0,0,0,0,0,0,0,1.71E+09,0, 2024-03-05 16:19:22.487
234,24454.21659,17547.66167,11721.79123,-7000.991047,8397.550392,27918.2676,-7237.740724,4967.652853,0.158,0.904,0.326,192,0,0,0,0,0,0,0,0,0,1.71E+09,0, 2024-03-05 16:19:22.487
235,25348.35343,17564.22431,11764.63953,-6940.440171,8254.812152,27553.86711,-7250.145942,4944.67526,0.158,0.904,0.326,192,0,0,0,0,0,0,0,0,0,1.71E+09,0, 2024-03-05 16:19:22.487
236,26991.40781,17541.29142,11839.38376,-6765.984805,8308.366931,27588.48996,-7260.181875,4929.118446,0.158,0.904,0.326,192,0,0,0,0,0,0,0,0,0,1.71E+09,0, 2024-03-05 16:19:22.487
237,27171.29465,17506.64622,11850.0679,-6674.722633,8517.691018,28067.28668,-7255.622119,4941.098981,0.158,0.904,0.326,192,0,0,0,0,0,0,0,0,0,1.71E+09,0, 2024-03-05 16:19:22.487
238,25600.21288,17513.35174,11785.80663,-6819.047847,8575.559685,28260.22694,-7231.616346,4970.022138,0.158,0.904,0.326,192,0,0,0,0,0,0,0,0,0,1.71E+09,0, 2024-03-05 16:19:22.487
239,24456.07179,17549.51686,11726.99919,-7002.622724,8397.438633,27907.40465,-7225.424913,4972.279665,0.158,0.904,0.326,192,0,0,0,0,0,0,0,0,0,1.71E+09,0, 2024-03-05 16:19:22.487
240,25340.12799,17569.65578,11780.79984,-6935.098104,8257.449658,27540.54547,-7240.735858,4950.374955,0.158,0.904,0.326,192,0,0,0,0,0,0,0,0,0,1.71E+09,0, 2024-03-05 16:19:22.487
241,26988.45738,17548.04165,11851.02902,-6758.340509,8315.631248,27578.72225,-7255.130381,4932.739429,0.166,0.9,0.33,192,5,48,28,32,10,80,0,0,0,1.71E+09,0, 2024-03-05 16:19:22.487
242,27178.4025,17507.58499,11852.86186,-6670.96754,8525.581184,28056.0661,-7254.303366,4943.557673,0.166,0.9,0.33,192,0,0,0,0,0,0,0,0,0,1.71E+09,0, 2024-03-05 16:19:22.487
243,25609.71238,17519.2079,11793.83091,-6813.594021,8589.127194,28254.21432,-7226.564852,4988.059996,0.166,0.9,0.33,192,0,0,0,0,0,0,0,0,0,1.71E+09,0, 2024-03-05 16:19:22.487
244,24466.64416,17556.91529,11739.53852,-6989.50225,8421.533814,27916.74768,-7215.478386,4994.117319,0.166,0.9,0.33,192,0,0,0,0,0,0,0,0,0,1.71E+09,0, 2024-03-05 16:19:22.487
245,25338.58572,17574.61787,11781.24687,-6931.186549,8267.440887,27547.76508,-7232.152788,4965.060051,0.166,0.9,0.33,192,0,0,0,0,0,0,0,0,0,1.71E+09,0, 2024-03-05 16:19:22.487
246,26987.80918,17549.76273,11851.58781,-6752.260834,8318.067589,27587.93117,-7249.810666,4942.641251,0.166,0.9,0.33,192,0,0,0,0,0,0,0,0,0,1.71E+09,0, 2024-03-05 16:19:22.487
247,27185.95739,17509.99898,11855.47702,-6665.759583,8528.375152,28069.83478,-7247.664898,4944.339984,0.166,0.9,0.33,192,0,0,0,0,0,0,0,0,0,1.71E+09,0, 2024-03-05 16:19:22.487
248,25604.21385,17515.78808,11788.84647,-6817.974963,8580.588827,28256.89653,-7220.999267,4976.70531,0.166,0.9,0.33,192,0,0,0,0,0,0,0,0,0,1.71E+09,0, 2024-03-05 16:19:22.487
249,24454.32835,17554.63541,11737.3257,-6993.34675,8410.000314,27919.96633,-7211.611535,4994.117319,0.166,0.9,0.33,192,0,0,0,0,0,0,0,0,0,1.71E+09,0, 2024-03-05 16:19:22.487
250,25327.05221,17567.55472,11780.44221,-6934.651069,8258.030803,27556.45991,-7233.404485,4964.098926,0.166,0.9,0.33,192,0,0,0,0,0,0,0,0,0,1.71E+09,0, 2024-03-05 16:19:22.487
251,26974.5993,17549.82979,11849.21853,-6759.659262,8306.377626,27587.97587,-7247.061401,4946.061068,0.166,0.9,0.328,192,5,48,28,32,10,64,0,0,0,1.71E+09,0, 2024-03-05 16:19:22.487
252,27175.98852,17511.16127,11858.56156,-6665.357252,8517.668667,28066.16909,-7246.256738,4952.207798,0.166,0.9,0.328,192,0,0,0,0,0,0,0,0,0,1.71E+09,0, 2024-03-05 16:19:22.487
253,25607.41015,17512.79295,11791.72984,-6813.795187,8577.861914,28260.69632,-7228.174177,4973.933694,0.166,0.9,0.328,192,0,0,0,0,0,0,0,0,0,1.71E+09,0, 2024-03-05 16:19:22.487
254,24447.01933,17549.71803,11732.63183,-6995.470166,8403.719473,27915.09365,-7222.161558,4976.079461,0.166,0.9,0.328,192,0,0,0,0,0,0,0,0,0,1.71E+09,0, 2024-03-05 16:19:22.487
255,25304.83458,17575.60135,11784.62199,-6931.275956,8258.857818,27544.81465,-7229.403523,4967.98813,0.166,0.9,0.328,192,0,0,0,0,0,0,0,0,0,1.71E+09,0, 2024-03-05 16:19:22.487
0,26971.09007,17549.47216,11854.13591,-6749.824494,8313.150205,27589.69695,-7245.139151,4947.1116,0.166,0.9,0.328,192,0,0,0,0,0,0,0,0,0,1.71E+09,0, 2024-03-05 16:19:22.487
1,27183.87868,17507.09325,11854.89587,-6665.178438,8520.037951,28067.10786,-7245.966166,4942.551844,0.166,0.9,0.328,192,0,0,0,0,0,0,0,0,0,1.71E+09,0, 2024-03-05 16:19:22.487
2,25613.8251,17509.79781,11791.41692,-6813.258745,8577.794859,28254.14726,-7223.927346,4965.842362,0.166,0.9,0.328,192,0,0,0,0,0,0,0,0,0,1.71E+09,0, 2024-03-05 16:19:22.487
3,24449.43332,17550.83562,11737.25864,-6990.888058,8410.581459,27914.31134,-7208.370532,4988.216458,0.166,0.9,0.328,192,0,0,0,0,0,0,0,0,0,1.71E+09,0, 2024-03-05 16:19:22.487
4,25294.93276,17576.8754,11790.96988,-6924.503377,8264.803382,27543.80882,-7213.22086,4976.526496,0.166,0.9,0.328,192,0,0,0,0,0,0,0,0,0,1.71E+09,0, 2024-03-05 16:19:22.487
5,26963.13285,17542.63253,11849.95614,-6747.58932,8311.965562,27591.86507,-7239.193587,4944.138818,0.164,0.904,0.328,192,5,32,28,64,10,64,0,0,0,1.71E+09,0, 2024-03-05 16:19:22.487
6,27189.48897,17502.93583,11852.39248,-6658.227045,8523.681286,28079.89306,-7243.082791,4951.783115,0.164,0.904,0.328,192,0,0,0,0,0,0,0,0,0,1.71E+09,0, 2024-03-05 16:19:22.487
7,25615.8144,17514.60344,11794.70262,-6811.135329,8584.053348,28261.83626,-7220.976915,4978.582856,0.164,0.904,0.328,192,0,0,0,0,0,0,0,0,0,1.71E+09,0, 2024-03-05 16:19:22.487
8,24452.9649,17553.58488,11738.37623,-6989.12227,8414.068331,27923.60966,-7217.892375,4974.380729,0.164,0.904,0.328,192,0,0,0,0,0,0,0,0,0,1.71E+09,0, 2024-03-05 16:19:22.487
9,25302.01826,17577.16597,11785.31489,-6928.102008,8261.517675,27554.35885,-7228.576509,4964.680071,0.164,0.904,0.328,192,0,0,0,0,0,0,0,0,0,1.71E+09,0, 2024-03-05 16:19:22.487
10,26956.78496,17555.03774,11857.8016,-6748.215169,8310.870327,27595.91074,-7237.137227,4957.147534,0.164,0.904,0.328,192,0,0,0,0,0,0,0,0,0,1.71E+09,0, 2024-03-05 16:19:22.487
11,27172.65811,17517.57622,11866.60819,-6653.488476,8523.323658,28075.98151,-7232.555119,4966.803487,0.164,0.904,0.328,192,0,0,0,0,0,0,0,0,0,1.71E+09,0, 2024-03-05 16:19:22.487
12,25604.59383,17516.39158,11793.58504,-6806.776739,8579.314778,28262.23859,-7217.422988,4988.328217,0.164,0.904,0.328,192,0,0,0,0,0,0,0,0,0,1.71E+09,0, 2024-03-05 16:19:22.487
13,24435.66465,17558.47991,11737.95155,-6982.550857,8410.112072,27926.51539,-7206.291819,4999.347627,0.164,0.904,0.328,192,0,0,0,0,0,0,0,0,0,1.71E+09,0, 2024-03-05 16:19:22.487
14,25300.14071,17570.28163,11776.10597,-6919.809511,8255.750925,27574.83304,-7232.041029,4968.144592,0.164,0.904,0.328,192,0,0,0,0,0,0,0,0,0,1.71E+09,0, 2024-03-05 16:19:22.487
15,26947.35252,17549.65097,11844.30115,-6750.53975,8296.609914,27603.59974,-7246.592015,4954.130048,0.164,0.904,0.328,192,0,0,0,0,0,0,0,0,0,1.71E+09,0, 2024-03-05 16:19:22.487
16,27187.14204,17505.05924,11854.33708,-6655.030746,8519.322696,28091.60538,-7248.178988,4953.280682,0.166,0.896,0.326,192,5,48,28,0,10,48,0,0,0,1.71E+09,0, 2024-03-05 16:19:22.487
17,25592.7027,17519.02908,11786.7007,-6815.62803,8570.195266,28252.18031,-7221.93804,4983.164964,0.166,0.896,0.326,192,0,0,0,0,0,0,0,0,0,1.71E+09,0, 2024-03-05 16:19:22.488
18,24425.94164,17556.31179,11737.81744,-6982.975541,8410.246183,27923.16263,-7210.225726,4991.300999,0.166,0.896,0.326,192,0,0,0,0,0,0,0,0,0,1.71E+09,0, 2024-03-05 16:19:22.488
19,25296.56444,17569.8346,11775.07779,-6923.38579,8261.361213,27579.01282,-7235.594956,4960.544999,0.166,0.896,0.326,192,0,0,0,0,0,0,0,0,0,1.71E+09,0, 2024-03-05 16:19:22.488
20,26945.76555,17554.00956,11843.78706,-6751.255006,8304.544783,27608.96416,-7246.256738,4953.615958,0.166,0.896,0.326,192,0,0,0,0,0,0,0,0,0,1.71E+09,0, 2024-03-05 16:19:22.488
21,27175.1615,17521.93481,11856.10287,-6653.354365,8521.356704,28083.31288,-7233.896224,4964.836534,0.166,0.896,0.326,192,0,0,0,0,0,0,0,0,0,1.71E+09,0, 2024-03-05 16:19:22.488
22,25610.76291,17524.08058,11794.45676,-6801.054692,8587.383758,28272.74391,-7211.67859,4988.596438,0.166,0.896,0.326,192,0,0,0,0,0,0,0,0,0,1.71E+09,0, 2024-03-05 16:19:22.488
23,24445.76763,17551.50617,11729.39083,-6984.540163,8416.504671,27945.84965,-7214.271392,4985.377787,0.166,0.896,0.326,192,0,0,0,0,0,0,0,0,0,1.71E+09,0, 2024-03-05 16:19:22.488
24,25285.09799,17576.47307,11777.49178,-6927.677325,8258.209617,27574.54247,-7223.323849,4970.536228,0.166,0.896,0.326,192,0,0,0,0,0,0,0,0,0,1.71E+09,0, 2024-03-05 16:19:22.488
25,26945.27381,17554.43425,11850.91726,-6746.225863,8306.109405,27608.02538,-7234.969108,4957.818086,0.166,0.896,0.326,192,0,0,0,0,0,0,0,0,0,1.71E+09,0, 2024-03-05 16:19:22.488
26,27196.55212,17504.99219,11849.55381,-6654.82958,8517.825129,28094.19818,-7243.261605,4953.504199,0.166,0.9,0.334,192,5,48,28,32,10,112,0,0,0,1.71E+09,0, 2024-03-05 16:19:22.488
27,25617.7143,17512.61413,11783.5491,-6814.711608,8575.894961,28263.75851,-7217.400636,4980.840383,0.166,0.9,0.334,192,0,0,0,0,0,0,0,0,0,1.71E+09,0, 2024-03-05 16:19:22.488
28,24444.69475,17551.9532,11729.59199,-6988.429366,8414.872994,27933.28797,-7208.370532,4989.177583,0.166,0.9,0.334,192,0,0,0,0,0,0,0,0,0,1.71E+09,0, 2024-03-05 16:19:22.488
29,25282.10286,17569.1864,11768.70755,-6929.018429,8257.874341,27571.52499,-7230.789331,4961.886103,0.166,0.9,0.334,192,0,0,0,0,0,0,0,0,0,1.71E+09,0, 2024-03-05 16:19:22.488
30,26949.81121,17552.57905,11844.05528,-6744.661241,8309.976257,27617.2343,-7241.473465,4948.922092,0.166,0.9,0.334,192,0,0,0,0,0,0,0,0,0,1.71E+09,0, 2024-03-05 16:19:22.488
31,27192.77468,17520.25843,11857.73454,-6650.359231,8525.91646,28093.66174,-7232.532767,4965.752955,0.166,0.9,0.334,192,0,0,0,0,0,0,0,0,0,1.71E+09,0, 2024-03-05 16:19:22.488
32,25605.42084,17531.4343,11802.54809,-6802.082873,8587.607275,28260.60692,-7201.709712,5002.231002,0.166,0.9,0.334,192,0,0,0,0,0,0,0,0,0,1.71E+09,0, 2024-03-05 16:19:22.488
33,24425.38284,17556.75883,11734.75525,-6981.455622,8418.896308,27929.26466,-7203.430796,4999.884069,0.166,0.9,0.334,192,0,0,0,0,0,0,0,0,0,1.71E+09,0, 2024-03-05 16:19:22.488
34,25270.85993,17570.68396,11767.54526,-6922.335258,8259.483666,27577.67172,-7225.067285,4973.88899,0.166,0.9,0.334,192,0,0,0,0,0,0,0,0,0,1.71E+09,0, 2024-03-05 16:19:22.488
35,26923.63732,17549.53921,11836.83566,-6749.869198,8294.173574,27607.86892,-7239.148884,4956.20876,0.166,0.9,0.334,192,0,0,0,0,0,0,0,0,0,1.71E+09,0, 2024-03-05 16:19:22.488
36,27179.58715,17511.13892,11849.53145,-6653.890807,8509.331466,28091.8736,-7237.092523,4960.29913,0.168,0.898,0.34,192,5,64,28,16,10,160,0,0,0,1.71E+09,0, 2024-03-05 16:19:22.488
37,25617.0661,17513.08352,11780.97865,-6808.788396,8571.826943,28271.9169,-7218.495872,4982.896743,0.168,0.898,0.34,192,0,0,0,0,0,0,0,0,0,1.71E+09,0, 2024-03-05 16:19:22.488
38,24442.28076,17548.42163,11722.79706,-6985.970674,8410.08972,27942.04985,-7208.661104,4990.988075,0.168,0.898,0.34,192,0,0,0,0,0,0,0,0,0,1.71E+09,0, 2024-03-05 16:19:22.488
39,25278.1466,17571.80155,11769.95924,-6923.318735,8259.461315,27581.248,-7224.329677,4974.671301,0.168,0.898,0.34,192,0,0,0,0,0,0,0,0,0,1.71E+09,0, 2024-03-05 16:19:22.488
40,26952.20285,17547.54991,11834.7793,-6743.945985,8304.813004,27630.17596,-7244.22273,4954.107696,0.168,0.898,0.34,192,0,0,0,0,0,0,0,0,0,1.71E+09,0, 2024-03-05 16:19:22.488
41,27211.08076,17507.09325,11843.09415,-6650.739211,8518.428626,28115.61115,-7245.742648,4957.885141,0.168,0.898,0.34,192,0,0,0,0,0,0,0,0,0,1.71E+09,0, 2024-03-05 16:19:22.488
42,25631.88531,17518.04561,11782.18565,-6810.285963,8582.354615,28275.94021,-7217.534747,4993.737339,0.168,0.898,0.34,192,0,0,0,0,0,0,0,0,0,1.71E+09,0, 2024-03-05 16:19:22.488
43,24436.22344,17559.30693,11733.23533,-6987.334131,8426.339439,27922.1121,-7199.675703,5006.81311,0.168,0.898,0.34,192,0,0,0,0,0,0,0,0,0,1.71E+09,0, 2024-03-05 16:19:22.488
44,25269.8541,17571.26511,11772.77556,-6926.515034,8271.285387,27557.46574,-7220.149901,4972.771403,0.168,0.898,0.34,192,0,0,0,0,0,0,0,0,0,1.71E+09,0, 2024-03-05 16:19:22.488
45,26932.93565,17546.00764,11836.09806,-6749.2657,8307.271696,27612.31692,-7236.801951,4946.128124,0.168,0.898,0.34,192,0,0,0,0,0,0,0,0,0,1.71E+09,0, 2024-03-05 16:19:22.488
46,27180.16829,17512.27886,11853.64417,-6649.934548,8520.216765,28107.60923,-7228.375343,4966.267045,0.162,0.9,0.344,192,5,16,28,32,10,192,0,0,0,1.71E+09,0, 2024-03-05 16:19:22.488
47,25636.53447,17509.619,11791.1487,-6801.009989,8592.859935,28292.50286,-7210.538651,4995.748996,0.162,0.9,0.344,192,0,0,0,0,0,0,0,0,0,1.71E+09,0, 2024-03-05 16:19:22.488
48,24432.89303,17542.9231,11721.52301,-7004.008532,8421.422055,27913.55138,-7204.682494,4998.498261,0.162,0.9,0.344,192,0,0,0,0,0,0,0,0,0,1.71E+09,0, 2024-03-05 16:19:22.488
49,25258.83469,17570.61691,11774.29548,-6934.114627,8271.19598,27539.71845,-7215.187814,4980.058072,0.162,0.9,0.344,192,0,0,0,0,0,0,0,0,0,1.71E+09,0, 2024-03-05 16:19:22.488
50,26940.53524,17549.98625,11843.98822,-6735.29586,8308.679856,27625.54915,-7231.0352,4964.456554,0.162,0.9,0.344,192,0,0,0,0,0,0,0,0,0,1.71E+09,0, 2024-03-05 16:19:22.488
51,27188.01375,17510.93775,11852.63835,-6640.591519,8511.343123,28126.49645,-7232.108084,4968.032833,0.162,0.9,0.344,192,0,0,0,0,0,0,0,0,0,1.71E+09,0, 2024-03-05 16:19:22.488
52,25645.45281,17507.7638,11784.46553,-6803.71455,8577.727804,28298.11314,-7217.646506,4986.070691,0.162,0.9,0.344,192,0,0,0,0,0,0,0,0,0,1.71E+09,0, 2024-03-05 16:19:22.616
53,24454.3507,17550.09801,11729.16731,-6996.900677,8418.605735,27922.00034,-7205.710674,4997.425377,0.162,0.9,0.344,192,0,0,0,0,0,0,0,0,0,1.71E+09,0, 2024-03-05 16:19:22.616
54,25277.76662,17572.74033,11778.72113,-6928.347877,8268.11144,27549.86615,-7218.98761,4977.107641,0.162,0.9,0.344,192,0,0,0,0,0,0,0,0,0,1.71E+09,0, 2024-03-05 16:19:22.616
55,26954.70625,17545.96294,11842.75888,-6733.842997,8304.522431,27637.55204,-7240.847616,4956.611092,0.162,0.9,0.344,192,0,0,0,0,0,0,0,0,0,1.71E+09,0, 2024-03-05 16:19:22.616
56,27202.05065,17513.19528,11855.14174,-6635.249452,8514.271201,28137.58291,-7229.850558,4973.620769,0.166,0.89,0.346,192,5,48,27,208,10,208,0,0,0,1.71E+09,0, 2024-03-05 16:19:22.616
57,25649.8114,17512.92706,11786.7454,-6803.669846,8580.857048,28295.65445,-7213.422026,4989.155232,0.166,0.89,0.346,192,0,0,0,0,0,0,0,0,0,1.71E+09,0, 2024-03-05 16:19:22.616
58,24444.35947,17547.70637,11720.80776,-7006.087244,8412.503709,27906.84586,-7208.415235,4988.529383,0.166,0.89,0.346,192,0,0,0,0,0,0,0,0,0,1.71E+09,0, 2024-03-05 16:19:22.616
59,25256.84539,17574.26024,11772.26147,-6934.047572,8259.282501,27534.80107,-7222.072151,4972.547885,0.166,0.89,0.346,192,0,0,0,0,0,0,0,0,0,1.71E+09,0, 2024-03-05 16:19:22.616
60,26928.55471,17550.79091,11835.22634,-6739.542692,8297.168708,27622.95635,-7240.445285,4953.571254,0.166,0.89,0.346,192,0,0,0,0,0,0,0,0,0,1.71E+09,0, 2024-03-05 16:19:22.616
61,27188.52784,17507.89791,11844.59172,-6644.525426,8506.939829,28125.31181,-7240.713506,4958.198066,0.166,0.89,0.346,192,0,0,0,0,0,0,0,0,0,1.71E+09,0, 2024-03-05 16:19:22.616
62,25647.1292,17510.46837,11786.41013,-6805.50269,8584.701548,28293.70985,-7210.806872,4989.64697,0.166,0.89,0.346,192,0,0,0,0,0,0,0,0,0,1.71E+09,0, 2024-03-05 16:19:22.616
63,24462.84437,17540.62087,11724.96518,-6996.833622,8424.908927,27931.52218,-7205.285991,4994.452595,0.166,0.89,0.346,192,0,0,0,0,0,0,0,0,0,1.71E+09,0, 2024-03-05 16:19:22.616
64,25267.37306,17563.19613,11764.70658,-6937.310927,8260.087163,27555.74465,-7221.602764,4971.720871,0.166,0.89,0.346,192,0,0,0,0,0,0,0,0,0,1.71E+09,0, 2024-03-05 16:19:22.616
65,26921.84918,17538.4751,11825.16805,-6749.2657,8292.094862,27623.15752,-7239.707677,4953.213627,0.166,0.89,0.346,192,0,0,0,0,0,0,0,0,0,1.71E+09,0, 2024-03-05 16:19:22.616
66,27190.85243,17499.60542,11840.70251,-6644.413667,8509.867908,28124.84242,-7235.594956,4964.322444,0.164,0.896,0.344,192,5,32,28,0,10,192,0,0,0,1.71E+09,0, 2024-03-05 16:19:22.616
67,25633.00289,17496.02914,11767.38879,-6820.50071,8571.134039,28271.98395,-7225.64843,4972.99492,0.164,0.896,0.344,192,0,0,0,0,0,0,0,0,0,1.71E+09,0, 2024-03-05 16:19:22.616
68,24417.1574,17538.05042,11710.68242,-7013.060989,8412.39195,27890.37262,-7213.980819,4983.053205,0.164,0.896,0.344,192,0,0,0,0,0,0,0,0,0,1.71E+09,0, 2024-03-05 16:19:22.616
69,25230.91736,17560.33511,11756.41409,-6940.149598,8260.847123,27534.84577,-7224.173215,4965.060051,0.164,0.896,0.344,192,0,0,0,0,0,0,0,0,0,1.71E+09,0, 2024-03-05 16:19:22.616
70,26891.11553,17537.73749,11824.98924,-6748.908073,8289.569114,27604.65027,-7235.147921,4949.659699,0.164,0.896,0.344,192,0,0,0,0,0,0,0,0,0,1.71E+09,0, 2024-03-05 16:19:22.616
71,27189.42191,17495.89503,11837.05918,-6646.313566,8506.917477,28121.82493,-7238.523035,4948.072725,0.164,0.896,0.344,192,0,0,0,0,0,0,0,0,0,1.71E+09,0, 2024-03-05 16:19:22.616
72,25632.37704,17508.14378,11776.97769,-6819.204309,8573.637435,28265.39019,-7210.65041,4984.193144,0.164,0.896,0.344,192,0,0,0,0,0,0,0,0,0,1.71E+09,0, 2024-03-05 16:19:22.616
73,24426.83571,17547.92989,11727.20036,-7004.209698,8421.712628,27895.33471,-7199.005151,5001.426339,0.164,0.896,0.344,192,0,0,0,0,0,0,0,0,0,1.71E+09,0, 2024-03-05 16:19:22.616
74,25234.47129,17568.20292,11771.94855,-6932.192377,8267.977329,27541.23837,-7214.427854,4983.36613,0.164,0.896,0.344,192,0,0,0,0,0,0,0,0,0,1.71E+09,0, 2024-03-05 16:19:22.616
75,26916.10478,17546.52173,11832.1865,-6737.173407,8296.766376,27631.36061,-7234.119741,4958.823914,0.164,0.896,0.344,192,0,0,0,0,0,0,0,0,0,1.71E+09,0, 2024-03-05 16:19:22.616
76,27188.01375,17507.96497,11840.00961,-6645.106571,8504.078806,28123.30015,-7231.079904,4962.042566,0.158,0.892,0.346,192,4,240,27,224,10,208,0,0,0,1.71E+09,0, 2024-03-05 16:19:22.616
77,25636.9815,17497.83963,11766.56178,-6820.12073,8574.956188,28267.80418,-7218.674686,4970.245656,0.158,0.892,0.346,192,0,0,0,0,0,0,0,0,0,1.71E+09,0, 2024-03-05 16:19:22.616
78,24439.37504,17530.71905,11706.90497,-7011.272849,8422.561994,27903.33663,-7212.19268,4977.420566,0.158,0.892,0.346,192,0,0,0,0,0,0,0,0,0,1.71E+09,0, 2024-03-05 16:19:22.616
79,25242.02618,17556.93764,11753.68717,-6942.161255,8268.960806,27548.50269,-7223.72618,4969.999787,0.158,0.892,0.346,192,0,0,0,0,0,0,0,0,0,1.71E+09,0, 2024-03-05 16:19:22.616
80,26930.07462,17541.96197,11820.45183,-6742.806046,8301.616705,27636.99325,-7239.148884,4954.621786,0.158,0.892,0.346,192,0,0,0,0,0,0,0,0,0,1.71E+09,0, 2024-03-05 16:19:22.616
81,27215.23818,17505.88626,11832.38767,-6645.441847,8507.699789,28133.13492,-7234.566776,4961.796696,0.158,0.892,0.346,192,0,0,0,0,0,0,0,0,0,1.71E+09,0, 2024-03-05 16:19:23.079
82,25657.18748,17505.50628,11766.58413,-6816.65621,8573.659786,28274.04031,-7211.052741,4986.69654,0.158,0.892,0.346,192,0,0,0,0,0,0,0,0,0,1.71E+09,0, 2024-03-05 16:19:23.079
83,24442.68309,17536.59755,11701.58526,-7010.311724,8415.901174,27900.96735,-7206.56004,4984.617827,0.158,0.892,0.346,192,0,0,0,0,0,0,0,0,0,1.71E+09,0, 2024-03-05 16:19:23.079
84,25224.16714,17556.75883,11745.0147,-6948.777371,8251.571149,27533.05763,-7228.710619,4960.030909,0.158,0.892,0.346,192,0,0,0,0,0,0,0,0,0,1.71E+09,0, 2024-03-05 16:19:23.079
85,26899.6092,17539.1233,11815.75797,-6749.64568,8280.650768,27614.99913,-7242.211073,4946.172827,0.158,0.892,0.346,192,0,0,0,0,0,0,0,0,0,1.71E+09,0, 2024-03-05 16:19:23.079
86,27198.47437,17497.70552,11826.84443,-6649.57692,8490.466594,28118.36041,-7244.558006,4945.792847,0.158,0.89,0.346,192,4,240,27,208,10,208,0,0,0,1.71E+09,0, 2024-03-05 16:19:23.079
87,25666.46345,17501.81824,11766.29356,-6816.14212,8564.719089,28278.37655,-7222.116854,4970.737394,0.158,0.89,0.346,192,0,0,0,0,0,0,0,0,0,1.71E+09,0, 2024-03-05 16:19:23.079
88,24451.48968,17540.08443,11708.53665,-7008.456529,8408.122767,27909.59512,-7208.683456,4986.785947,0.158,0.89,0.346,192,0,0,0,0,0,0,0,0,0,1.71E+09,0, 2024-03-05 16:19:23.079
89,25245.80362,17553.62958,11746.13228,-6944.597595,8248.151332,27558.31511,-7229.35882,4960.746164,0.158,0.89,0.346,192,0,0,0,0,0,0,0,0,0,1.71E+09,0, 2024-03-05 16:19:23.079
90,26923.63732,17533.80359,11810.23709,-6752.886683,8277.812097,27639.83192,-7244.692116,4946.798676,0.158,0.89,0.346,192,0,0,0,0,0,0,0,0,0,1.71E+09,0, 2024-03-05 16:19:23.079
91,27204.28582,17501.99705,11829.23607,-6658.115287,8485.817431,28119.65682,-7236.66784,4956.119353,0.158,0.89,0.346,192,0,0,0,0,0,0,0,0,0,1.71E+09,0, 2024-03-05 16:19:23.079
92,25654.01353,17499.18073,11766.45002,-6827.094475,8558.237083,28260.11518,-7216.528918,4976.928827,0.158,0.89,0.346,192,0,0,0,0,0,0,0,0,0,1.71E+09,0, 2024-03-05 16:19:23.079
93,24426.16515,17534.89882,11700.9147,-7022.94046,8401.081967,27886.9081,-7206.291819,4981.153307,0.158,0.89,0.346,192,0,0,0,0,0,0,0,0,0,1.71E+09,0, 2024-03-05 16:19:23.079
94,25194.34991,17557.22821,11745.90877,-6958.813305,8239.188282,27518.86428,-7223.904994,4957.929845,0.158,0.89,0.346,192,0,0,0,0,0,0,0,0,0,1.71E+09,0, 2024-03-05 16:19:23.079
95,26885.92993,17536.08346,11818.39547,-6756.328852,8275.42046,27610.34997,-7236.734895,4949.883217,0.158,0.89,0.346,192,0,0,0,0,0,0,0,0,0,1.71E+09,0, 2024-03-05 16:19:23.079
96,27195.54629,17494.17394,11829.21372,-6656.930644,8482.241152,28109.30796,-7240.154712,4949.436182,0.154,0.89,0.346,192,4,208,27,208,10,208,0,0,0,1.71E+09,0, 2024-03-05 16:19:23.079
97,25647.57623,17495.60445,11765.95828,-6828.100303,8554.437286,28253.23084,-7214.852537,4981.376825,0.154,0.89,0.346,192,0,0,0,0,0,0,0,0,0,1.71E+09,0, 2024-03-05 16:19:23.079
98,24420.68898,17532.95422,11712.26939,-7012.971582,8407.183994,27889.85853,-7202.492023,4996.173679,0.154,0.89,0.346,192,0,0,0,0,0,0,0,0,0,1.71E+09,0, 2024-03-05 16:19:23.079
99,25203.75999,17557.45173,11755.52002,-6943.211787,8251.995832,27539.56199,-7219.814625,4970.335063,0.154,0.89,0.346,192,0,0,0,0,0,0,0,0,0,1.71E+09,0, 2024-03-05 16:19:23.079
100,26874.91052,17541.00085,11818.68605,-6749.220997,8276.895675,27613.03218,-7235.840826,4952.051336,0.154,0.89,0.346,192,0,0,0,0,0,0,0,0,0,1.71E+09,0, 2024-03-05 16:19:23.079
101,27197.78147,17496.81145,11830.8454,-6645.330089,8488.544344,28119.83563,-7236.578433,4952.855999,0.154,0.89,0.346,192,0,0,0,0,0,0,0,0,0,1.71E+09,0, 2024-03-05 16:19:23.079
102,25666.28464,17492.89989,11760.61621,-6817.438521,8561.813362,28278.84594,-7214.696075,4977.800545,0.154,0.89,0.346,192,0,0,0,0,0,0,0,0,0,1.71E+09,0, 2024-03-05 16:19:23.079
103,24436.55872,17523.0524,11697.13726,-7013.820948,8405.284095,27911.38326,-7213.153805,4982.85204,0.154,0.89,0.346,192,0,0,0,0,0,0,0,0,0,1.71E+09,0, 2024-03-05 16:19:23.079
104,25213.68417,17546.47703,11741.08079,-6948.777371,8244.865625,27554.13533,-7228.352991,4962.601359,0.154,0.89,0.346,192,0,0,0,0,0,0,0,0,0,1.71E+09,0, 2024-03-05 16:19:23.079
105,26885.30408,17530.16025,11809.85711,-6755.770058,8265.071602,27625.88443,-7240.758209,4948.028022,0.154,0.89,0.346,192,0,0,0,0,0,0,0,0,0,1.71E+09,0, 2024-03-05 16:19:23.079
106,27197.96028,17492.89989,11826.55386,-6651.834446,8479.201314,28121.51201,-7236.66784,4954.912359,0.162,0.894,0.346,192,5,16,27,240,10,208,0,0,0,1.71E+09,0, 2024-03-05 16:19:23.079
107,25652.60537,17493.27987,11755.43061,-6823.406437,8553.699679,28265.39019,-7214.49491,4981.309769,0.162,0.894,0.346,192,0,0,0,0,0,0,0,0,0,1.71E+09,0, 2024-03-05 16:19:23.079
108,24428.80266,17530.02614,11700.98176,-7008.300067,8403.67477,27902.50962,-7205.241287,4992.955028,0.162,0.894,0.346,192,0,0,0,0,0,0,0,0,0,1.71E+09,0, 2024-03-05 16:19:23.079
109,25213.95239,17556.24474,11747.51809,-6937.467389,8246.854931,27556.19169,-7220.798102,4973.218438,0.162,0.894,0.346,192,0,0,0,0,0,0,0,0,0,1.71E+09,0, 2024-03-05 16:19:23.079
110,26877.05629,17540.88909,11816.7638,-6745.80118,8269.787821,27623.80572,-7227.391866,4961.193199,0.162,0.894,0.346,192,0,0,0,0,0,0,0,0,0,1.71E+09,0, 2024-03-05 16:19:23.079
111,27205.06814,17492.00582,11828.40906,-6646.402973,8484.409271,28120.41677,-7227.771846,4960.746164,0.162,0.894,0.346,192,0,0,0,0,0,0,0,0,0,1.71E+09,0, 2024-03-05 16:19:23.079
112,25654.52762,17494.50922,11762.18084,-6819.539585,8555.331356,28262.08213,-7211.052741,4984.595476,0.162,0.894,0.346,192,0,0,0,0,0,0,0,0,0,1.71E+09,0, 2024-03-05 16:19:23.079
113,24417.91736,17531.03197,11701.65231,-7006.958962,8404.680598,27900.945,-7206.180061,4991.658627,0.162,0.894,0.346,192,0,0,0,0,0,0,0,0,0,1.71E+09,0, 2024-03-05 16:19:23.079
114,25186.45974,17553.98721,11745.77466,-6938.406162,8249.425381,27546.98277,-7223.368552,4965.752955,0.162,0.894,0.346,192,0,0,0,0,0,0,0,0,0,1.71E+09,0, 2024-03-05 16:19:23.079
115,26877.10099,17523.94647,11804.76091,-6748.75161,8269.385489,27628.00784,-7248.022526,4934.080533,0.162,0.894,0.346,192,0,0,0,0,0,0,0,0,0,1.71E+09,0, 2024-03-05 16:19:23.079
116,27203.25764,17483.93684,11819.84834,-6654.717821,8475.021538,28116.81814,-7240.624099,4947.022193,0.164,0.896,0.346,192,5,32,28,0,10,208,0,0,0,1.71E+09,0, 2024-03-05 16:19:23.079
117,25664.60826,17488.20603,11761.26441,-6816.79032,8556.895978,28269.48056,-7211.835052,4976.034758,0.164,0.896,0.346,192,0,0,0,0,0,0,0,0,0,1.71E+09,0, 2024-03-05 16:19:23.079
118,24432.22248,17528.86385,11701.4735,-7002.846241,8407.00518,27914.40075,-7202.872002,4984.059034,0.164,0.896,0.346,192,0,0,0,0,0,0,0,0,0,1.71E+09,0, 2024-03-05 16:19:23.079
119,25186.03506,17561.05036,11747.71926,-6937.132113,8249.604195,27551.34136,-7213.511433,4971.944388,0.164,0.896,0.346,192,0,0,0,0,0,0,0,0,0,1.71E+09,0, 2024-03-05 16:19:23.079
120,26856.80561,17542.99015,11817.56846,-6742.224901,8276.493344,27617.56958,-7227.57068,4955.404097,0.164,0.896,0.346,192,0,0,0,0,0,0,0,0,0,1.71E+09,0, 2024-03-05 16:19:23.079
121,27199.99429,17499.04662,11826.73267,-6635.495321,8487.694977,28122.04845,-7232.935099,4956.007595,0.164,0.896,0.346,192,0,0,0,0,0,0,0,0,0,1.71E+09,0, 2024-03-05 16:19:23.079
122,25667.89397,17500.83476,11764.14779,-6802.507556,8561.746307,28279.22592,-7211.477424,4983.433185,0.164,0.896,0.346,192,0,0,0,0,0,0,0,0,0,1.71E+09,0, 2024-03-05 16:19:23.079
123,24431.10489,17534.92117,11701.33939,-6994.978427,8409.106244,27920.07809,-7207.431758,4983.947275,0.164,0.896,0.346,192,0,0,0,0,0,0,0,0,0,1.71E+09,0, 2024-03-05 16:19:23.079
124,25180.84945,17556.60237,11740.6114,-6935.567491,8247.413724,27558.00218,-7225.022581,4965.551789,0.164,0.896,0.346,192,0,0,0,0,0,0,0,0,0,1.71E+09,0, 2024-03-05 16:19:23.079
125,26865.32162,17537.58103,11808.62776,-6744.124799,8268.75964,27628.29842,-7235.751419,4962.601359,0.164,0.896,0.346,192,0,0,0,0,0,0,0,0,0,1.71E+09,0, 2024-03-05 16:19:23.079
126,27205.2246,17498.689,11828.05143,-6640.256243,8484.27516,28120.0368,-7231.392828,4968.50222,0.162,0.898,0.344,192,5,16,28,16,10,192,0,0,0,1.71E+09,0, 2024-03-05 16:19:23.079
127,25681.21561,17499.09133,11762.87374,-6807.648457,8562.908597,28280.05293,-7212.907936,4987.411796,0.162,0.898,0.344,192,0,0,0,0,0,0,0,0,0,1.71E+09,0, 2024-03-05 16:19:23.079
128,24435.17291,17537.15635,11701.67466,-7003.047407,8408.636857,27917.19471,-7205.174232,4994.564354,0.162,0.898,0.344,192,0,0,0,0,0,0,0,0,0,1.71E+09,0, 2024-03-05 16:19:23.079
129,25171.48407,17563.3973,11744.00887,-6939.456694,8245.625585,27548.72621,-7216.998305,4976.213572,0.162,0.898,0.344,192,0,0,0,0,0,0,0,0,0,1.71E+09,0, 2024-03-05 16:19:23.079
130,26866.32745,17539.19036,11812.42756,-6740.749686,8273.3641,27627.62786,-7234.320907,4953.012461,0.162,0.898,0.344,192,0,0,0,0,0,0,0,0,0,1.71E+09,0, 2024-03-05 16:19:23.079
131,27211.32662,17494.71039,11817.90374,-6645.464199,8479.178963,28115.03,-7234.790294,4954.621786,0.162,0.898,0.344,192,0,0,0,0,0,0,0,0,0,1.71E+09,0, 2024-03-05 16:19:23.079
132,25656.31576,17499.29249,11753.3966,-6817.930259,8552.202112,28251.35329,-7209.37636,4982.427357,0.162,0.898,0.344,192,0,0,0,0,0,0,0,0,0,1.71E+09,0, 2024-03-05 16:19:23.079
133,24393.97864,17537.37987,11695.1256,-7007.070721,8402.132499,27888.02569,-7198.535764,4993.469118,0.162,0.898,0.344,192,0,0,0,0,0,0,0,0,0,1.71E+09,0, 2024-03-05 16:19:23.079
134,25143.76791,17553.51782,11734.53173,-6941.870682,8247.190207,27537.43858,-7220.552232,4967.921074,0.162,0.898,0.344,192,0,0,0,0,0,0,0,0,0,1.71E+09,0, 2024-03-05 16:19:23.079
135,26852.06704,17530.98727,11795.90962,-6749.042183,8276.493344,27627.15848,-7239.752381,4942.551844,0.162,0.898,0.344,192,0,0,0,0,0,0,0,0,0,1.71E+09,0, 2024-03-05 16:19:23.079
136,27218.0098,17491.31292,11816.94261,-6642.849045,8490.667759,28128.12813,-7236.198453,4951.760763,0.16,0.898,0.344,192,5,0,28,16,10,192,0,0,0,1.71E+09,0, 2024-03-05 16:19:23.079
137,25671.51495,17491.60349,11751.67552,-6817.460873,8562.014528,28267.93829,-7211.455072,4984.550772,0.16,0.898,0.344,192,0,0,0,0,0,0,0,0,0,1.71E+09,0, 2024-03-05 16:19:23.079
138,24412.97763,17524.28174,11694.32094,-7008.702398,8413.80011,27913.2161,-7201.754415,4989.892839,0.16,0.898,0.344,192,0,0,0,0,0,0,0,0,0,1.71E+09,0, 2024-03-05 16:19:23.079
139,25163.4598,17546.7676,11732.8777,-6945.849293,8253.89573,27561.22083,-7220.105197,4960.969682,0.16,0.898,0.344,192,0,0,0,0,0,0,0,0,0,1.71E+09,0, 2024-03-05 16:19:23.079
140,26853.00581,17524.08058,11796.17784,-6756.909997,8267.865571,27626.1303,-7241.898148,4934.16994,0.16,0.898,0.344,192,0,0,0,0,0,0,0,0,0,1.71E+09,0, 2024-03-05 16:19:23.079
141,27219.3509,17483.51216,11811.55584,-6650.761563,8475.625035,28118.1816,-7236.332564,4945.278757,0.16,0.898,0.344,192,0,0,0,0,0,0,0,0,0,1.71E+09,0, 2024-03-05 16:19:23.079
142,25672.34196,17483.02042,11743.87476,-6820.523062,8548.357612,28261.0763,-7214.852537,4971.765574,0.16,0.898,0.344,192,0,0,0,0,0,0,0,0,0,1.71E+09,0, 2024-03-05 16:19:23.079
143,24405.44509,17517.57622,11682.83214,-7013.97741,8396.969247,27904.61068,-7210.873927,4973.419604,0.16,0.898,0.344,192,0,0,0,0,0,0,0,0,0,1.71E+09,0, 2024-03-05 16:19:23.079
144,25139.99047,17543.68306,11727.04389,-6950.632566,8238.13775,27543.58531,-7224.799064,4959.382708,0.16,0.898,0.344,192,0,0,0,0,0,0,0,0,0,1.71E+09,0, 2024-03-05 16:19:23.079
145,26832.97865,17524.70643,11793.22741,-6756.574721,8257.986099,27606.72898,-7241.495817,4939.377897,0.16,0.898,0.344,192,0,0,0,0,0,0,0,0,0,1.71E+09,0, 2024-03-05 16:19:23.079
146,27202.52004,17491.87171,11818.79781,-6643.29608,8472.115811,28098.02033,-7229.604689,4962.22138,0.16,0.898,0.344,192,0,0,0,0,0,0,0,0,0,1.71E+09,0, 2024-03-05 16:19:23.079
147,25668.27395,17492.60932,11760.63857,-6805.055655,8556.650109,28256.4942,-7203.877831,4993.133842,0.156,0.9,0.346,192,4,224,28,32,10,208,0,0,0,1.71E+09,0, 2024-03-05 16:19:23.079
148,24411.18949,17519.2079,11695.28207,-6996.185421,8411.095549,27919.98868,-7201.195622,4995.704293,0.156,0.9,0.346,192,0,0,0,0,0,0,0,0,0,1.71E+09,0, 2024-03-05 16:19:23.079
149,25142.65032,17548.35457,11733.19062,-6940.417819,8245.625585,27561.86903,-7215.076055,4973.732528,0.156,0.9,0.346,192,0,0,0,0,0,0,0,0,0,1.71E+09,0, 2024-03-05 16:19:23.079
150,26834.56562,17537.64809,11801.4305,-6746.628195,8260.802419,27622.19639,-7229.11295,4955.091173,0.156,0.9,0.346,192,0,0,0,0,0,0,0,0,0,1.71E+09,0, 2024-03-05 16:19:23.079
151,27232.09139,17494.35276,11817.00967,-6635.383562,8474.239227,28129.0222,-7235.013811,4951.894874,0.156,0.9,0.346,192,0,0,0,0,0,0,0,0,0,1.71E+09,0, 2024-03-05 16:19:23.079
152,25698.38175,17486.19437,11740.49964,-6814.532794,8543.484931,28281.10347,-7224.843767,4966.669377,0.156,0.9,0.346,192,0,0,0,0,0,0,0,0,0,1.71E+09,0, 2024-03-05 16:19:23.079
153,24425.29344,17517.77739,11681.6475,-7010.110558,8399.874973,27927.02948,-7213.377322,4978.605208,0.156,0.9,0.346,192,0,0,0,0,0,0,0,0,0,1.71E+09,0, 2024-03-05 16:19:23.079
154,25157.96127,17543.16897,11724.62991,-6950.185531,8240.797608,27567.36756,-7228.08477,4959.092135,0.156,0.9,0.346,192,0,0,0,0,0,0,0,0,0,1.71E+09,0, 2024-03-05 16:19:23.079
155,26861.96886,17528.43917,11791.48397,-6754.853637,8258.723707,27635.31686,-7243.127494,4940.808408,0.156,0.9,0.346,192,0,0,0,0,0,0,0,0,0,1.71E+09,0, 2024-03-05 16:19:23.079
156,27250.7104,17488.80952,11809.14185,-6646.470028,8470.238265,28128.12813,-7242.278128,4940.942519,0.156,0.9,0.346,192,0,0,0,0,0,0,0,0,0,1.71E+09,0, 2024-03-05 16:19:23.079
157,25709.71408,17495.82797,11752.18961,-6810.822405,8554.571397,28281.28228,-7208.415235,4977.889952,0.154,0.894,0.342,192,4,208,27,240,10,176,0,0,0,1.71E+09,0, 2024-03-05 16:19:23.079
158,24422.87945,17535.927,11698.00898,-6998.644113,8409.083892,27926.96243,-7191.986703,4999.727607,0.154,0.894,0.342,192,0,0,0,0,0,0,0,0,0,1.71E+09,0, 2024-03-05 16:19:23.079
159,25129.77572,17558.9493,11735.93989,-6944.329374,8236.796646,27553.91181,-7210.985686,4973.3749,0.154,0.894,0.342,192,0,0,0,0,0,0,0,0,0,1.71E+09,0, 2024-03-05 16:19:23.079
160,26831.27991,17534.38473,11793.00389,-6753.847808,8249.715954,27621.727,-7235.863177,4946.821028,0.154,0.894,0.342,192,0,0,0,0,0,0,0,0,0,1.71E+09,0, 2024-03-05 16:19:23.079
161,27229.29743,17490.79883,11808.73952,-6644.637185,8462.571616,28119.45565,-7239.551215,4942.484789,0.154,0.894,0.342,192,0,0,0,0,0,0,0,0,0,1.71E+09,0, 2024-03-05 16:19:23.079
162,25705.5343,17483.60157,11734.75525,-6817.639687,8538.232271,28280.83524,-7222.765055,4956.119353,0.154,0.894,0.342,192,0,0,0,0,0,0,0,0,0,1.71E+09,0, 2024-03-05 16:19:23.079
163,24405.93683,17525.46639,11679.94877,-7013.46332,8391.2472,27912.90318,-7204.302514,4983.142612,0.154,0.894,0.342,192,0,0,0,0,0,0,0,0,0,1.71E+09,0, 2024-03-05 16:19:23.079
164,25113.4813,17547.52756,11726.03807,-6949.850255,8232.728628,27546.82631,-7220.507529,4968.993958,0.154,0.894,0.342,192,0,0,0,0,0,0,0,0,0,1.71E+09,0, 2024-03-05 16:19:23.079
165,26810.60455,17528.32741,11791.75219,-6755.92652,8255.505056,27611.10993,-7237.427799,4943.937653,0.154,0.894,0.342,192,0,0,0,0,0,0,0,0,0,1.71E+09,0, 2024-03-05 16:19:23.079
166,27216.02049,17491.31292,11813.54515,-6640.390353,8476.07207,28113.37598,-7232.577471,4953.213627,0.154,0.894,0.342,192,0,0,0,0,0,0,0,0,0,1.71E+09,0, 2024-03-05 16:19:23.079
167,25691.98915,17498.64429,11756.43644,-6800.361788,8562.796839,28274.91203,-7200.323904,4995.212554,0.152,0.896,0.336,192,4,192,28,0,10,128,0,0,0,1.71E+09,0, 2024-03-05 16:19:23.079
168,24396.54909,17528.238,11687.03427,-7001.885116,8410.067369,27916.61357,-7196.546459,4996.866583,0.152,0.896,0.336,192,0,0,0,0,0,0,0,0,0,1.71E+09,0, 2024-03-05 16:19:23.079
169,25092.64947,17550.50034,11730.88839,-6947.525674,8243.546873,27543.4512,-7211.969162,4971.989092,0.152,0.896,0.336,192,0,0,0,0,0,0,0,0,0,1.71E+09,0, 2024-03-05 16:19:23.079
170,26816.34895,17520.59371,11789.51702,-6753.065497,8262.791725,27618.88833,-7241.562872,4938.617937,0.152,0.896,0.336,192,0,0,0,0,0,0,0,0,0,1.71E+09,0, 2024-03-05 16:19:23.079
171,27211.99718,17483.44511,11805.63263,-6649.129885,8467.153724,28103.4965,-7236.041991,4946.038717,0.152,0.896,0.336,192,0,0,0,0,0,0,0,0,0,1.71E+09,0, 2024-03-05 16:19:23.079
172,25692.79381,17486.32848,11748.05453,-6809.146024,8552.962071,28271.29105,-7209.152843,4980.192182,0.152,0.896,0.336,192,0,0,0,0,0,0,0,0,0,1.71E+09,0, 2024-03-05 16:19:23.079
173,24401.68999,17523.0971,11691.99636,-6998.59941,8411.520232,27924.43668,-7199.698055,4989.691673,0.152,0.896,0.336,192,0,0,0,0,0,0,0,0,0,1.71E+09,0, 2024-03-05 16:19:23.079
174,25112.31901,17543.30308,11726.86508,-6941.71422,8249.335974,27567.38991,-7220.999267,4960.544999,0.152,0.896,0.336,192,0,0,0,0,0,0,0,0,0,1.71E+09,0, 2024-03-05 16:19:23.079
175,26821.78042,17523.72295,11788.82412,-6753.668994,8264.691623,27624.40921,-7239.327698,4942.283623,0.152,0.896,0.336,192,0,0,0,0,0,0,0,0,0,1.71E+09,0, 2024-03-05 16:19:23.079
176,27229.67741,17488.65306,11811.91347,-6638.490455,8474.730965,28114.51591,-7233.002154,4950.196141,0.152,0.896,0.336,192,0,0,0,0,0,0,0,0,0,1.71E+09,0, 2024-03-05 16:19:23.079
177,25712.06101,17483.62392,11739.2703,-6806.195594,8551.15158,28280.2094,-7214.181985,4967.585798,0.152,0.896,0.338,192,4,192,28,0,10,144,0,0,0,1.71E+09,0, 2024-03-05 16:19:23.079
178,24428.02035,17514.02229,11673.06443,-6999.269962,8405.753482,27943.43566,-7209.801043,4978.381691,0.152,0.896,0.338,192,0,0,0,0,0,0,0,0,0,1.71E+09,0, 2024-03-05 16:19:23.079
179,25111.71551,17552.66846,11725.144,-6942.764752,8246.72082,27565.62413,-7215.120758,4978.158173,0.152,0.896,0.338,192,0,0,0,0,0,0,0,0,0,1.71E+09,0, 2024-03-05 16:19:23.079
180,26820.8193,17538.98919,11800.1341,-6739.632099,8273.900542,27626.33146,-7224.821416,4966.624673,0.152,0.896,0.338,192,0,0,0,0,0,0,0,0,0,1.71E+09,0, 2024-03-05 16:19:23.079
181,27248.02819,17496.92321,11814.70744,-6624.386504,8484.386919,28126.33999,-7227.838901,4962.087269,0.152,0.896,0.338,192,0,0,0,0,0,0,0,0,0,1.71E+09,0, 2024-03-05 16:19:23.079
182,25723.01337,17497.05732,11749.61916,-6794.975018,8556.068964,28282.26576,-7208.86227,4982.114432,0.152,0.896,0.338,192,0,0,0,0,0,0,0,0,0,1.71E+09,0, 2024-03-05 16:19:23.079
183,24425.56166,17528.21565,11689.20239,-6988.675235,8413.375427,27939.30059,-7203.4755,4982.226191,0.152,0.896,0.338,192,0,0,0,0,0,0,0,0,0,1.71E+09,0, 2024-03-05 16:19:23.079
184,25113.34719,17543.45954,11719.4443,-6943.815284,8246.497303,27564.23832,-7229.135302,4945.166999,0.152,0.896,0.338,192,0,0,0,0,0,0,0,0,0,1.71E+09,0, 2024-03-05 16:19:23.079
185,26821.89218,17524.75113,11786.07485,-6751.232654,8266.904446,27619.58124,-7235.192625,4939.646118,0.152,0.896,0.338,192,0,0,0,0,0,0,0,0,0,1.71E+09,0, 2024-03-05 16:19:23.079
186,27262.02038,17487.58018,11814.52862,-6628.789798,8489.728986,28125.1777,-7225.223747,4954.28651,0.152,0.896,0.338,192,0,0,0,0,0,0,0,0,0,1.71E+09,0, 2024-03-05 16:19:23.079
187,25768.43211,17483.60157,11748.8592,-6788.872992,8579.113612,28308.97609,-7209.041084,4971.698519,0.154,0.896,0.338,192,4,208,28,0,10,144,0,0,0,1.71E+09,0, 2024-03-05 16:19:23.079
188,24471.80742,17516.74921,11682.72038,-6987.334131,8430.496863,27972.96232,-7200.14509,4985.064862,0.154,0.896,0.338,192,0,0,0,0,0,0,0,0,0,1.71E+09,0, 2024-03-05 16:19:23.079
189,25134.49194,17547.57226,11726.68627,-6939.747267,8256.354422,27582.07501,-7210.248078,4970.826801,0.154,0.896,0.338,192,0,0,0,0,0,0,0,0,0,1.71E+09,0, 2024-03-05 16:19:23.079
190,26826.29547,17534.83177,11796.40136,-6747.365802,8274.571094,27618.62011,-7219.412293,4955.068821,0.154,0.896,0.338,192,0,0,0,0,0,0,0,0,0,1.71E+09,0, 2024-03-05 16:19:23.079
191,27242.10498,17487.02139,11813.34398,-6634.802417,8487.359701,28100.99311,-7226.766017,4951.20197,0.154,0.896,0.338,192,0,0,0,0,0,0,0,0,0,1.71E+09,0, 2024-03-05 16:19:23.079
192,25741.69943,17475.26437,11739.09148,-6802.440501,8565.63551,28280.87995,-7213.444378,4971.765574,0.154,0.896,0.338,192,0,0,0,0,0,0,0,0,0,1.71E+09,0, 2024-03-05 16:19:23.079
193,24418.38675,17521.37602,11690.18587,-6995.984256,8418.628087,27931.36572,-7191.830241,4994.586706,0.154,0.896,0.338,192,0,0,0,0,0,0,0,0,0,1.71E+09,0, 2024-03-05 16:19:23.079
194,25091.59894,17548.26516,11733.74942,-6937.623851,8255.862684,27559.11977,-7207.45411,4975.118336,0.154,0.896,0.338,192,0,0,0,0,0,0,0,0,0,1.71E+09,0, 2024-03-05 16:19:23.079
195,26807.74353,17523.54414,11794.59087,-6743.856578,8274.593446,27618.35189,-7226.609555,4949.838513,0.154,0.896,0.338,192,0,0,0,0,0,0,0,0,0,1.71E+09,0, 2024-03-05 16:19:23.079
196,27248.47522,17477.54425,11807.1749,-6634.310679,8481.436489,28113.77831,-7231.661049,4949.637347,0.154,0.896,0.338,192,0,0,0,0,0,0,0,0,0,1.71E+09,0, 2024-03-05 16:19:23.079
197,25736.71499,17482.28282,11745.7076,-6795.533812,8562.640376,28284.0986,-7202.20145,4982.025025,0.152,0.894,0.344,192,4,192,27,240,10,192,0,0,0,1.71E+09,0, 2024-03-05 16:19:23.079
198,24424.06409,17517.55387,11687.63777,-6989.546953,8422.539642,27946.25198,-7189.595066,4993.066787,0.152,0.894,0.344,192,0,0,0,0,0,0,0,0,0,1.71E+09,0, 2024-03-05 16:19:23.079
199,25107.1334,17541.09025,11731.87187,-6932.058267,8264.199884,27580.6892,-7204.771901,4977.509973,0.152,0.894,0.344,192,0,0,0,0,0,0,0,0,0,1.71E+09,0, 2024-03-05 16:19:23.079
200,26833.06805,17515.98925,11788.66765,-6747.276395,8273.520562,27632.63466,-7232.599823,4947.290414,0.152,0.894,0.344,192,0,0,0,0,0,0,0,0,0,1.71E+09,0, 2024-03-05 16:19:23.079
201,27258.66762,17479.31003,11807.37606,-6641.50794,8478.687224,28106.0446,-7228.643564,4952.453667,0.152,0.894,0.344,192,0,0,0,0,0,0,0,0,0,1.71E+09,0, 2024-03-05 16:19:23.079
202,25752.78589,17483.80273,11747.6075,-6799.423015,8563.288577,28285.70793,-7204.906011,4981.890915,0.152,0.894,0.344,192,0,0,0,0,0,0,0,0,0,1.71E+09,0, 2024-03-05 16:19:23.123
203,24437.45279,17522.71712,11689.67178,-6991.200982,8418.069293,27949.38123,-7196.837031,4991.18924,0.152,0.894,0.344,192,0,0,0,0,0,0,0,0,0,1.71E+09,0, 2024-03-05 16:19:23.123
204,25094.52702,17549.13688,11727.49093,-6942.652994,8251.884073,27566.13822,-7208.795215,4976.526496,0.152,0.894,0.344,192,0,0,0,0,0,0,0,0,0,1.71E+09,0, 2024-03-05 16:19:23.123
205,26806.00009,17526.87455,11793.40622,-6747.34345,8267.21737,27613.54627,-7226.274279,4952.073688,0.152,0.894,0.344,192,0,0,0,0,0,0,0,0,0,1.71E+09,0, 2024-03-05 16:19:23.123
206,27261.77451,17479.69001,11805.47617,-6635.830597,8471.668776,28109.62088,-7228.97884,4952.990109,0.152,0.894,0.344,192,0,0,0,0,0,0,0,0,0,1.71E+09,0, 2024-03-05 16:19:23.123
207,25743.57697,17486.01556,11746.82519,-6796.986675,8555.64428,28277.7507,-7193.953656,4992.552697,0.152,0.888,0.346,192,4,192,27,192,10,208,0,0,0,1.71E+09,0, 2024-03-05 16:19:23.123
208,24428.28857,17519.11849,11682.69803,-6989.658712,8415.744712,27949.04595,-7191.316151,4996.151328,0.152,0.888,0.346,192,0,0,0,0,0,0,0,0,0,1.71E+09,0, 2024-03-05 16:19:23.123
209,25077.60675,17547.90754,11726.64156,-6946.475142,8247.972518,27565.3112,-7208.616401,4976.32533,0.152,0.888,0.346,192,0,0,0,0,0,0,0,0,0,1.71E+09,0, 2024-03-05 16:19:23.123
210,26807.85529,17531.56841,11796.20019,-6746.292918,8272.09005,27623.60455,-7222.496834,4962.467249,0.152,0.888,0.346,192,0,0,0,0,0,0,0,0,0,1.71E+09,0, 2024-03-05 16:19:23.123
211,27245.23422,17491.6482,11818.01549,-6633.349554,8474.619207,28100.38961,-7219.300535,4967.943426,0.152,0.888,0.346,192,0,0,0,0,0,0,0,0,0,1.71E+09,0, 2024-03-05 16:19:23.645
212,25750.90835,17474.68322,11745.30527,-6797.746634,8550.235158,28284.88091,-7209.868098,4975.945351,0.152,0.888,0.346,192,0,0,0,0,0,0,0,0,0,1.71E+09,0, 2024-03-05 16:19:23.645
213,24423.88528,17509.32843,11680.26169,-6999.940515,8406.960476,27946.94489,-7200.547421,4985.534249,0.152,0.888,0.346,192,0,0,0,0,0,0,0,0,0,1.71E+09,0, 2024-03-05 16:19:23.645
214,25071.90705,17536.68696,11723.62408,-6953.560645,8247.033745,27560.90791,-7212.997343,4966.915246,0.152,0.888,0.346,192,0,0,0,0,0,0,0,0,0,1.71E+09,0, 2024-03-05 16:19:23.645
215,26812.95148,17509.37313,11777.7153,-6761.067422,8265.049251,27616.65316,-7233.113913,4941.568368,0.152,0.888,0.346,192,0,0,0,0,0,0,0,0,0,1.71E+09,0, 2024-03-05 16:19:23.645
216,27260.81339,17483.46746,11806.32553,-6643.139618,8474.954483,28098.13209,-7216.081883,4959.628577,0.152,0.888,0.346,192,0,0,0,0,0,0,0,0,0,1.71E+09,0, 2024-03-05 16:19:23.645
217,25741.47591,17484.47329,11744.74648,-6802.149928,8555.733687,28267.96064,-7196.099424,4980.013368,0.15,0.888,0.346,192,4,176,27,192,10,208,0,0,0,1.71E+09,0, 2024-03-05 16:19:23.645
218,24400.81828,17520.86193,11687.14603,-6994.687855,8416.75054,27929.53288,-7189.796232,4991.70333,0.15,0.888,0.346,192,0,0,0,0,0,0,0,0,0,1.71E+09,0, 2024-03-05 16:19:23.645
219,25067.21319,17542.29725,11727.80385,-6941.088371,8259.506018,27567.27815,-7210.493947,4969.373938,0.15,0.888,0.346,192,0,0,0,0,0,0,0,0,0,1.71E+09,0, 2024-03-05 16:19:23.645
220,26815.14195,17521.13015,11784.21966,-6753.154904,8271.285387,27621.77171,-7230.90109,4946.865731,0.15,0.888,0.346,192,0,0,0,0,0,0,0,0,0,1.71E+09,0, 2024-03-05 16:19:23.645
221,27263.67441,17485.27795,11805.52087,-6639.339821,8472.629901,28097.0145,-7227.615384,4957.303996,0.15,0.888,0.346,192,0,0,0,0,0,0,0,0,0,1.71E+09,0, 2024-03-05 16:19:23.645
222,25758.21737,17474.95144,11734.95641,-6800.093567,8553.610272,28276.96839,-7216.014828,4976.19122,0.15,0.888,0.346,192,0,0,0,0,0,0,0,0,0,1.71E+09,0, 2024-03-05 16:19:23.645
223,24423.72881,17515.60927,11676.14897,-6990.753948,8420.304468,27949.18006,-7199.183965,4992.172717,0.15,0.888,0.346,192,0,0,0,0,0,0,0,0,0,1.71E+09,0, 2024-03-05 16:19:23.645
224,25059.12185,17539.27976,11715.80097,-6949.134999,8254.879207,27562.7631,-7210.002209,4970.312711,0.15,0.888,0.346,192,0,0,0,0,0,0,0,0,0,1.71E+09,0, 2024-03-05 16:19:23.645
225,26798.62401,17517.37505,11782.05154,-6754.920692,8268.089088,27612.22751,-7229.381171,4944.630557,0.15,0.888,0.346,192,0,0,0,0,0,0,0,0,0,1.71E+09,0, 2024-03-05 16:19:23.645
226,27285.3109,17475.57729,11798.39066,-6638.401048,8474.999186,28111.47608,-7232.957451,4946.642214,0.15,0.888,0.346,192,0,0,0,0,0,0,0,0,0,1.71E+09,0, 2024-03-05 16:19:23.645
227,25789.24159,17475.75611,11732.16244,-6800.987637,8558.929987,28290.02181,-7211.902107,4974.894819,0.152,0.89,0.342,192,4,192,27,208,10,176,0,0,0,1.71E+09,0, 2024-03-05 16:19:23.645
228,24432.08837,17511.49655,11666.69418,-7003.427387,8415.789415,27939.70292,-7205.844784,4981.332121,0.152,0.89,0.342,192,0,0,0,0,0,0,0,0,0,1.71E+09,0, 2024-03-05 16:19:23.645
229,25067.61552,17536.4858,11707.01673,-6953.270072,8255.885036,27554.73883,-7225.022581,4964.858885,0.152,0.89,0.342,192,0,0,0,0,0,0,0,0,0,1.71E+09,0, 2024-03-05 16:19:23.645
230,26808.30232,17516.07865,11769.48986,-6759.301634,8268.357309,27599.71054,-7250.682384,4936.226301,0.152,0.89,0.342,192,0,0,0,0,0,0,0,0,0,1.71E+09,0, 2024-03-05 16:19:23.645
231,27311.6189,17473.85621,11790.56755,-6634.19892,8481.458841,28104.1,-7246.65907,4939.333193,0.152,0.89,0.342,192,0,0,0,0,0,0,0,0,0,1.71E+09,0, 2024-03-05 16:19:23.645
232,25801.08801,17481.03112,11728.83203,-6799.043035,8563.266225,28273.63798,-7214.539613,4977.264104,0.152,0.89,0.342,192,0,0,0,0,0,0,0,0,0,1.71E+09,0, 2024-03-05 16:19:23.645
233,24432.26718,17518.96203,11667.02946,-6995.470166,8425.8477,27925.62132,-7202.290857,4985.28838,0.152,0.89,0.342,192,0,0,0,0,0,0,0,0,0,1.71E+09,0, 2024-03-05 16:19:23.645
234,25072.51055,17540.62087,11706.74851,-6944.821113,8270.324262,27546.93807,-7219.255831,4957.48281,0.152,0.89,0.342,192,0,0,0,0,0,0,0,0,0,1.71E+09,0, 2024-03-05 16:19:23.645
235,26806.31301,17520.79487,11767.36644,-6754.674823,8281.433079,27588.17704,-7241.78639,4939.400248,0.152,0.89,0.342,192,0,0,0,0,0,0,0,0,0,1.71E+09,0, 2024-03-05 16:19:23.645
236,27301.02417,17484.92032,11794.09913,-6629.795626,8498.066187,28089.45961,-7239.394753,4950.978452,0.152,0.89,0.342,192,0,0,0,0,0,0,0,0,0,1.71E+09,0, 2024-03-05 16:19:23.645
237,25800.03748,17490.30709,11735.24698,-6788.805936,8584.20981,28273.48152,-7211.320962,4983.276723,0.15,0.892,0.346,192,4,176,27,224,10,208,0,0,0,1.71E+09,0, 2024-03-05 16:19:23.645
238,24435.55289,17521.04074,11672.39388,-6990.731596,8439.079933,27933.73501,-7207.342351,4984.282551,0.15,0.892,0.346,192,0,0,0,0,0,0,0,0,0,1.71E+09,0, 2024-03-05 16:19:23.645
239,25072.97994,17544.73359,11712.73878,-6940.68604,8279.153201,27561.08672,-7224.173215,4959.762688,0.15,0.892,0.346,192,0,0,0,0,0,0,0,0,0,1.71E+09,0, 2024-03-05 16:19:23.645
240,26825.17789,17520.28078,11769.73573,-6753.177256,8293.860649,27612.7416,-7249.430686,4926.704458,0.15,0.892,0.346,192,0,0,0,0,0,0,0,0,0,1.71E+09,0, 2024-03-05 16:19:23.645
241,27328.06979,17479.42179,11793.33917,-6631.784932,8503.251791,28105.44111,-7246.547311,4938.439123,0.15,0.892,0.346,192,0,0,0,0,0,0,0,0,0,1.71E+09,0, 2024-03-05 16:19:23.645
242,25818.96941,17484.40623,11733.30238,-6791.130518,8587.339054,28277.48248,-7217.914726,4976.235923,0.15,0.892,0.346,192,0,0,0,0,0,0,0,0,0,1.71E+09,0, 2024-03-05 16:19:23.645
243,24469.77341,17521.46542,11676.73012,-6978.527543,8455.240244,27952.51047,-7206.113005,4990.339874,0.15,0.892,0.346,192,0,0,0,0,0,0,0,0,0,1.71E+09,0, 2024-03-05 16:19:23.645
244,25080.37836,17548.93572,11714.07988,-6935.746304,8287.691568,27558.56097,-7219.36759,4970.335063,0.15,0.892,0.346,192,0,0,0,0,0,0,0,0,0,1.71E+09,0, 2024-03-05 16:19:23.645
245,26809.44226,17534.76471,11782.07389,-6741.174369,8297.056949,27592.89325,-7237.070171,4951.671356,0.15,0.892,0.346,192,0,0,0,0,0,0,0,0,0,1.71E+09,0, 2024-03-05 16:19:23.645
246,27307.90851,17495.51505,11803.15158,-6618.44094,8503.497661,28082.24,-7238.366573,4954.442972,0.15,0.892,0.346,192,0,0,0,0,0,0,0,0,0,1.71E+09,0, 2024-03-05 16:19:23.645
247,25821.98689,17491.6482,11735.17993,-6778.412375,8588.233124,28274.59911,-7222.541538,4971.989092,0.158,0.888,0.35,192,4,240,27,192,10,240,0,0,0,1.71E+09,0, 2024-03-05 16:19:23.645
248,24471.15922,17516.36923,11667.49885,-6981.165049,8450.434619,27949.80591,-7218.384113,4968.412813,0.158,0.888,0.35,192,0,0,0,0,0,0,0,0,0,1.71E+09,0, 2024-03-05 16:19:23.645
249,25079.23842,17542.25255,11707.24025,-6942.720049,8284.159992,27559.90208,-7227.838901,4960.81322,0.158,0.888,0.35,192,0,0,0,0,0,0,0,0,0,1.71E+09,0, 2024-03-05 16:19:23.645
250,26807.81058,17526.80749,11776.88828,-6750.204474,8296.207582,27593.98849,-7238.411276,4959.673281,0.158,0.888,0.35,192,0,0,0,0,0,0,0,0,0,1.71E+09,0, 2024-03-05 16:19:23.645
251,27319.82199,17482.55104,11793.96502,-6627.046362,8505.643428,28085.90568,-7241.875797,4951.760763,0.158,0.888,0.35,192,0,0,0,0,0,0,0,0,0,1.71E+09,0, 2024-03-05 16:19:23.645
252,25821.4281,17481.43345,11725.30046,-6788.515364,8589.08249,28268.65354,-7219.524052,4975.990054,0.158,0.888,0.35,192,0,0,0,0,0,0,0,0,0,1.71E+09,0, 2024-03-05 16:19:23.645
253,24446.97463,17519.63258,11668.70584,-6982.215581,8455.463762,27932.03627,-7207.9682,4986.83065,0.158,0.888,0.35,192,0,0,0,0,0,0,0,0,0,1.71E+09,0, 2024-03-05 16:19:23.645
254,25056.88668,17547.59461,11712.17998,-6937.132113,8301.057911,27547.02747,-7219.635811,4966.982301,0.158,0.888,0.35,192,0,0,0,0,0,0,0,0,0,1.71E+09,0, 2024-03-05 16:19:23.645
255,26797.12645,17527.41099,11781.04571,-6740.459113,8315.497138,27586.83593,-7235.170273,4949.302071,0.158,0.888,0.35,192,0,0,0,0,0,0,0,0,0,1.71E+09,0, 2024-03-05 16:19:23.645
0,27322.39244,17482.43928,11796.75899,-6620.027914,8520.90967,28085.16807,-7237.092523,4949.011499,0.158,0.888,0.35,192,0,0,0,0,0,0,0,0,0,1.71E+09,0, 2024-03-05 16:19:23.645
1,25823.68563,17486.35083,11735.87283,-6781.429861,8603.05233,28265.30078,-7210.292782,4983.187316,0.156,0.89,0.352,192,4,224,27,208,11,0,0,0,0,1.71E+09,0, 2024-03-05 16:19:23.645
2,24465.21365,17513.48585,11668.68349,-6979.891,8466.550227,27947.03429,-7209.041084,4985.690711,0.156,0.89,0.352,192,0,0,0,0,0,0,0,0,0,1.71E+09,0, 2024-03-05 16:19:23.645
3,25065.5368,17539.59269,11705.58622,-6943.658822,8298.956847,27558.62803,-7224.128511,4967.675205,0.156,0.89,0.352,192,0,0,0,0,0,0,0,0,0,1.71E+09,0, 2024-03-05 16:19:23.645
4,26796.16532,17522.87358,11773.89315,-6751.545578,8309.88685,27587.95352,-7237.293689,4947.62569,0.156,0.89,0.352,192,0,0,0,0,0,0,0,0,0,1.71E+09,0, 2024-03-05 16:19:23.645
5,27314.34581,17482.08165,11793.24976,-6629.795626,8513.913573,28075.02038,-7232.935099,4951.090211,0.156,0.89,0.352,192,0,0,0,0,0,0,0,0,0,1.71E+09,0, 2024-03-05 16:19:23.645
6,25820.37757,17481.43345,11730.06138,-6790.124689,8594.782185,28256.91888,-7212.282087,4980.594513,0.156,0.89,0.352,192,0,0,0,0,0,0,0,0,0,1.71E+09,0, 2024-03-05 16:19:23.645
7,24444.80651,17514.31287,11666.13539,-6987.803517,8455.195541,27929.64464,-7208.303476,4982.963798,0.156,0.89,0.352,192,0,0,0,0,0,0,0,0,0,1.71E+09,0, 2024-03-05 16:19:23.645
8,25040.32404,17541.80551,11703.66397,-6946.07281,8293.011283,27542.08774,-7225.469616,4960.05326,0.156,0.89,0.352,192,0,0,0,0,0,0,0,0,0,1.71E+09,0, 2024-03-05 16:19:23.645
9,26771.26548,17525.17581,11769.48986,-6754.00427,8303.494251,27570.3627,-7242.680459,4939.601414,0.156,0.89,0.352,192,0,0,0,0,0,0,0,0,0,1.71E+09,0, 2024-03-05 16:19:23.645
10,27302.11941,17482.28282,11792.91449,-6628.745094,8513.958277,28063.68805,-7241.54052,4945.256406,0.156,0.89,0.352,192,0,0,0,0,0,0,0,0,0,1.71E+09,0, 2024-03-05 16:19:23.645
11,25832.06753,17476.06903,11721.18774,-6791.354035,8602.292371,28261.52334,-7222.273317,4969.709214,0.154,0.896,0.348,192,4,208,28,0,10,224,0,0,0,1.71E+09,0, 2024-03-05 16:19:23.645
12,24461.90559,17513.44115,11657.41821,-6986.618875,8465.834971,27943.50272,-7208.571697,4978.784022,0.154,0.896,0.348,192,0,0,0,0,0,0,0,0,0,1.71E+09,0, 2024-03-05 16:19:23.645
13,25045.75551,17540.39735,11699.93123,-6944.485837,8293.704187,27553.71065,-7223.569718,4957.505161,0.154,0.896,0.348,192,0,0,0,0,0,0,0,0,0,1.71E+09,0, 2024-03-05 16:19:23.645
14,26798.60166,17512.43532,11762.00202,-6751.970262,8302.756644,27596.46953,-7251.934082,4924.312821,0.154,0.896,0.348,192,0,0,0,0,0,0,0,0,0,1.71E+09,0, 2024-03-05 16:19:23.645
15,27324.58291,17470.14582,11776.88828,-6639.31747,8496.70273,28075.75799,-7255.711526,4924.893966,0.154,0.896,0.348,192,0,0,0,0,0,0,0,0,0,1.71E+09,0, 2024-03-05 16:19:23.645
16,25837.16373,17472.55981,11717.00796,-6796.718454,8585.841487,28260.60692,-7227.794198,4959.248598,0.154,0.896,0.348,192,0,0,0,0,0,0,0,0,0,1.71E+09,0, 2024-03-05 16:19:23.645
17,24452.80843,17514.17875,11662.24619,-6988.675235,8459.844704,27937.37834,-7206.113005,4991.792737,0.154,0.896,0.348,192,0,0,0,0,0,0,0,0,0,1.71E+09,0, 2024-03-05 16:19:23.645
18,25040.68167,17539.21271,11705.02743,-6938.808493,8305.215336,27553.86711,-7219.904032,4971.385595,0.154,0.896,0.348,192,0,0,0,0,0,0,0,0,0,1.71E+09,0, 2024-03-05 16:19:23.645
19,26783.0225,17521.1525,11765.89123,-6747.879892,8309.775091,27588.22174,-7245.720297,4941.970699,0.154,0.896,0.348,192,0,0,0,0,0,0,0,0,0,1.71E+09,0, 2024-03-05 16:19:23.645
20,27320.64901,17486.97668,11791.8863,-6621.860757,8507.72214,28074.88627,-7244.066267,4942.551844,0.154,0.896,0.348,192,0,0,0,0,0,0,0,0,0,1.71E+09,0, 2024-03-05 16:19:23.645
21,25838.12485,17482.41693,11722.79706,-6783.843849,8592.368197,28264.47377,-7222.899165,4967.362281,0.154,0.896,0.348,192,0,0,0,0,0,0,0,0,0,1.71E+09,0, 2024-03-05 16:19:23.645
22,24468.14173,17514.1564,11660.77097,-6978.013453,8467.489,27955.28209,-7210.538651,4982.494412,0.154,0.89,0.348,192,4,208,27,208,10,224,0,0,0,1.71E+09,0, 2024-03-05 16:19:23.645
23,25035.69723,17541.89492,11698.74659,-6944.754057,8296.319341,27554.02357,-7221.535709,4963.562484,0.154,0.89,0.348,192,0,0,0,0,0,0,0,0,0,1.71E+09,0, 2024-03-05 16:19:23.645
24,26750.56776,17529.60146,11768.8193,-6754.339546,8298.599219,27568.59691,-7231.79516,4951.112563,0.154,0.89,0.348,192,0,0,0,0,0,0,0,0,0,1.71E+09,0, 2024-03-05 16:19:23.645
25,27302.49939,17483.02042,11792.86978,-6622.374847,8503.050626,28064.02332,-7236.645488,4951.20197,0.154,0.89,0.348,192,0,0,0,0,0,0,0,0,0,1.71E+09,0, 2024-03-05 16:19:23.645
26,25833.20747,17477.87952,11723.13234,-6783.508573,8587.093185,28263.64675,-7218.09354,4977.129993,0.154,0.89,0.348,192,0,0,0,0,0,0,0,0,0,1.71E+09,0, 2024-03-05 16:19:23.645
27,24433.80945,17514.46933,11662.53676,-6984.517811,8454.41323,27936.41721,-7205.39775,4988.037644,0.154,0.89,0.348,192,0,0,0,0,0,0,0,0,0,1.71E+09,0, 2024-03-05 16:19:23.645
28,25017.27939,17534.89882,11698.36661,-6942.004793,8294.151222,27553.86711,-7226.184872,4958.354528,0.154,0.89,0.348,192,0,0,0,0,0,0,0,0,0,1.71E+09,0, 2024-03-05 16:19:23.645
29,26767.48803,17509.82016,11752.56959,-6756.664128,8296.453452,27586.65712,-7256.695003,4923.552862,0.154,0.89,0.348,192,0,0,0,0,0,0,0,0,0,1.71E+09,0, 2024-03-05 16:19:23.645
30,27325.32052,17478.93005,11786.90187,-6625.973478,8501.888335,28069.4995,-7245.005041,4939.556711,0.154,0.89,0.348,192,0,0,0,0,0,0,0,0,0,1.71E+09,0, 2024-03-05 16:19:23.645
31,25851.87117,17486.70846,11726.37334,-6782.145117,8591.407072,28257.45532,-7212.32679,4978.426394,0.154,0.89,0.348,192,0,0,0,0,0,0,0,0,0,1.71E+09,0, 2024-03-05 16:19:23.645
32,24453.30017,17522.4489,11669.68932,-6974.995968,8462.504561,27941.04403,-7200.301552,4994.050264,0.158,0.896,0.34,192,4,240,28,0,10,160,0,0,0,1.71E+09,0, 2024-03-05 16:19:23.646
33,25031.96448,17547.25934,11707.08379,-6932.974688,8300.65558,27560.23736,-7216.864194,4971.877333,0.158,0.896,0.34,192,0,0,0,0,0,0,0,0,0,1.71E+09,0, 2024-03-05 16:19:23.646
34,26764.47055,17526.13694,11763.6784,-6752.171427,8296.006417,27572.28495,-7239.327698,4942.417734,0.158,0.896,0.34,192,0,0,0,0,0,0,0,0,0,1.71E+09,0, 2024-03-05 16:19:23.646
35,27330.1932,17468.96118,11776.10597,-6634.958879,8488.767861,28055.21674,-7252.895207,4928.358487,0.158,0.896,0.34,192,0,0,0,0,0,0,0,0,0,1.71E+09,0, 2024-03-05 16:19:23.646
36,25875.04993,17461.07101,11704.69215,-6797.701931,8571.558722,28257.54473,-7238.143055,4949.03385,0.158,0.896,0.34,192,0,0,0,0,0,0,0,0,0,1.71E+09,0, 2024-03-05 16:19:23.646
37,24469.59459,17503.38286,11651.13737,-6995.40311,8442.87973,27933.95852,-7217.087712,4967.317577,0.158,0.896,0.34,192,0,0,0,0,0,0,0,0,0,1.71E+09,0, 2024-03-05 16:19:23.646
38,25018.57579,17538.02807,11697.0255,-6951.414877,8285.389338,27537.37152,-7219.233479,4965.797659,0.158,0.896,0.34,192,0,0,0,0,0,0,0,0,0,1.71E+09,0, 2024-03-05 16:19:23.646
39,26756.44627,17518.09031,11758.24693,-6758.809895,8290.463184,27557.19752,-7238.478331,4943.289452,0.158,0.896,0.34,192,0,0,0,0,0,0,0,0,0,1.71E+09,0, 2024-03-05 16:19:23.646
40,27326.77338,17476.51607,11780.17399,-6630.35442,8492.008864,28044.4879,-7243.574529,4935.511045,0.158,0.896,0.34,192,0,0,0,0,0,0,0,0,0,1.71E+09,0, 2024-03-05 16:19:23.646
41,25862.30944,17476.11373,11718.30436,-6786.03432,8581.125269,28243.7984,-7220.552232,4958.689804,0.158,0.896,0.34,192,0,0,0,0,0,0,0,0,0,1.71E+09,0, 2024-03-05 16:19:23.646
42,24468.47701,17502.71231,11652.7914,-6986.417709,8451.306337,27939.14413,-7216.372456,4966.870542,0.16,0.898,0.336,192,5,0,28,16,10,128,0,0,0,1.71E+09,0, 2024-03-05 16:19:23.646
43,25019.84984,17529.4897,11690.52114,-6952.532465,8288.563286,27550.11202,-7222.474482,4961.215551,0.16,0.898,0.336,192,0,0,0,0,0,0,0,0,0,1.71E+09,0, 2024-03-05 16:19:23.646
44,26727.76898,17528.17095,11767.38879,-6763.973148,8293.793594,27542.91475,-7220.708695,4962.020214,0.16,0.898,0.336,192,0,0,0,0,0,0,0,0,0,1.71E+09,0, 2024-03-05 16:19:23.646
45,27297.02321,17482.93102,11791.70749,-6633.528368,8494.199335,28019.18572,-7230.990497,4946.910435,0.16,0.898,0.336,192,0,0,0,0,0,0,0,0,0,1.71E+09,0, 2024-03-05 16:19:23.646
46,25861.88476,17469.49762,11715.08571,-6788.291846,8581.438193,28237.22699,-7224.553195,4958.086307,0.16,0.898,0.336,192,0,0,0,0,0,0,0,0,0,1.71E+09,0, 2024-03-05 16:19:23.646
47,24456.07179,17508.25554,11654.71365,-6990.485727,8456.290776,27926.22482,-7209.845747,4981.309769,0.16,0.898,0.336,192,0,0,0,0,0,0,0,0,0,1.71E+09,0, 2024-03-05 16:19:23.646
48,24994.97235,17539.88326,11695.43853,-6954.991156,8292.497193,27529.01197,-7223.614421,4964.054223,0.16,0.898,0.336,192,0,0,0,0,0,0,0,0,0,1.71E+09,0, 2024-03-05 16:19:23.646
49,26739.86128,17526.27105,11760.01272,-6761.827381,8295.246457,27546.53574,-7236.623137,4944.02706,0.16,0.898,0.336,192,0,0,0,0,0,0,0,0,0,1.71E+09,0, 2024-03-05 16:19:23.646
50,27334.17181,17477.99128,11781.76096,-6629.728571,8499.474347,28038.94467,-7240.13236,4940.540187,0.16,0.898,0.336,192,0,0,0,0,0,0,0,0,0,1.71E+09,0, 2024-03-05 16:19:23.646
51,25884.54943,17475.55494,11717.63381,-6785.833154,8587.003778,28245.27362,-7220.418122,4966.378804,0.16,0.898,0.336,192,0,0,0,0,0,0,0,0,0,1.71E+09,0, 2024-03-05 16:19:23.646
52,24463.40316,17514.24581,11655.11598,-6987.244724,8455.284948,27928.37059,-7206.090654,4977.755842,0.158,0.9,0.332,192,4,240,28,32,10,96,0,0,0,1.71E+09,0, 2024-03-05 16:19:23.646
53,25002.01315,17540.03972,11691.59403,-6952.107781,8291.580771,27538.17618,-7222.787407,4973.173734,0.158,0.9,0.332,192,0,0,0,0,0,0,0,0,0,1.71E+09,0, 2024-03-05 16:19:23.646
54,26757.78738,17520.41489,11757.93401,-6759.569855,8300.230897,27563.52306,-7234.387962,4957.751031,0.158,0.9,0.332,192,0,0,0,0,0,0,0,0,0,1.71E+09,0, 2024-03-05 16:19:23.646
55,27337.79279,17480.67349,11782.56563,-6631.494359,8498.49087,28038.92231,-7233.784465,4957.035775,0.158,0.9,0.332,192,0,0,0,0,0,0,0,0,0,1.71E+09,0, 2024-03-05 16:19:23.646
56,25880.16848,17479.39944,11716.29271,-6783.352111,8583.606313,28236.7576,-7217.624154,4973.084327,0.158,0.9,0.332,192,0,0,0,0,0,0,0,0,0,1.71E+09,0, 2024-03-05 16:19:23.646
57,24460.49743,17508.76963,11648.9022,-6982.953189,8458.145971,27930.82928,-7205.755378,4981.779156,0.158,0.9,0.332,192,0,0,0,0,0,0,0,0,0,1.71E+09,0, 2024-03-05 16:19:23.646
58,24987.01513,17540.06207,11687.59307,-6951.973671,8294.240629,27535.82925,-7216.327753,4969.776269,0.158,0.9,0.332,192,0,0,0,0,0,0,0,0,0,1.71E+09,0, 2024-03-05 16:19:23.646
59,26728.39483,17527.99213,11757.93401,-6758.139343,8302.801347,27547.92154,-7225.335506,4958.6451,0.158,0.9,0.332,192,0,0,0,0,0,0,0,0,0,1.71E+09,0, 2024-03-05 16:19:23.646
60,27321.11839,17484.27212,11781.67156,-6624.699429,8505.375207,28034.13904,-7230.275241,4952.118391,0.158,0.9,0.332,192,0,0,0,0,0,0,0,0,0,1.71E+09,0, 2024-03-05 16:19:23.646
61,25890.47264,17476.33725,11716.96326,-6773.427936,8597.576153,28252.0462,-7214.718427,4970.513877,0.158,0.9,0.332,192,0,0,0,0,0,0,0,0,0,1.71E+09,0, 2024-03-05 16:19:23.646
62,24483.85501,17508.45671,11647.85166,-6976.56059,8467.779573,27954.61153,-7210.203375,4974.693653,0.154,0.892,0.334,192,4,208,27,224,10,112,0,0,0,1.71E+09,0, 2024-03-05 16:19:23.646
63,25004.24832,17540.82203,11687.25779,-6949.045592,8297.83926,27550.76022,-7223.569718,4955.940539,0.154,0.892,0.334,192,0,0,0,0,0,0,0,0,0,1.71E+09,0, 2024-03-05 16:19:23.646
64,26749.24901,17522.87358,11748.74744,-6761.782677,8294.821774,27558.38216,-7244.35684,4932.873539,0.154,0.892,0.334,192,0,0,0,0,0,0,0,0,0,1.71E+09,0, 2024-03-05 16:19:23.646
65,27332.65189,17482.97572,11778.13998,-6631.203786,8492.455899,28028.84168,-7240.937023,4944.898778,0.154,0.892,0.334,192,0,0,0,0,0,0,0,0,0,1.71E+09,0, 2024-03-05 16:19:23.646
66,25909.65043,17476.3596,11715.6445,-6776.914808,8587.115537,28256.38244,-7218.697038,4971.340891,0.154,0.892,0.334,192,0,0,0,0,0,0,0,0,0,1.71E+09,0, 2024-03-05 16:19:23.646
67,24489.37589,17512.2118,11655.40655,-6980.762718,8461.07405,27950.9235,-7203.564907,4988.372921,0.154,0.892,0.334,192,0,0,0,0,0,0,0,0,0,1.71E+09,0, 2024-03-05 16:19:23.646
68,24996.96165,17541.6714,11695.7291,-6950.923139,8296.654617,27542.2442,-7214.606668,4966.289397,0.154,0.892,0.334,192,0,0,0,0,0,0,0,0,0,1.71E+09,0, 2024-03-05 16:19:23.646
69,26739.57071,17525.06405,11755.02828,-6764.062555,8298.286295,27553.97887,-7237.427799,4938.796751,0.154,0.892,0.334,192,0,0,0,0,0,0,0,0,0,1.71E+09,0, 2024-03-05 16:19:23.646
70,27336.20582,17487.82605,11783.21383,-6630.667344,8492.835878,28025.9583,-7233.762113,4944.697612,0.154,0.892,0.334,192,0,0,0,0,0,0,0,0,0,1.71E+09,0, 2024-03-05 16:19:23.646
71,25895.56884,17475.0632,11712.20234,-6785.073195,8578.487763,28231.99668,-7218.652334,4963.406022,0.154,0.892,0.334,192,0,0,0,0,0,0,0,0,0,1.71E+09,0, 2024-03-05 16:19:23.646
72,24481.99981,17505.75215,11649.25982,-6982.953189,8456.581349,27937.15482,-7208.974029,4974.134859,0.158,0.894,0.34,192,4,240,27,240,10,160,0,0,0,1.71E+09,0, 2024-03-05 16:19:23.646
73,25007.60108,17532.95422,11685.55906,-6952.08543,8290.619646,27547.25099,-7223.145035,4956.365222,0.158,0.894,0.34,192,0,0,0,0,0,0,0,0,0,1.71E+09,0, 2024-03-05 16:19:23.646
74,26746.58915,17517.55387,11746.93695,-6766.94593,8287.691568,27557.15281,-7240.467637,4933.968775,0.158,0.894,0.34,192,0,0,0,0,0,0,0,0,0,1.71E+09,0, 2024-03-05 16:19:23.646
75,27348.34282,17481.23228,11777.6706,-6633.841292,8484.431623,28031.27802,-7239.238291,4939.713173,0.158,0.894,0.34,192,0,0,0,0,0,0,0,0,0,1.71E+09,0, 2024-03-05 16:19:23.841
76,25912.33264,17475.68905,11708.62606,-6785.095547,8572.631606,28238.99278,-7217.735913,4966.557618,0.158,0.894,0.34,192,0,0,0,0,0,0,0,0,0,1.71E+09,0, 2024-03-05 16:19:23.841
77,24475.00372,17511.31773,11643.73894,-6987.58,8446.791285,27925.9566,-7206.448282,4975.207743,0.158,0.894,0.34,192,0,0,0,0,0,0,0,0,0,1.71E+09,0, 2024-03-05 16:19:23.841
78,24985.74108,17528.81915,11676.10427,-6959.863837,8281.008396,27532.18592,-7228.934137,4947.022193,0.158,0.894,0.34,192,0,0,0,0,0,0,0,0,0,1.71E+09,0, 2024-03-05 16:19:23.841
79,26711.38516,17515.65397,11744.03122,-6773.830268,8276.672158,27532.09651,-7242.30048,4931.443027,0.158,0.894,0.34,192,0,0,0,0,0,0,0,0,0,1.71E+09,0, 2024-03-05 16:19:23.841
80,27318.90557,17480.7629,11783.48205,-6632.723705,8482.799945,28008.47924,-7235.170273,4943.378859,0.158,0.894,0.34,192,0,0,0,0,0,0,0,0,0,1.71E+09,0, 2024-03-05 16:19:23.841
81,25898.60867,17472.22453,11715.06336,-6780.513439,8571.893999,28226.18523,-7215.679552,4970.849153,0.158,0.894,0.34,192,0,0,0,0,0,0,0,0,0,1.71E+09,0, 2024-03-05 16:19:23.841
82,24476.6801,17503.58403,11649.81862,-6978.751061,8449.80877,27926.91772,-7199.698055,4981.242714,0.154,0.896,0.34,192,4,208,28,0,10,160,0,0,0,1.71E+09,0, 2024-03-05 16:19:23.841
83,24989.51852,17523.7006,11677.53478,-6951.638395,8285.724614,27536.25393,-7220.641639,4952.476019,0.154,0.896,0.34,192,0,0,0,0,0,0,0,0,0,1.71E+09,0, 2024-03-05 16:19:23.841
84,26722.60573,17514.44698,11745.59584,-6766.677709,8281.634245,27539.49494,-7233.963279,4936.673336,0.154,0.896,0.34,192,0,0,0,0,0,0,0,0,0,1.71E+09,0, 2024-03-05 16:19:23.841
85,27327.39923,17475.95727,11773.62493,-6636.836426,8471.221742,28005.75233,-7236.086695,4935.846321,0.154,0.896,0.34,192,0,0,0,0,0,0,0,0,0,1.71E+09,0, 2024-03-05 16:19:23.841
86,25906.32002,17475.13026,11713.85636,-6778.926465,8566.864856,28223.95006,-7210.873927,4968.323406,0.154,0.896,0.34,192,0,0,0,0,0,0,0,0,0,1.71E+09,0, 2024-03-05 16:19:23.841
87,24497.13194,17501.90765,11643.71659,-6979.13104,8443.39382,27937.28893,-7207.342351,4971.162077,0.154,0.896,0.34,192,0,0,0,0,0,0,0,0,0,1.71E+09,0, 2024-03-05 16:19:23.841
88,24967.25618,17538.25158,11682.40746,-6957.136924,8273.006472,27523.11111,-7214.830186,4963.517781,0.154,0.896,0.34,192,0,0,0,0,0,0,0,0,0,1.71E+09,0, 2024-03-05 16:19:23.841
89,26691.69327,17522.4936,11751.34024,-6769.516381,8274.057004,27521.16651,-7232.175139,4941.166036,0.154,0.896,0.34,192,0,0,0,0,0,0,0,0,0,1.71E+09,0, 2024-03-05 16:19:23.841
90,27338.01631,17474.4597,11776.08362,-6630.957917,8479.178963,28018.62693,-7240.13236,4932.650022,0.154,0.896,0.34,192,0,0,0,0,0,0,0,0,0,1.71E+09,0, 2024-03-05 16:19:23.841
91,25926.54835,17476.62782,11716.02448,-6775.841925,8571.804592,28239.57392,-7214.539613,4963.048394,0.154,0.896,0.34,192,0,0,0,0,0,0,0,0,0,1.71E+09,0, 2024-03-05 16:19:23.841
92,24503.23397,17514.35757,11653.66312,-6975.085375,8446.612471,27942.76511,-7201.530898,4976.481793,0.156,0.904,0.342,192,4,224,28,64,10,176,0,0,0,1.71E+09,0, 2024-03-05 16:19:23.841
93,24949.44184,17547.08052,11689.40356,-6957.606311,8274.034652,27516.80792,-7207.118834,4962.86958,0.156,0.904,0.342,192,0,0,0,0,0,0,0,0,0,1.71E+09,0, 2024-03-05 16:19:23.841
94,26682.57376,17531.61312,11755.9894,-6763.9955,8276.82862,27520.85358,-7225.156692,4942.931824,0.156,0.904,0.342,192,0,0,0,0,0,0,0,0,0,1.71E+09,0, 2024-03-05 16:19:23.841
95,27313.69761,17489.41302,11780.21869,-6625.638202,8468.89716,27997.03515,-7229.515282,4949.167961,0.156,0.904,0.342,192,0,0,0,0,0,0,0,0,0,1.71E+09,0, 2024-03-05 16:19:23.841
96,25908.37638,17489.48008,11720.0925,-6767.817648,8565.300234,28224.39709,-7205.420101,4977.711138,0.156,0.904,0.342,192,0,0,0,0,0,0,0,0,0,1.71E+09,0, 2024-03-05 16:19:23.841
97,24492.32632,17520.21373,11658.46874,-6966.725822,8450.05464,27941.84869,-7195.786499,4982.226191,0.156,0.904,0.342,192,0,0,0,0,0,0,0,0,0,1.71E+09,0, 2024-03-05 16:19:23.841
98,24961.0424,17544.35361,11686.07315,-6956.779296,8277.387414,27530.0178,-7213.936116,4956.141705,0.156,0.904,0.342,192,0,0,0,0,0,0,0,0,0,1.71E+09,0, 2024-03-05 16:19:23.841
99,26696.49889,17527.79097,11746.08758,-6769.739898,8268.849047,27525.81567,-7234.700887,4927.084437,0.156,0.904,0.342,192,0,0,0,0,0,0,0,0,0,1.71E+09,0, 2024-03-05 16:19:23.841
100,27349.95214,17484.07095,11777.42473,-6625.593498,8469.388899,28010.06621,-7235.617308,4930.057219,0.156,0.904,0.342,192,0,0,0,0,0,0,0,0,0,1.71E+09,0, 2024-03-05 16:19:23.841
101,25973.24115,17478.57243,11717.52205,-6763.079079,8575.179705,28253.2979,-7207.856441,4969.239827,0.156,0.904,0.342,192,0,0,0,0,0,0,0,0,0,1.71E+09,0, 2024-03-05 16:19:23.841
102,24519.70721,17523.79,11658.08876,-6967.418726,8448.825294,27944.41914,-7186.152898,4995.92781,0.144,0.908,0.342,192,4,128,28,96,10,176,0,0,0,1.71E+09,0, 2024-03-05 16:19:23.841
103,24980.9578,17535.45762,11680.19464,-6950.29729,8276.627454,27536.52215,-7217.110064,4957.415754,0.144,0.908,0.342,192,0,0,0,0,0,0,0,0,0,1.71E+09,0, 2024-03-05 16:19:23.841
104,26717.1072,17520.28078,11740.20907,-6770.991596,8273.475858,27532.27532,-7237.159578,4936.181597,0.144,0.908,0.342,192,0,0,0,0,0,0,0,0,0,1.71E+09,0, 2024-03-05 16:19:23.841
105,27363.11732,17486.12732,11778.34115,-6629.013315,8476.317939,28008.88157,-7230.319945,4946.575158,0.144,0.908,0.342,192,0,0,0,0,0,0,0,0,0,1.71E+09,0, 2024-03-05 16:19:23.841
106,25974.69401,17475.17496,11712.78348,-6771.908018,8572.050461,28243.37372,-7214.718427,4965.194162,0.144,0.908,0.342,192,0,0,0,0,0,0,0,0,0,1.71E+09,0, 2024-03-05 16:19:23.841
107,24545.12114,17502.30998,11641.66023,-6975.711224,8449.182922,27962.43464,-7209.219898,4972.570237,0.144,0.908,0.342,192,0,0,0,0,0,0,0,0,0,1.71E+09,0, 2024-03-05 16:19:23.841
108,24984.28821,17536.66461,11676.12662,-6960.333223,8280.337844,27542.8477,-7217.355933,4960.768516,0.144,0.908,0.342,192,0,0,0,0,0,0,0,0,0,1.71E+09,0, 2024-03-05 16:19:23.841
109,26712.65921,17528.10389,11750.60263,-6767.571779,8282.885943,27533.05763,-7225.13434,4945.94931,0.144,0.908,0.342,192,0,0,0,0,0,0,0,0,0,1.71E+09,0, 2024-03-05 16:19:23.841
110,27363.13967,17487.22255,11780.44221,-6628.879205,8479.000149,28003.62891,-7228.487102,4944.250577,0.144,0.908,0.342,192,0,0,0,0,0,0,0,0,0,1.71E+09,0, 2024-03-05 16:19:23.841
111,25950.73294,17482.61809,11719.93604,-6774.143192,8571.335205,28221.60312,-7203.274334,4970.446822,0.144,0.908,0.342,192,0,0,0,0,0,0,0,0,0,1.71E+09,0, 2024-03-05 16:19:23.841
112,24512.77816,17511.5189,11648.92455,-6971.017357,8450.881654,27945.42497,-7196.837031,4977.152345,0.14,0.902,0.34,192,4,96,28,48,10,160,0,0,0,1.71E+09,0, 2024-03-05 16:19:23.841
113,24960.28244,17535.18939,11672.59504,-6954.901749,8277.588579,27539.13731,-7217.512395,4949.436182,0.14,0.902,0.34,192,0,0,0,0,0,0,0,0,0,1.71E+09,0, 2024-03-05 16:19:23.841
114,26688.27345,17522.38184,11734.68819,-6772.71268,8269.161972,27526.66504,-7234.790294,4932.314745,0.14,0.902,0.34,192,0,0,0,0,0,0,0,0,0,1.71E+09,0, 2024-03-05 16:19:23.841
115,27356.70237,17488.85423,11778.87759,-6621.100798,8479.693053,28011.38497,-7223.457959,4956.924016,0.14,0.902,0.34,192,0,0,0,0,0,0,0,0,0,1.71E+09,0, 2024-03-05 16:19:23.841
116,25961.88646,17479.95823,11712.98465,-6766.677709,8576.699624,28238.94808,-7204.011941,4980.058072,0.14,0.902,0.34,192,0,0,0,0,0,0,0,0,0,1.71E+09,0, 2024-03-05 16:19:23.841
117,24518.81314,17507.58499,11645.08005,-6969.698604,8454.145009,27958.63485,-7199.76511,4980.259237,0.14,0.902,0.34,192,0,0,0,0,0,0,0,0,0,1.71E+09,0, 2024-03-05 16:19:23.841
118,24960.72948,17531.32254,11675.56783,-6955.974633,8279.287312,27550.00026,-7216.685381,4959.829743,0.14,0.902,0.34,192,0,0,0,0,0,0,0,0,0,1.71E+09,0, 2024-03-05 16:19:23.841
119,26695.62718,17519.36436,11736.7669,-6774.433765,8270.592483,27539.87492,-7234.2315,4941.702478,0.14,0.902,0.34,192,0,0,0,0,0,0,0,0,0,1.71E+09,0, 2024-03-05 16:19:23.841
120,27375.25432,17483.64627,11773.75904,-6625.928775,8475.982663,28018.64928,-7225.603727,4945.546978,0.14,0.902,0.34,192,0,0,0,0,0,0,0,0,0,1.71E+09,0, 2024-03-05 16:19:23.841
121,25972.12356,17484.45093,11713.45403,-6771.058651,8577.794859,28239.28335,-7198.289895,4979.164002,0.14,0.902,0.34,192,0,0,0,0,0,0,0,0,0,1.71E+09,0, 2024-03-05 16:19:23.841
122,24504.97741,17513.37409,11649.05866,-6973.543104,8457.810695,27951.25877,-7190.489136,4987.635313,0.14,0.9,0.34,192,4,96,28,32,10,160,0,0,0,1.71E+09,0, 2024-03-05 16:19:23.841
123,24929.72761,17542.85604,11681.044,-6954.65588,8284.964655,27540.09843,-7201.486194,4968.345758,0.14,0.9,0.34,192,0,0,0,0,0,0,0,0,0,1.71E+09,0, 2024-03-05 16:19:23.841
124,26667.64279,17527.41099,11745.97582,-6766.185971,8279.443774,27535.82925,-7222.161558,4948.00567,0.14,0.9,0.34,192,0,0,0,0,0,0,0,0,0,1.71E+09,0, 2024-03-05 16:19:23.841
125,27361.41859,17489.92711,11780.50927,-6618.619754,8474.01571,28017.71051,-7223.323849,4953.817124,0.14,0.9,0.34,192,0,0,0,0,0,0,0,0,0,1.71E+09,0, 2024-03-05 16:19:23.841
126,25960.29949,17484.0039,11709.72129,-6771.326872,8561.969824,28233.31544,-7203.98959,4978.940484,0.14,0.9,0.34,192,0,0,0,0,0,0,0,0,0,1.71E+09,0, 2024-03-05 16:19:23.841
127,24492.0581,17518.13501,11646.13058,-6971.95613,8442.857378,27945.2238,-7188.499831,4994.720816,0.14,0.9,0.34,192,0,0,0,0,0,0,0,0,0,1.71E+09,0, 2024-03-05 16:19:23.841
128,24916.2495,17548.44398,11684.50852,-6950.878435,8278.527353,27535.73984,-7197.664046,4985.400139,0.14,0.9,0.34,192,0,0,0,0,0,0,0,0,0,1.71E+09,0, 2024-03-05 16:19:23.877
129,26664.13357,17529.98144,11749.28388,-6760.910959,8278.147373,27539.20436,-7219.769921,4961.416717,0.14,0.9,0.34,192,0,0,0,0,0,0,0,0,0,1.71E+09,0, 2024-03-05 16:19:23.877
130,27363.542,17490.70942,11781.98448,-6618.485644,8476.58616,28020.28096,-7222.943869,4956.991071,0.14,0.9,0.34,192,0,0,0,0,0,0,0,0,0,1.71E+09,0, 2024-03-05 16:19:23.877
131,25992.66481,17477.83482,11714.68338,-6762.922616,8577.325473,28257.50002,-7201.709712,4983.433185,0.14,0.9,0.34,192,0,0,0,0,0,0,0,0,0,1.71E+09,0, 2024-03-05 16:19:23.877
132,24523.55171,17510.89305,11649.23747,-6966.524657,8457.87775,27973.16348,-7184.454165,5004.063845,0.144,0.892,0.34,192,4,128,27,224,10,160,0,0,0,1.71E+09,0, 2024-03-05 16:19:23.877
133,24929.32527,17531.32254,11672.59504,-6958.030994,8277.275655,27556.52697,-7206.895316,4973.687824,0.144,0.892,0.34,192,0,0,0,0,0,0,0,0,0,1.71E+09,0, 2024-03-05 16:19:24.317
134,26665.8323,17518.20207,11735.87283,-6774.389061,8265.876265,27543.33944,-7227.369514,4947.223359,0.144,0.892,0.34,192,0,0,0,0,0,0,0,0,0,1.71E+09,0, 2024-03-05 16:19:24.317
135,27365.15133,17483.75803,11772.39558,-6624.520615,8468.24896,28020.23626,-7224.553195,4950.643176,0.144,0.892,0.34,192,0,0,0,0,0,0,0,0,0,1.71E+09,0, 2024-03-05 16:19:24.317
136,25979.54434,17477.85717,11712.78348,-6769.24816,8567.580112,28251.21918,-7202.760244,4979.499278,0.144,0.892,0.34,192,0,0,0,0,0,0,0,0,0,1.71E+09,0, 2024-03-05 16:19:24.317
137,24519.23782,17504.54515,11648.07518,-6968.625721,8452.938015,27977.8797,-7189.662121,4991.658627,0.144,0.892,0.34,192,0,0,0,0,0,0,0,0,0,1.71E+09,0, 2024-03-05 16:19:24.317
138,24926.53131,17526.49457,11669.01877,-6959.707375,8277.610931,27561.55611,-7204.1237,4968.032833,0.144,0.892,0.34,192,0,0,0,0,0,0,0,0,0,1.71E+09,0, 2024-03-05 16:19:24.317
139,26652.3989,17512.2565,11729.30142,-6778.814707,8264.378698,27538.80203,-7228.956488,4940.45078,0.144,0.892,0.34,192,0,0,0,0,0,0,0,0,0,1.71E+09,0, 2024-03-05 16:19:24.317
140,27341.79376,17477.656,11764.46071,-6633.707182,8457.676584,28003.56185,-7232.063381,4942.328327,0.144,0.892,0.34,192,0,0,0,0,0,0,0,0,0,1.71E+09,0, 2024-03-05 16:19:24.317
141,25960.36654,17480.36057,11708.91663,-6768.421145,8564.272054,28235.57296,-7199.921572,4983.075557,0.144,0.892,0.34,192,0,0,0,0,0,0,0,0,0,1.71E+09,0, 2024-03-05 16:19:24.317
142,24494.96382,17512.79295,11651.18207,-6963.037784,8460.224683,27962.16642,-7184.38711,4997.984171,0.144,0.898,0.336,192,4,128,28,16,10,128,0,0,0,1.71E+09,0, 2024-03-05 16:19:24.317
143,24917.21063,17530.38377,11672.43858,-6949.872607,8289.367949,27563.59012,-7206.694151,4966.423508,0.144,0.898,0.336,192,0,0,0,0,0,0,0,0,0,1.71E+09,0, 2024-03-05 16:19:24.317
144,26646.36393,17522.62771,11734.35291,-6769.426974,8275.085184,27541.32778,-7220.507529,4950.129086,0.144,0.898,0.336,192,0,0,0,0,0,0,0,0,0,1.71E+09,0, 2024-03-05 16:19:24.317
145,27355.38362,17481.43345,11771.79209,-6619.804397,8469.612416,28016.19059,-7222.452131,4952.74424,0.144,0.898,0.336,192,0,0,0,0,0,0,0,0,0,1.71E+09,0, 2024-03-05 16:19:24.317
146,25986.56279,17471.55398,11702.54638,-6769.985768,8561.567493,28243.86546,-7206.917668,4973.352548,0.144,0.898,0.336,192,0,0,0,0,0,0,0,0,0,1.71E+09,0, 2024-03-05 16:19:24.317
147,24510.0736,17504.12047,11639.06743,-6971.777317,8444.869035,27958.47839,-7193.663084,4990.272819,0.144,0.898,0.336,192,0,0,0,0,0,0,0,0,0,1.71E+09,0, 2024-03-05 16:19:24.317
148,24923.44677,17521.82305,11661.91091,-6958.008642,8273.229989,27555.25292,-7212.147976,4965.462382,0.144,0.898,0.336,192,0,0,0,0,0,0,0,0,0,1.71E+09,0, 2024-03-05 16:19:24.317
149,26646.09571,17513.32939,11726.17218,-6780.379329,8257.203788,27529.21313,-7229.090599,4939.80258,0.144,0.898,0.336,192,0,0,0,0,0,0,0,0,0,1.71E+09,0, 2024-03-05 16:19:24.317
150,27361.97738,17473.27506,11765.77947,-6628.655687,8457.453067,28005.14883,-7229.895262,4943.937653,0.144,0.898,0.336,192,0,0,0,0,0,0,0,0,0,1.71E+09,0, 2024-03-05 16:19:24.317
151,26022.6385,17463.26148,11698.9254,-6765.582474,8559.980519,28256.62831,-7212.527956,4973.017272,0.144,0.898,0.336,192,0,0,0,0,0,0,0,0,0,1.71E+09,0, 2024-03-05 16:19:24.317
152,24534.05703,17501.34885,11636.67579,-6972.894904,8440.041058,27967.35203,-7193.372511,4992.664455,0.144,0.898,0.336,192,0,0,0,0,0,0,0,0,0,1.71E+09,0, 2024-03-05 16:19:24.317
153,24928.40885,17528.86385,11668.1247,-6953.895921,8270.301911,27556.66108,-7211.097444,4970.04449,0.15,0.902,0.33,192,4,176,28,48,10,80,0,0,0,1.71E+09,0, 2024-03-05 16:19:24.317
154,26642.0724,17523.16416,11730.3743,-6776.42307,8254.476876,27521.7253,-7221.781578,4954.353565,0.15,0.902,0.33,192,0,0,0,0,0,0,0,0,0,1.71E+09,0, 2024-03-05 16:19:24.317
155,27363.16202,17480.56173,11769.84748,-6622.620716,8461.454029,27996.85633,-7223.234442,4952.543074,0.15,0.902,0.33,192,0,0,0,0,0,0,0,0,0,1.71E+09,0, 2024-03-05 16:19:24.317
156,26026.17008,17470.32463,11701.09352,-6758.184047,8565.255531,28247.35233,-7206.738854,4976.012406,0.15,0.902,0.33,192,0,0,0,0,0,0,0,0,0,1.71E+09,0, 2024-03-05 16:19:24.317
157,24542.66245,17504.45575,11636.47463,-6961.651976,8444.93609,27970.52598,-7193.596029,4994.162022,0.15,0.902,0.33,192,0,0,0,0,0,0,0,0,0,1.71E+09,0, 2024-03-05 16:19:24.317
158,24921.9492,17537.73749,11672.59504,-6951.593691,8274.347576,27549.30735,-7203.900183,4976.370034,0.15,0.902,0.33,192,0,0,0,0,0,0,0,0,0,1.71E+09,0, 2024-03-05 16:19:24.317
159,26654.38821,17522.29244,11731.0225,-6770.097526,8262.925835,27530.21896,-7227.660087,4941.72483,0.15,0.902,0.33,192,0,0,0,0,0,0,0,0,0,1.71E+09,0, 2024-03-05 16:19:24.317
160,27363.20673,17484.89797,11768.1711,-6625.48174,8455.419058,27990.50844,-7224.843767,4946.329289,0.15,0.902,0.33,192,0,0,0,0,0,0,0,0,0,1.71E+09,0, 2024-03-05 16:19:24.317
161,26016.78235,17476.62782,11711.66589,-6759.592206,8561.455734,28239.3057,-7202.357912,4979.678092,0.15,0.902,0.33,192,0,0,0,0,0,0,0,0,0,1.71E+09,0, 2024-03-05 16:19:24.317
162,24540.15905,17508.07673,11645.01299,-6960.377927,8448.758238,27974.50459,-7189.550363,4991.412758,0.15,0.902,0.33,192,0,0,0,0,0,0,0,0,0,1.71E+09,0, 2024-03-05 16:19:24.317
163,24931.33693,17523.81236,11657.84289,-6955.751116,8269.988986,27567.83695,-7222.228613,4954.688842,0.154,0.908,0.332,192,4,208,28,96,10,96,0,0,0,1.71E+09,0, 2024-03-05 16:19:24.317
164,26658.67974,17519.14084,11720.71835,-6775.931332,8255.013317,27540.88074,-7239.305346,4943.490618,0.154,0.908,0.332,192,0,0,0,0,0,0,0,0,0,1.71E+09,0, 2024-03-05 16:19:24.317
165,27376.59542,17489.65889,11769.78043,-6620.251431,8460.783477,28003.42774,-7224.173215,4955.582911,0.154,0.908,0.332,192,0,0,0,0,0,0,0,0,0,1.71E+09,0, 2024-03-05 16:19:24.317
