Sample Index, EXG Channel 0, EXG Channel 1, EXG Channel 2, EXG Channel 3, EXG Channel 4, EXG Channel 5, EXG Channel 6, EXG Channel 7, Accel Channel 0, Accel Channel 1, Accel Channel 2, Other, Other, Other, Other, Other, Other, Other, Analog Channel 0, Analog Channel 1, Analog Channel 2, Timestamp, Other, Timestamp (Formatted)
0,593.4835188,11961.84897,-5781.949256,-9379.551933,4797.109043,28682.87607,-9590.999435,1719.76557,0.21,0.918,0.182,192,6,144,28,176,5,176,0,0,0,1.71E+09,0, 2024-03-05 16:15:58.920
1,4013.345124,11744.34414,-5784.072671,-8089.453946,6305.784739,32855.36562,-9788.588856,1500.226736,0.21,0.918,0.182,192,0,0,0,0,0,0,0,0,0,1.71E+09,0, 2024-03-05 16:15:58.920
2,4421.443274,11737.54921,-6000.526965,-8365.587397,6331.824521,34662.32534,-9823.524633,1504.182995,0.21,0.918,0.182,192,0,0,0,0,0,0,0,0,0,1.71E+09,0, 2024-03-05 16:15:58.920
3,1298.837519,11946.15805,-6133.832769,-9803.676284,4872.41207,31697.41114,-9651.505608,1722.246614,0.21,0.918,0.182,192,0,0,0,0,0,0,0,0,0,1.71E+09,0, 2024-03-05 16:15:58.920
4,-1192.286753,12091.95847,-6022.431674,-10507.97975,3861.912055,27898.21808,-9501.74892,1860.022767,0.21,0.918,0.182,192,0,0,0,0,0,0,0,0,0,1.71E+09,0, 2024-03-05 16:15:58.920
5,558.8606666,11960.21729,-5789.012407,-9392.001854,4784.569715,28658.2668,-9592.541706,1708.880271,0.21,0.918,0.182,192,0,0,0,0,0,0,0,0,0,1.71E+09,0, 2024-03-05 16:15:58.920
6,3975.682435,11749.17212,-5781.815145,-8100.339246,6294.184183,32816.13831,-9786.286627,1495.398759,0.21,0.918,0.182,192,0,0,0,0,0,0,0,0,0,1.71E+09,0, 2024-03-05 16:15:58.920
7,4425.846568,11738.51034,-5996.146023,-8356.244368,6350.220007,34670.21551,-9822.138825,1498.907983,0.21,0.918,0.182,192,0,0,0,0,0,0,0,0,0,1.71E+09,0, 2024-03-05 16:15:58.920
8,1330.331126,11943.90052,-6133.251623,-9789.929961,4898.898888,31746.83085,-9654.366631,1713.48473,0.21,0.918,0.182,192,0,0,0,0,0,0,0,0,0,1.71E+09,0, 2024-03-05 16:15:58.920
9,-1176.081738,12081.96724,-6032.199387,-10514.21589,3866.06948,27935.94783,-9514.467062,1845.494133,0.21,0.918,0.182,192,0,0,0,0,0,0,0,0,0,1.71E+09,0, 2024-03-05 16:15:58.920
10,517.3981807,11969.38151,-5782.552753,-9415.761759,4776.724252,28615.61967,-9587.736081,1720.033791,0.212,0.924,0.182,192,6,160,28,224,5,176,0,0,0,1.71E+09,0, 2024-03-05 16:15:58.920
11,3958.270426,11756.32468,-5777.747128,-8104.116691,6299.749768,32771.56893,-9784.632598,1506.105245,0.212,0.924,0.182,192,0,0,0,0,0,0,0,0,0,1.71E+09,0, 2024-03-05 16:15:58.920
12,4457.876618,11741.43842,-5992.547392,-8338.184159,6366.827353,34675.33406,-9822.630563,1506.529928,0.212,0.924,0.182,192,0,0,0,0,0,0,0,0,0,1.71E+09,0, 2024-03-05 16:15:58.920
13,1380.309627,11949.01907,-6131.217615,-9769.92515,4915.506234,31789.34387,-9655.372459,1715.965774,0.212,0.924,0.182,192,0,0,0,0,0,0,0,0,0,1.71E+09,0, 2024-03-05 16:15:58.920
14,-1166.962226,12102.10617,-6022.49873,-10508.62795,3864.638968,27941.20049,-9502.151251,1861.028595,0.212,0.924,0.182,192,0,0,0,0,0,0,0,0,0,1.71E+09,0, 2024-03-05 16:15:58.920
15,503.026009,11978.72454,-5780.965779,-9418.891003,4756.585331,28580.63919,-9581.723461,1720.950213,0.212,0.924,0.182,192,0,0,0,0,0,0,0,0,0,1.71E+09,0, 2024-03-05 16:15:58.920
16,3952.146048,11755.11769,-5780.183468,-8104.854298,6283.723567,32741.32702,-9784.856115,1497.857451,0.212,0.924,0.182,192,0,0,0,0,0,0,0,0,0,1.71E+09,0, 2024-03-05 16:15:58.920
17,4476.473269,11745.37232,-5990.535735,-8326.136568,6365.933283,34681.72666,-9820.261278,1504.831195,0.212,0.924,0.182,192,0,0,0,0,0,0,0,0,0,1.71E+09,0, 2024-03-05 16:15:58.920
18,1421.325078,11945.39809,-6134.078638,-9756.134123,4921.720019,31831.40985,-9660.602768,1711.853053,0.212,0.924,0.182,192,0,0,0,0,0,0,0,0,0,1.71E+09,0, 2024-03-05 16:15:58.920
19,-1143.738764,12098.35107,-6028.824273,-10506.88452,3865.868314,27973.94579,-9503.782928,1863.375528,0.212,0.924,0.182,192,0,0,0,0,0,0,0,0,0,1.71E+09,0, 2024-03-05 16:15:58.920
20,473.8793342,11978.07634,-5788.185392,-9437.286489,4744.582444,28550.5761,-9583.466897,1727.521625,0.21,0.924,0.188,192,6,144,28,224,5,224,0,0,0,1.71E+09,0, 2024-03-05 16:15:58.920
21,3908.73896,11762.53846,-5782.977436,-8119.539394,6272.704157,32674.62941,-9781.324539,1506.976963,0.21,0.924,0.188,192,0,0,0,0,0,0,0,0,0,1.71E+09,0, 2024-03-05 16:15:58.920
22,4502.669514,11740.23142,-5992.212116,-8311.965562,6381.378339,34676.89868,-9831.124226,1493.588268,0.21,0.924,0.188,192,0,0,0,0,0,0,0,0,0,1.71E+09,0, 2024-03-05 16:15:58.920
23,1465.246256,11938.4914,-6138.370173,-9742.812484,4940.540187,31868.5808,-9670.593997,1704.298163,0.21,0.924,0.188,192,0,0,0,0,0,0,0,0,0,1.71E+09,0, 2024-03-05 16:15:58.920
24,-1143.269377,12101.48032,-6025.292698,-10512.38305,3868.304654,27983.17706,-9507.962705,1871.265694,0.21,0.924,0.188,192,0,0,0,0,0,0,0,0,0,1.71E+09,0, 2024-03-05 16:15:58.920
25,424.9960691,11989.31926,-5781.74809,-9455.726678,4724.622336,28498.16126,-9575.532028,1744.173675,0.21,0.924,0.188,192,0,0,0,0,0,0,0,0,0,1.71E+09,0, 2024-03-05 16:15:58.920
26,3879.90521,11765.33243,-5770.818087,-8125.596717,6260.589511,32625.07559,-9776.362452,1518.935146,0.21,0.924,0.188,192,0,0,0,0,0,0,0,0,0,1.71E+09,0, 2024-03-05 16:15:58.920
27,4512.414874,11738.93502,-5982.891438,-8304.50008,6391.190754,34678.59741,-9826.877395,1502.908945,0.21,0.924,0.188,192,0,0,0,0,0,0,0,0,0,1.71E+09,0, 2024-03-05 16:15:58.920
28,1484.982846,11939.47487,-6127.216652,-9732.865957,4962.713118,31900.45439,-9661.027451,1713.797654,0.21,0.924,0.188,192,0,0,0,0,0,0,0,0,0,1.71E+09,0, 2024-03-05 16:15:58.920
29,-1137.837903,12091.98083,-6037.563805,-10519.98264,3868.058785,28005.03707,-9513.260068,1859.642787,0.21,0.924,0.188,192,0,0,0,0,0,0,0,0,0,1.71E+09,0, 2024-03-05 16:15:58.920
30,393.3907024,11983.01607,-5788.207744,-9478.413698,4710.764254,28469.66278,-9577.588389,1735.948233,0.214,0.93,0.178,192,6,176,29,16,5,144,0,0,0,1.71E+09,0, 2024-03-05 16:15:58.920
31,3848.791581,11765.17597,-5771.488639,-8142.338174,6256.230921,32584.61894,-9774.551961,1519.046905,0.214,0.93,0.178,192,0,0,0,0,0,0,0,0,0,1.71E+09,0, 2024-03-05 16:15:58.920
32,4529.424552,11739.71733,-5983.919619,-8297.392225,6411.173214,34684.09594,-9831.571261,1502.752483,0.214,0.93,0.178,192,0,0,0,0,0,0,0,0,0,1.71E+09,0, 2024-03-05 16:15:58.920
33,1525.64067,11937.30675,-6135.240929,-9721.533623,4985.80247,31948.24242,-9673.432669,1708.924974,0.214,0.93,0.178,192,0,0,0,0,0,0,0,0,0,1.71E+09,0, 2024-03-05 16:15:58.920
34,-1114.927365,12090.14798,-6039.419,-10518.2392,3881.872163,28041.80569,-9517.64101,1859.575732,0.214,0.93,0.178,192,0,0,0,0,0,0,0,0,0,1.71E+09,0, 2024-03-05 16:15:58.920
35,356.7114898,11989.09575,-5787.224267,-9498.843193,4693.508708,28430.30136,-9573.050985,1745.984166,0.214,0.93,0.178,192,0,0,0,0,0,0,0,0,0,1.71E+09,0, 2024-03-05 16:15:58.920
36,3832.899491,11768.7746,-5769.365224,-8145.221549,6244.4292,32539.53547,-9771.668586,1526.15476,0.214,0.93,0.178,192,0,0,0,0,0,0,0,0,0,1.71E+09,0, 2024-03-05 16:15:58.920
37,4561.56636,11735.13523,-5984.880744,-8282.148335,6410.569717,34687.24754,-9833.448807,1501.456082,0.214,0.93,0.178,192,0,0,0,0,0,0,0,0,0,1.71E+09,0, 2024-03-05 16:15:58.920
38,1579.46367,11929.84127,-6140.828865,-9704.300428,4991.323351,31992.253,-9680.920503,1699.157262,0.214,0.93,0.178,192,0,0,0,0,0,0,0,0,0,1.71E+09,0, 2024-03-05 16:15:58.920
39,-1094.274353,12085.56588,-6047.845608,-10519.24503,3876.552448,28071.3994,-9524.905327,1851.238531,0.214,0.93,0.178,192,0,0,0,0,0,0,0,0,0,1.71E+09,0, 2024-03-05 16:15:58.920
40,331.8787017,11983.84309,-5795.248544,-9515.137615,4673.727414,28405.84855,-9582.326958,1739.815085,0.206,0.928,0.184,192,6,112,29,0,5,192,0,0,0,1.71E+09,0, 2024-03-05 16:15:58.920
41,3787.816022,11768.30521,-5774.126145,-8160.085459,6224.536148,32485.556,-9776.85419,1522.06439,0.206,0.928,0.184,192,0,0,0,0,0,0,0,0,0,1.71E+09,0, 2024-03-05 16:15:58.920
42,4558.012433,11731.51424,-5986.735938,-8274.481687,6418.504586,34682.24075,-9838.321488,1496.69516,0.206,0.928,0.184,192,0,0,0,0,0,0,0,0,0,1.71E+09,0, 2024-03-05 16:15:58.920
43,1613.773598,11922.42049,-6143.19815,-9686.575495,5014.435055,32042.52208,-9684.966169,1699.358427,0.206,0.928,0.184,192,0,0,0,0,0,0,0,0,0,1.71E+09,0, 2024-03-05 16:15:58.920
44,-1105.539633,12084.64945,-6048.985547,-10523.89419,3883.414433,28084.36341,-9524.257126,1867.220028,0.206,0.928,0.184,192,0,0,0,0,0,0,0,0,0,1.71E+09,0, 2024-03-05 16:15:58.920
45,274.3229597,11983.35135,-5806.692637,-9539.903347,4654.728431,28360.96625,-9585.009168,1745.872408,0.206,0.928,0.184,192,0,0,0,0,0,0,0,0,0,1.71E+09,0, 2024-03-05 16:15:58.920
46,3742.218464,11764.52777,-5778.507087,-8174.278816,6208.532299,32439.10908,-9782.844458,1522.44437,0.206,0.928,0.184,192,0,0,0,0,0,0,0,0,0,1.71E+09,0, 2024-03-05 16:15:58.920
47,4554.570264,11727.75915,-5986.534773,-8270.614835,6419.510415,34681.79371,-9842.858892,1497.812748,0.206,0.928,0.184,192,0,0,0,0,0,0,0,0,0,1.71E+09,0, 2024-03-05 16:15:58.920
48,1632.772581,11923.06869,-6138.996022,-9674.639663,5030.595366,32084.72217,-9682.462774,1704.946364,0.206,0.928,0.184,192,0,0,0,0,0,0,0,0,0,1.71E+09,0, 2024-03-05 16:15:58.920
49,-1091.458033,12086.21408,-6049.142009,-10516.31695,3889.51646,28132.66553,-9522.178414,1864.336653,0.206,0.928,0.184,192,0,0,0,0,0,0,0,0,0,1.71E+09,0, 2024-03-05 16:15:58.920
50,234.2015784,11987.41937,-5799.361265,-9552.465028,4634.544806,28337.09459,-9577.074299,1749.672204,0.208,0.922,0.186,192,6,128,28,208,5,208,0,0,0,1.71E+09,0, 2024-03-05 16:15:58.920
51,3727.600423,11772.03796,-5767.621788,-8171.328386,6202.072644,32417.80787,-9773.054394,1530.669812,0.208,0.922,0.186,192,0,0,0,0,0,0,0,0,0,1.71E+09,0, 2024-03-05 16:15:58.920
52,4591.338884,11735.13523,-5969.83802,-8246.117323,6436.967127,34715.12016,-9837.829749,1499.533832,0.208,0.922,0.186,192,0,0,0,0,0,0,0,0,0,1.71E+09,0, 2024-03-05 16:15:58.920
53,1666.501363,11931.56236,-6129.228309,-9655.551273,5043.84995,32137.67345,-9680.36171,1699.626648,0.208,0.922,0.186,192,0,0,0,0,0,0,0,0,0,1.71E+09,0, 2024-03-05 16:15:58.920
54,-1084.596048,12093.50074,-6045.521026,-10511.22075,3890.902268,28161.70045,-9520.345571,1862.749679,0.208,0.922,0.186,192,0,0,0,0,0,0,0,0,0,1.71E+09,0, 2024-03-05 16:15:58.920
55,205.5019385,11995.48835,-5800.32239,-9561.226912,4625.492349,28326.45516,-9576.090822,1751.437992,0.208,0.922,0.186,192,0,0,0,0,0,0,0,0,0,1.71E+09,0, 2024-03-05 16:15:58.920
56,3690.608286,11774.67546,-5774.05909,-8181.565485,6186.627589,32385.42019,-9776.697728,1526.110056,0.208,0.922,0.186,192,0,0,0,0,0,0,0,0,0,1.71E+09,0, 2024-03-05 16:15:58.920
57,4578.844259,11740.45494,-5968.206342,-8242.630451,6442.64447,34703.83253,-9837.06979,1500.472605,0.208,0.922,0.186,192,0,0,0,0,0,0,0,0,0,1.71E+09,0, 2024-03-05 16:15:58.920
58,1685.634456,11930.37771,-6133.363382,-9643.637793,5060.323186,32164.00381,-9689.861201,1698.397302,0.208,0.922,0.186,192,0,0,0,0,0,0,0,0,0,1.71E+09,0, 2024-03-05 16:15:58.920
59,-1089.669894,12095.64651,-6054.66289,-10517.14397,3892.131614,28166.43902,-9523.206594,1866.2142,0.208,0.922,0.186,192,0,0,0,0,0,0,0,0,0,1.71E+09,0, 2024-03-05 16:15:58.920
60,173.8965719,12004.33964,-5804.233945,-9570.748755,4614.987029,28284.54563,-9575.286159,1755.908341,0.204,0.924,0.184,192,6,96,28,224,5,192,0,0,0,1.71E+09,0, 2024-03-05 16:15:58.920
61,3675.878486,11777.69295,-5778.618846,-8187.801622,6179.095051,32340.20261,-9780.810449,1525.819483,0.204,0.924,0.184,192,0,0,0,0,0,0,0,0,0,1.71E+09,0, 2024-03-05 16:15:58.920
62,4607.789768,11734.44232,-5978.421089,-8236.304907,6447.047764,34698.02108,-9845.384639,1490.973114,0.204,0.924,0.184,192,0,0,0,0,0,0,0,0,0,1.71E+09,0, 2024-03-05 16:15:58.920
63,1735.14357,11921.32526,-6147.534388,-9638.899224,5071.610817,32195.51977,-9700.165355,1688.137852,0.204,0.924,0.184,192,0,0,0,0,0,0,0,0,0,1.71E+09,0, 2024-03-05 16:15:58.920
64,-1063.160725,12085.8341,-6070.152649,-10521.68137,3889.538811,28193.99872,-9538.852815,1853.250188,0.204,0.924,0.184,192,0,0,0,0,0,0,0,0,0,1.71E+09,0, 2024-03-05 16:15:58.920
65,146.3592227,12003.22205,-5811.3418,-9592.809927,4596.770358,28254.70606,-9579.845915,1754.120201,0.204,0.924,0.184,192,0,0,0,0,0,0,0,0,0,1.71E+09,0, 2024-03-05 16:15:58.920
66,3637.433486,11782.45387,-5769.409927,-8198.418701,6173.194191,32285.12791,-9773.00969,1533.307318,0.204,0.924,0.184,192,0,0,0,0,0,0,0,0,0,1.71E+09,0, 2024-03-05 16:15:58.920
67,4604.884041,11733.39179,-5976.722357,-8230.180529,6457.329566,34678.64212,-9844.512921,1491.017817,0.204,0.924,0.184,192,0,0,0,0,0,0,0,0,0,1.71E+09,0, 2024-03-05 16:15:58.920
68,1753.293187,11922.95693,-6141.186493,-9624.035314,5093.716692,32219.25732,-9694.867992,1692.161166,0.204,0.924,0.184,192,0,0,0,0,0,0,0,0,0,1.71E+09,0, 2024-03-05 16:15:58.920
69,-1063.74187,12083.55422,-6071.493753,-10521.94959,3900.446463,28206.13571,-9535.589461,1853.78663,0.204,0.924,0.184,192,0,0,0,0,0,0,0,0,0,1.71E+09,0, 2024-03-05 16:15:58.920
70,97.61006804,11985.98885,-5824.238756,-9620.548441,4582.018206,28209.1085,-9584.65154,1743.681937,0.208,0.928,0.182,192,6,128,29,0,5,176,0,0,0,1.71E+09,0, 2024-03-05 16:15:58.920
71,3591.187726,11765.77947,-5777.590666,-8220.435169,6158.889074,32229.71794,-9779.067013,1523.360792,0.208,0.928,0.182,192,0,0,0,0,0,0,0,0,0,1.71E+09,0, 2024-03-05 16:15:58.920
72,4607.722712,11717.43264,-5975.940046,-8224.436131,6462.403412,34674.99878,-9851.464313,1487.821518,0.208,0.928,0.182,192,0,0,0,0,0,0,0,0,0,1.71E+09,0, 2024-03-05 16:15:58.920
73,1787.044321,11902.54979,-6141.141789,-9608.09852,5109.877003,32268.76644,-9706.736768,1681.141756,0.208,0.928,0.182,192,0,0,0,0,0,0,0,0,0,1.71E+09,0, 2024-03-05 16:15:58.920
74,-1082.204411,12086.70581,-6061.502524,-10525.48117,3898.054826,28221.46901,-9530.314449,1866.772993,0.208,0.928,0.182,192,0,0,0,0,0,0,0,0,0,1.71E+09,0, 2024-03-05 16:15:58.920
75,34.33227948,12001.18804,-5809.598364,-9627.589241,4561.56636,28163.04155,-9572.715708,1765.787812,0.208,0.928,0.182,192,0,0,0,0,0,0,0,0,0,1.71E+09,0, 2024-03-05 16:15:58.920
76,3551.535732,11767.96994,-5778.752956,-8219.764616,6143.376964,32178.82302,-9783.492659,1526.713553,0.208,0.928,0.182,192,0,0,0,0,0,0,0,0,0,1.71E+09,0, 2024-03-05 16:15:58.920
77,4623.525396,11723.08764,-5977.191744,-8211.382712,6470.07006,34677.59158,-9855.39822,1485.854564,0.208,0.928,0.182,192,0,0,0,0,0,0,0,0,0,1.71E+09,0, 2024-03-05 16:15:58.920
78,1817.509749,11910.9317,-6139.10778,-9597.324979,5130.217091,32299.81301,-9702.378178,1685.232125,0.208,0.928,0.182,192,0,0,0,0,0,0,0,0,0,1.71E+09,0, 2024-03-05 16:15:58.920
79,-1046.888655,12084.38123,-6062.888332,-10516.42871,3922.373524,28261.79156,-9532.661382,1854.859514,0.208,0.928,0.182,192,0,0,0,0,0,0,0,0,0,1.71E+09,0, 2024-03-05 16:15:58.920
80,25.45863693,11998.52818,-5819.209614,-9644.934195,4561.856933,28149.00466,-9577.543685,1750.968605,0.21,0.932,0.182,192,6,144,29,32,5,176,0,0,0,1.71E+09,0, 2024-03-05 16:15:58.920
81,3542.03624,11772.86497,-5774.260256,-8234.248547,6144.628661,32141.87558,-9773.948464,1518.488111,0.21,0.932,0.182,192,0,0,0,0,0,0,0,0,0,1.71E+09,0, 2024-03-05 16:15:58.920
82,4641.317384,11721.03127,-5972.162601,-8206.86766,6489.02434,34670.59549,-9849.452656,1473.49405,0.21,0.932,0.182,192,0,0,0,0,0,0,0,0,0,1.71E+09,0, 2024-03-05 16:15:58.920
83,1860.246284,11906.46135,-6144.069868,-9580.449412,5158.581455,32338.54858,-9708.010818,1670.032939,0.21,0.932,0.182,192,0,0,0,0,0,0,0,0,0,1.71E+09,0, 2024-03-05 16:15:58.920
84,-1026.883844,12068.28798,-6088.883411,-10519.80382,3929.23551,28294.87214,-9553.202635,1834.161798,0.21,0.932,0.182,192,0,0,0,0,0,0,0,0,0,1.71E+09,0, 2024-03-05 16:15:58.920
85,-7.487834393,11990.54861,-5839.013259,-9667.308291,4547.21654,28122.36138,-9588.183116,1742.273777,0.21,0.932,0.182,192,0,0,0,0,0,0,0,0,0,1.71E+09,0, 2024-03-05 16:15:58.920
86,3503.97122,11765.42184,-5794.220363,-8247.659594,6127.194301,32098.96023,-9787.806545,1513.056637,0.21,0.932,0.182,192,0,0,0,0,0,0,0,0,0,1.71E+09,0, 2024-03-05 16:15:58.920
87,4653.096754,11710.97299,-5982.936142,-8198.195183,6490.94659,34675.89285,-9863.869532,1465.626236,0.21,0.932,0.182,192,0,0,0,0,0,0,0,0,0,1.71E+09,0, 2024-03-05 16:15:58.920
88,1910.314192,11895.93368,-6151.691812,-9567.753621,5170.807859,32388.81765,-9719.566669,1661.382814,0.21,0.932,0.182,192,0,0,0,0,0,0,0,0,0,1.71E+09,0, 2024-03-05 16:15:58.920
89,-1001.581669,12078.30156,-6080.479155,-10518.57448,3933.035306,28319.25789,-9542.11617,1842.521351,0.21,0.932,0.182,192,0,0,0,0,0,0,0,0,0,1.71E+09,0, 2024-03-05 16:15:58.920
90,-29.52665443,11999.51166,-5827.502111,-9680.920503,4529.938642,28083.24582,-9575.912008,1752.130896,0.216,0.926,0.182,192,6,192,28,240,5,176,0,0,0,1.71E+09,0, 2024-03-05 16:15:59.400
91,3474.086937,11772.37323,-5778.060052,-8254.946262,6116.130187,32040.37631,-9774.998996,1525.327745,0.216,0.926,0.182,192,0,0,0,0,0,0,0,0,0,1.71E+09,0, 2024-03-05 16:15:59.400
92,4661.590417,11716.11389,-5971.916732,-8186.549924,6499.417901,34658.39143,-9852.000755,1480.892477,0.216,0.926,0.182,192,0,0,0,0,0,0,0,0,0,1.71E+09,0, 2024-03-05 16:15:59.400
93,1937.762134,11893.60909,-6147.288519,-9552.666194,5185.850583,32417.65141,-9714.872803,1669.205924,0.216,0.926,0.182,192,0,0,0,0,0,0,0,0,0,1.71E+09,0, 2024-03-05 16:15:59.400
94,-994.67498,12064.91286,-6084.860097,-10516.09343,3934.555225,28352.6961,-9553.89554,1838.453333,0.216,0.926,0.182,192,0,0,0,0,0,0,0,0,0,1.71E+09,0, 2024-03-05 16:15:59.400
95,-71.88321017,11994.32605,-5832.777123,-9699.003065,4502.445996,28061.67639,-9583.735118,1751.348585,0.216,0.926,0.182,192,0,0,0,0,0,0,0,0,0,1.71E+09,0, 2024-03-05 16:15:59.400
96,3449.410611,11769.35575,-5777.233038,-8261.137695,6100.863946,32008.36861,-9777.345929,1528.278175,0.216,0.926,0.182,192,0,0,0,0,0,0,0,0,0,1.71E+09,0, 2024-03-05 16:15:59.400
97,4685.327969,11714.61632,-5961.746688,-8170.277854,6513.030113,34674.99878,-9848.491531,1486.033378,0.216,0.926,0.182,192,0,0,0,0,0,0,0,0,0,1.71E+09,0, 2024-03-05 16:15:59.400
98,1982.107995,11895.33018,-6138.034897,-9530.381504,5210.079874,32478.04582,-9706.714416,1676.537296,0.216,0.926,0.182,192,0,0,0,0,0,0,0,0,0,1.71E+09,0, 2024-03-05 16:15:59.400
99,-973.8878577,12069.76319,-6080.389748,-10511.71249,3946.915739,28393.041,-9539.925699,1851.35029,0.216,0.926,0.182,192,0,0,0,0,0,0,0,0,0,1.71E+09,0, 2024-03-05 16:15:59.400
100,-97.29714361,11996.65064,-5834.073524,-9714.515175,4497.75213,28041.53747,-9570.882865,1763.798507,0.212,0.93,0.18,192,6,160,29,16,5,160,0,0,0,1.71E+09,0, 2024-03-05 16:15:59.400
101,3403.701294,11775.59188,-5770.438107,-8278.549704,6087.296437,31952.77982,-9766.482981,1529.865149,0.212,0.93,0.18,192,0,0,0,0,0,0,0,0,0,1.71E+09,0, 2024-03-05 16:15:59.401
102,4684.500955,11718.66199,-5955.62231,-8165.204008,6516.807558,34662.77238,-9846.658688,1477.584419,0.212,0.93,0.18,192,0,0,0,0,0,0,0,0,0,1.71E+09,0, 2024-03-05 16:15:59.401
103,2009.33242,11890.97159,-6141.41001,-9521.776083,5221.30045,32506.09726,-9710.693027,1671.038767,0.212,0.93,0.18,192,0,0,0,0,0,0,0,0,0,1.71E+09,0, 2024-03-05 16:15:59.401
104,-965.3494913,12066.32102,-6092.951428,-10514.43941,3937.796228,28407.83786,-9546.295946,1845.71765,0.212,0.93,0.18,192,0,0,0,0,0,0,0,0,0,1.71E+09,0, 2024-03-05 16:15:59.401
105,-137.2844144,11999.84694,-5843.729477,-9732.77655,4468.046661,27994.64351,-9569.094726,1760.781021,0.212,0.93,0.18,192,0,0,0,0,0,0,0,0,0,1.71E+09,0, 2024-03-05 16:15:59.401
106,3381.438956,11779.99518,-5769.901665,-8278.169725,6072.544285,31899.3368,-9759.688051,1539.409344,0.212,0.93,0.18,192,0,0,0,0,0,0,0,0,0,1.71E+09,0, 2024-03-05 16:15:59.401
107,4693.598115,11709.1625,-5959.019775,-8155.436296,6512.717189,34647.81906,-9849.273842,1482.613561,0.212,0.93,0.18,192,0,0,0,0,0,0,0,0,0,1.71E+09,0, 2024-03-05 16:15:59.401
108,2028.197292,11877.96287,-6153.681118,-9514.712931,5213.723208,32525.31976,-9721.824196,1661.762793,0.212,0.93,0.18,192,0,0,0,0,0,0,0,0,0,1.71E+09,0, 2024-03-05 16:15:59.401
109,-967.0035204,12064.1082,-6093.845498,-10513.32182,3933.012954,28423.21586,-9547.324127,1850.478572,0.212,0.93,0.18,192,0,0,0,0,0,0,0,0,0,1.71E+09,0, 2024-03-05 16:15:59.401
110,-165.0005776,11998.43878,-5847.35046,-9744.064181,4449.9641,27976.76211,-9570.838162,1769.833478,0.212,0.93,0.18,192,0,0,0,0,0,0,0,0,0,1.71E+09,0, 2024-03-05 16:15:59.401
111,3348.268968,11771.79209,-5786.061977,-8295.91701,6039.351945,31863.14933,-9772.517952,1531.832103,0.21,0.93,0.178,192,6,144,29,16,5,144,0,0,0,1.71E+09,0, 2024-03-05 16:15:59.401
112,4699.543679,11705.18389,-5971.5144,-8155.346889,6498.456776,34643.37106,-9859.890921,1468.040224,0.21,0.93,0.178,192,0,0,0,0,0,0,0,0,0,1.71E+09,0, 2024-03-05 16:15:59.401
113,2085.261295,11880.68979,-6155.648071,-9493.277609,5230.956403,32579.92507,-9720.259573,1659.974654,0.21,0.93,0.178,192,0,0,0,0,0,0,0,0,0,1.71E+09,0, 2024-03-05 16:15:59.401
114,-939.6673369,12064.04115,-6102.71914,-10512.22658,3930.017821,28463.89603,-9547.324127,1849.383336,0.21,0.93,0.178,192,0,0,0,0,0,0,0,0,0,1.71E+09,0, 2024-03-05 16:15:59.401
115,-180.0656533,11999.95869,-5851.641995,-9755.798847,4429.109923,27959.81949,-9569.005319,1773.052129,0.21,0.93,0.178,192,0,0,0,0,0,0,0,0,0,1.71E+09,0, 2024-03-05 16:15:59.401
116,3340.602319,11777.15651,-5778.507087,-8300.297952,6027.818445,31830.20286,-9762.996109,1547.321862,0.21,0.93,0.178,192,0,0,0,0,0,0,0,0,0,1.71E+09,0, 2024-03-05 16:15:59.401
117,4733.451275,11706.07796,-5960.651453,-8141.555863,6510.705532,34646.85793,-9849.87734,1483.395873,0.21,0.93,0.178,192,0,0,0,0,0,0,0,0,0,1.71E+09,0, 2024-03-05 16:15:59.401
118,2117.313697,11876.91234,-6150.12719,-9483.532248,5246.490866,32610.77048,-9721.265402,1667.641302,0.21,0.93,0.178,192,0,0,0,0,0,0,0,0,0,1.71E+09,0, 2024-03-05 16:15:59.401
119,-930.1454938,12060.12959,-6105.468405,-10512.96419,3938.735001,28488.88528,-9553.13558,1845.181208,0.21,0.93,0.178,192,0,0,0,0,0,0,0,0,0,1.71E+09,0, 2024-03-05 16:15:59.401
120,-223.8974242,12008.3853,-5845.159989,-9778.12824,4423.723152,27924.72725,-9565.540798,1774.482641,0.21,0.93,0.178,192,0,0,0,0,0,0,0,0,0,1.71E+09,0, 2024-03-05 16:15:59.401
121,3289.774452,11788.0418,-5775.444898,-8314.133682,6024.353924,31769.40611,-9757.654042,1548.953539,0.212,0.922,0.192,192,6,160,28,208,6,0,0,0,0,1.71E+09,0, 2024-03-05 16:15:59.401
122,4737.809865,11704.46863,-5967.245217,-8130.715267,6523.423675,34640.46534,-9855.197055,1477.33855,0.212,0.922,0.192,192,0,0,0,0,0,0,0,0,0,1.71E+09,0, 2024-03-05 16:15:59.401
123,2148.807305,11873.91721,-6154.910464,-9466.746088,5262.829991,32642.66642,-9723.254707,1664.422651,0.212,0.922,0.192,192,0,0,0,0,0,0,0,0,0,1.71E+09,0, 2024-03-05 16:15:59.401
124,-917.3826477,12066.58924,-6095.566582,-10502.07889,3956.459934,28510.72294,-9543.792551,1858.614607,0.212,0.922,0.192,192,0,0,0,0,0,0,0,0,0,1.71E+09,0, 2024-03-05 16:15:59.401
125,-249.6466338,12008.00532,-5849.943262,-9781.101022,4419.141045,27902.50962,-9562.09863,1781.232867,0.212,0.922,0.192,192,0,0,0,0,0,0,0,0,0,1.71E+09,0, 2024-03-05 16:15:59.401
126,3271.669539,11782.56563,-5780.921075,-8318.358161,6014.541509,31737.77839,-9760.06803,1548.730022,0.212,0.922,0.192,192,0,0,0,0,0,0,0,0,0,1.71E+09,0, 2024-03-05 16:15:59.401
127,4753.232569,11707.28495,-5961.657281,-8121.104016,6539.38282,34639.77243,-9854.124171,1481.294809,0.212,0.922,0.192,192,0,0,0,0,0,0,0,0,0,1.71E+09,0, 2024-03-05 16:15:59.401
128,2196.28241,11878.52167,-6152.250606,-9448.06003,5292.870735,32693.20371,-9723.858204,1664.713224,0.212,0.922,0.192,192,0,0,0,0,0,0,0,0,0,1.71E+09,0, 2024-03-05 16:15:59.401
129,-885.6655223,12069.67378,-6105.177832,-10498.27909,3965.199466,28551.78309,-9547.569996,1855.440659,0.212,0.922,0.192,192,0,0,0,0,0,0,0,0,0,1.71E+09,0, 2024-03-05 16:15:59.401
130,-270.1655352,12010.48637,-5860.605044,-9800.256467,4402.444291,27883.35417,-9565.94313,1781.858716,0.212,0.922,0.192,192,0,0,0,0,0,0,0,0,0,1.71E+09,0, 2024-03-05 16:15:59.401
131,3238.052516,11790.03111,-5780.921075,-8334.809045,6002.873898,31686.68231,-9757.564635,1554.876751,0.212,0.928,0.184,192,6,160,29,0,5,192,0,0,0,1.71E+09,0, 2024-03-05 16:15:59.401
132,4754.886598,11708.53665,-5956.739897,-8116.298391,6546.513027,34624.93087,-9853.386563,1480.736015,0.212,0.928,0.184,192,0,0,0,0,0,0,0,0,0,1.71E+09,0, 2024-03-05 16:15:59.401
133,2238.527207,11869.51391,-6158.509095,-9431.564442,5313.322581,32742.24344,-9728.440312,1658.074755,0.212,0.928,0.184,192,0,0,0,0,0,0,0,0,0,1.71E+09,0, 2024-03-05 16:15:59.401
134,-868.5664378,12059.6602,-6112.352742,-10500.82719,3967.412289,28598.56529,-9549.80517,1847.461086,0.212,0.928,0.184,192,0,0,0,0,0,0,0,0,0,1.71E+09,0, 2024-03-05 16:15:59.401
135,-311.9632974,12018.53299,-5850.099725,-9822.518804,4390.553163,27856.95676,-9553.89554,1787.15608,0.212,0.928,0.184,192,0,0,0,0,0,0,0,0,0,1.71E+09,0, 2024-03-05 16:15:59.401
136,3204.748417,11791.32751,-5781.457517,-8348.421258,5994.491994,31643.007,-9752.200216,1554.697937,0.212,0.928,0.184,192,0,0,0,0,0,0,0,0,0,1.71E+09,0, 2024-03-05 16:15:59.401
137,4771.069261,11701.83113,-5965.255912,-8116.857185,6547.630614,34619.07472,-9857.476933,1475.528058,0.212,0.928,0.184,192,0,0,0,0,0,0,0,0,0,1.71E+09,0, 2024-03-05 16:15:59.401
138,2287.835155,11865.4459,-6164.633473,-9429.329268,5321.190395,32775.0558,-9734.542338,1642.674404,0.212,0.928,0.184,192,0,0,0,0,0,0,0,0,0,1.71E+09,0, 2024-03-05 16:15:59.401
139,-843.0407456,12063.10237,-6117.918327,-10505.05167,3971.480307,28620.53706,-9548.2629,1845.829409,0.212,0.928,0.184,192,0,0,0,0,0,0,0,0,0,1.71E+09,0, 2024-03-05 16:15:59.401
140,-348.7095652,12022.64571,-5860.80621,-9847.977441,4362.32291,27812.40974,-9552.643842,1791.581725,0.212,0.928,0.184,192,0,0,0,0,0,0,0,0,0,1.71E+09,0, 2024-03-05 16:15:59.401
141,3166.437527,11793.42858,-5781.189296,-8362.704022,5966.731127,31578.67868,-9751.887292,1555.256731,0.214,0.926,0.184,192,6,176,28,240,5,192,0,0,0,1.71E+09,0, 2024-03-05 16:15:59.401
142,4793.465709,11703.68632,-5960.115011,-8098.819327,6546.356564,34620.63934,-9856.918139,1478.813765,0.214,0.926,0.184,192,0,0,0,0,0,0,0,0,0,1.71E+09,0, 2024-03-05 16:15:59.401
143,2331.644575,11875.50418,-6148.674327,-9401.277828,5334.042649,32819.8934,-9724.595812,1664.53441,0.214,0.926,0.184,192,0,0,0,0,0,0,0,0,0,1.71E+09,0, 2024-03-05 16:15:59.401
144,-808.6414109,12065.89634,-6113.962068,-10489.53956,3972.754356,28668.14627,-9550.162798,1850.45622,0.214,0.926,0.184,192,0,0,0,0,0,0,0,0,0,1.71E+09,0, 2024-03-05 16:15:59.401
145,-354.2527979,12019.06944,-5866.260036,-9852.403087,4346.162599,27819.45054,-9556.242473,1790.039455,0.214,0.926,0.184,192,0,0,0,0,0,0,0,0,0,1.71E+09,0, 2024-03-05 16:15:59.401
146,3129.735962,11797.80952,-5778.663549,-8374.192819,5946.726316,31541.32891,-9744.064181,1566.499658,0.214,0.926,0.184,192,0,0,0,0,0,0,0,0,0,1.71E+09,0, 2024-03-05 16:15:59.401
147,4796.326732,11705.89914,-5949.274415,-8091.711472,6553.73264,34611.58688,-9851.576072,1483.440576,0.214,0.926,0.184,192,0,0,0,0,0,0,0,0,0,1.71E+09,0, 2024-03-05 16:15:59.401
148,2375.856325,11866.65289,-6151.624757,-9384.759889,5353.734535,32867.99435,-9735.123484,1654.565532,0.214,0.926,0.184,192,0,0,0,0,0,0,0,0,0,1.71E+09,0, 2024-03-05 16:15:59.401
149,-780.7464338,12064.1529,-6113.917364,-10481.87291,3988.937019,28715.35316,-9554.096705,1847.975176,0.214,0.926,0.184,192,0,0,0,0,0,0,0,0,0,1.71E+09,0, 2024-03-05 16:15:59.401
150,-396.1623187,12030.40177,-5857.140524,-9865.925892,4334.13736,27786.77229,-9548.240548,1798.3096,0.214,0.926,0.184,192,0,0,0,0,0,0,0,0,0,1.71E+09,0, 2024-03-05 16:15:59.401
151,3102.176261,11803.68803,-5776.294264,-8372.292921,5936.355106,31500.33581,-9741.627841,1566.90199,0.218,0.928,0.182,192,6,208,29,0,5,176,0,0,0,1.71E+09,0, 2024-03-05 16:15:59.401
152,4792.45988,11712.64937,-5946.413391,-8078.233371,6552.615053,34596.3877,-9846.323412,1483.529983,0.218,0.928,0.182,192,0,0,0,0,0,0,0,0,0,1.71E+09,0, 2024-03-05 16:15:59.401
153,2398.766863,11884.37782,-6134.860949,-9354.517979,5377.382681,32889.42968,-9717.733826,1664.601465,0.218,0.928,0.182,192,0,0,0,0,0,0,0,0,0,1.71E+09,0, 2024-03-05 16:15:59.401
154,-774.8008698,12072.98184,-6110.944582,-10466.13729,3994.301438,28729.99355,-9549.648708,1850.59033,0.218,0.928,0.182,192,0,0,0,0,0,0,0,0,0,1.71E+09,0, 2024-03-05 16:15:59.401
155,-415.7647986,12024.23269,-5871.870324,-9872.586712,4319.988706,27766.11927,-9557.605929,1786.194955,0.218,0.928,0.182,192,0,0,0,0,0,0,0,0,0,1.71E+09,0, 2024-03-05 16:15:59.401
156,3092.430901,11793.29446,-5790.152346,-8383.245275,5925.536862,31471.43501,-9754.122466,1547.701841,0.218,0.928,0.182,192,0,0,0,0,0,0,0,0,0,1.71E+09,0, 2024-03-05 16:15:59.401
157,4808.73195,11709.1625,-5952.694232,-8074.098298,6561.667509,34597.17001,-9852.44779,1473.896381,0.218,0.928,0.182,192,0,0,0,0,0,0,0,0,0,1.71E+09,0, 2024-03-05 16:15:59.401
158,2431.646279,11876.66647,-6143.689888,-9344.191473,5393.990027,32932.36738,-9726.629821,1660.913427,0.218,0.928,0.182,192,0,0,0,0,0,0,0,0,0,1.71E+09,0, 2024-03-05 16:15:59.401
159,-755.1536864,12075.41818,-6104.462576,-10459.02943,4013.814511,28771.92542,-9540.596252,1861.408575,0.218,0.928,0.182,192,0,0,0,0,0,0,0,0,0,1.71E+09,0, 2024-03-05 16:15:59.401
160,-449.5382845,12039.11895,-5858.548684,-9880.387471,4320.100465,27744.68395,-9534.874205,1811.675943,0.218,0.928,0.182,192,0,0,0,0,0,0,0,0,0,1.71E+09,0, 2024-03-05 16:15:59.401
161,3032.483522,11811.10881,-5775.131974,-8393.281209,5914.316286,31407.06198,-9729.401437,1571.864077,0.222,0.93,0.188,192,6,240,29,16,5,224,0,0,0,1.71E+09,0, 2024-03-05 16:15:59.401
162,4802.674628,11716.53857,-5935.12576,-8062.251873,6579.168925,34579.24391,-9841.741305,1478.74671,0.222,0.93,0.188,192,0,0,0,0,0,0,0,0,0,1.71E+09,0, 2024-03-05 16:15:59.401
163,2481.289504,11872.33023,-6141.499417,-9322.778502,5426.020077,32990.45956,-9725.668696,1648.172933,0.222,0.93,0.188,192,0,0,0,0,0,0,0,0,0,1.71E+09,0, 2024-03-05 16:15:59.401
164,-740.3568316,12065.38225,-6122.254565,-10462.82923,4021.347048,28819.37818,-9548.508769,1844.242435,0.222,0.93,0.188,192,0,0,0,0,0,0,0,0,0,1.71E+09,0, 2024-03-05 16:15:59.401
165,-491.4478053,12032.36872,-5877.659425,-9909.400035,4303.470767,27729.06008,-9544.954842,1792.475795,0.222,0.93,0.188,192,0,0,0,0,0,0,0,0,0,1.71E+09,0, 2024-03-05 16:15:59.401
166,2984.53903,11807.71134,-5772.27095,-8411.073197,5909.153033,31372.01445,-9732.173053,1568.220743,0.222,0.93,0.188,192,0,0,0,0,0,0,0,0,0,1.71E+09,0, 2024-03-05 16:15:59.401
167,4790.40352,11705.69798,-5935.393981,-8058.407373,6582.678149,34582.75313,-9845.362287,1478.009102,0.222,0.93,0.188,192,0,0,0,0,0,0,0,0,0,1.71E+09,0, 2024-03-05 16:15:59.401
168,2493.314742,11861.28847,-6141.231196,-9313.748397,5437.84415,33032.36908,-9730.764893,1648.619968,0.222,0.93,0.188,192,0,0,0,0,0,0,0,0,0,1.71E+09,0, 2024-03-05 16:15:59.401
169,-729.9856222,12061.13542,-6113.269164,-10458.85062,4032.500569,28858.20316,-9547.480589,1846.499961,0.222,0.93,0.188,192,0,0,0,0,0,0,0,0,0,1.71E+09,0, 2024-03-05 16:15:59.401
170,-528.3058319,12037.73314,-5864.181324,-9920.419445,4296.027636,27709.09997,-9531.834368,1811.072446,0.222,0.93,0.188,192,0,0,0,0,0,0,0,0,0,1.71E+09,0, 2024-03-05 16:15:59.401
171,2943.255358,11810.86294,-5770.907494,-8418.426921,5895.674931,31321.16423,-9724.305239,1577.049682,0.224,0.93,0.186,192,7,0,29,16,5,208,0,0,0,1.71E+09,0, 2024-03-05 16:15:59.401
172,4786.111985,11710.95064,-5930.543653,-8051.143056,6582.253466,34557.09333,-9837.092142,1487.419187,0.224,0.93,0.186,192,0,0,0,0,0,0,0,0,0,1.71E+09,0, 2024-03-05 16:15:59.401
173,2514.526548,11867.34579,-6133.34103,-9298.057472,5446.382516,33038.85109,-9719.298448,1657.292444,0.224,0.93,0.186,192,0,0,0,0,0,0,0,0,0,1.71E+09,0, 2024-03-05 16:15:59.401
174,-707.8573952,12063.99644,-6108.798815,-10446.55716,4041.48597,28881.87365,-9542.786723,1848.556322,0.224,0.93,0.186,192,0,0,0,0,0,0,0,0,0,1.71E+09,0, 2024-03-05 16:15:59.401
175,-542.7227071,12040.50476,-5859.353347,-9923.928669,4286.617552,27698.59465,-9528.347496,1811.25126,0.224,0.93,0.186,192,0,0,0,0,0,0,0,0,0,1.71E+09,0, 2024-03-05 16:15:59.401
176,2928.346745,11808.56071,-5771.086308,-8421.153834,5875.983045,31296.93494,-9727.233318,1569.986531,0.224,0.93,0.186,192,0,0,0,0,0,0,0,0,0,1.71E+09,0, 2024-03-05 16:15:59.401
177,4791.94579,11703.55221,-5934.321098,-8045.823341,6573.692748,34559.64143,-9847.530406,1467.570837,0.224,0.93,0.186,192,0,0,0,0,0,0,0,0,0,1.71E+09,0, 2024-03-05 16:15:59.401
178,2532.542054,11867.61402,-6126.814321,-9283.886466,5457.603092,33074.30095,-9725.132254,1645.490723,0.224,0.93,0.186,192,0,0,0,0,0,0,0,0,0,1.71E+09,0, 2024-03-05 16:15:59.401
179,-701.1518718,12073.7418,-6104.864908,-10438.57759,4044.078773,28910.68505,-9539.076333,1849.003357,0.224,0.93,0.186,192,0,0,0,0,0,0,0,0,0,1.71E+09,0, 2024-03-05 16:15:59.401
180,-578.418443,12052.10531,-5861.163838,-9937.250309,4265.629264,27665.29055,-9523.586574,1818.895557,0.224,0.93,0.186,192,0,0,0,0,0,0,0,0,0,1.71E+09,0, 2024-03-05 16:15:59.401
181,2898.753035,11820.58594,-5766.660662,-8430.183939,5862.21437,31239.64742,-9718.627896,1587.689112,0.214,0.926,0.18,192,6,176,28,240,5,160,0,0,0,1.71E+09,0, 2024-03-05 16:15:59.401
182,4802.786386,11712.26939,-5927.168539,-8040.68244,6577.581951,34532.84169,-9838.768523,1489.207326,0.214,0.926,0.18,192,0,0,0,0,0,0,0,0,0,1.71E+09,0, 2024-03-05 16:15:59.401
183,2593.025874,11864.64123,-6125.987306,-9268.910798,5473.025796,33108.14149,-9723.053542,1655.459601,0.214,0.926,0.18,192,0,0,0,0,0,0,0,0,0,1.71E+09,0, 2024-03-05 16:15:59.401
184,-653.7214701,12069.04794,-6105.91544,-10435.89538,4053.935892,28955.20973,-9540.216272,1855.038328,0.214,0.926,0.18,192,0,0,0,0,0,0,0,0,0,1.71E+09,0, 2024-03-05 16:15:59.401
185,-584.8557454,12047.29969,-5866.505905,-9957.970376,4249.804229,27653.42178,-9525.285307,1815.922775,0.214,0.926,0.18,192,0,0,0,0,0,0,0,0,0,1.71E+09,0, 2024-03-05 16:15:59.401
186,2875.574276,11816.09324,-5770.527514,-8448.467666,5840.30966,31201.35888,-9719.477262,1579.709539,0.214,0.926,0.18,192,0,0,0,0,0,0,0,0,0,1.71E+09,0, 2024-03-05 16:15:59.401
187,4824.825206,11709.65424,-5920.217147,-8029.975954,6588.914286,34546.20803,-9836.645107,1481.071291,0.214,0.926,0.18,192,0,0,0,0,0,0,0,0,0,1.71E+09,0, 2024-03-05 16:15:59.401
188,2642.065602,11859.29917,-6127.529577,-9254.762143,5494.014084,33169.89936,-9726.294544,1646.161276,0.214,0.926,0.18,192,0,0,0,0,0,0,0,0,0,1.71E+09,0, 2024-03-05 16:15:59.401
189,-637.5164554,12062.99061,-6111.883356,-10440.18691,4052.37127,28996.80632,-9544.641917,1845.672947,0.214,0.926,0.18,192,0,0,0,0,0,0,0,0,0,1.71E+09,0, 2024-03-05 16:15:59.401
190,-614.3153446,12048.19376,-5866.036518,-9976.455268,4235.387353,27643.25173,-9524.838272,1811.608888,0.214,0.926,0.18,192,0,0,0,0,0,0,0,0,0,1.71E+09,0, 2024-03-05 16:15:59.401
191,2820.723095,11812.09228,-5769.119354,-8468.651291,5822.294154,31155.89543,-9719.276097,1578.904877,0.214,0.928,0.184,192,6,176,29,0,5,192,0,0,0,1.71E+09,0, 2024-03-05 16:15:59.401
192,4801.467633,11703.10518,-5926.095656,-8038.290803,6571.770498,34519.65416,-9840.78018,1475.684521,0.214,0.928,0.184,192,0,0,0,0,0,0,0,0,0,1.71E+09,0, 2024-03-05 16:15:59.401
193,2660.170515,11858.96389,-6120.600536,-9242.982774,5504.4747,33193.77103,-9723.254707,1642.49559,0.214,0.928,0.184,192,0,0,0,0,0,0,0,0,0,1.71E+09,0, 2024-03-05 16:15:59.401
194,-610.8508242,12053.8711,-6112.956239,-10431.84971,4067.011662,29041.24159,-9547.011202,1839.995604,0.214,0.928,0.184,192,0,0,0,0,0,0,0,0,0,1.71E+09,0, 2024-03-05 16:15:59.401
195,-636.9576617,12038.47075,-5877.301798,-9991.140365,4220.143464,27637.32852,-9524.212423,1812.860586,0.214,0.928,0.184,192,0,0,0,0,0,0,0,0,0,1.71E+09,0, 2024-03-05 16:15:59.401
196,2780.288789,11815.35564,-5764.827819,-8482.509373,5805.306829,31105.78282,-9711.967076,1583.598743,0.214,0.928,0.184,192,0,0,0,0,0,0,0,0,0,1.71E+09,0, 2024-03-05 16:15:59.401
197,4812.352933,11700.89235,-5919.501891,-8026.310268,6586.634408,34512.79217,-9838.947337,1472.823497,0.214,0.928,0.184,192,0,0,0,0,0,0,0,0,0,1.71E+09,0, 2024-03-05 16:15:59.401
198,2704.985762,11851.87839,-6127.261356,-9223.514405,5525.10536,33239.45799,-9731.703667,1635.812418,0.214,0.928,0.184,192,0,0,0,0,0,0,0,0,0,1.71E+09,0, 2024-03-05 16:15:59.401
199,-606.0004957,12062.61063,-6121.852234,-10428.89928,4064.955302,29061.04524,-9545.848912,1846.477609,0.214,0.928,0.184,192,0,0,0,0,0,0,0,0,0,1.71E+09,0, 2024-03-05 16:15:59.401
200,-685.393892,12055.7263,-5875.915989,-10002.71857,4202.79851,27592.62503,-9519.339743,1825.310507,0.214,0.928,0.184,192,0,0,0,0,0,0,0,0,0,1.71E+09,0, 2024-03-05 16:15:59.401
201,2748.504609,11830.91245,-5761.139782,-8481.525896,5791.269933,31050.79753,-9706.714416,1598.216784,0.21,0.926,0.186,192,6,144,28,240,5,208,0,0,0,1.71E+09,0, 2024-03-05 16:15:59.401
202,4820.757189,11718.70669,-5904.74974,-8000.896335,6596.200954,34497.14595,-9826.139787,1497.209251,0.21,0.926,0.186,192,0,0,0,0,0,0,0,0,0,1.71E+09,0, 2024-03-05 16:15:59.401
203,2762.832077,11857.53338,-6121.628716,-9190.322064,5555.369622,33290.01764,-9725.98162,1646.630662,0.21,0.926,0.186,192,0,0,0,0,0,0,0,0,0,1.71E+09,0, 2024-03-05 16:15:59.401
204,-540.7781054,12062.36476,-6119.080617,-10404.7594,4096.828889,29134.82835,-9542.876129,1851.707918,0.21,0.926,0.186,192,0,0,0,0,0,0,0,0,0,1.71E+09,0, 2024-03-05 16:15:59.401
205,-676.9449326,12053.71464,-5889.416443,-10011.63691,4196.092987,27605.58904,-9517.395141,1825.846949,0.21,0.926,0.186,192,0,0,0,0,0,0,0,0,0,1.71E+09,0, 2024-03-05 16:15:59.401
206,2718.419161,11840.54605,-5763.598474,-8498.937905,5770.72868,31001.42252,-9699.293637,1597.166252,0.21,0.926,0.186,192,0,0,0,0,0,0,0,0,0,1.71E+09,0, 2024-03-05 16:15:59.401
207,4819.706657,11725.56868,-5897.753644,-8000.516355,6595.306885,34468.08868,-9817.534365,1491.286038,0.21,0.926,0.186,192,0,0,0,0,0,0,0,0,0,1.71E+09,0, 2024-03-05 16:15:59.401
208,2801.545298,11857.82395,-6117.694809,-9176.598093,5567.327805,33307.85433,-9721.980658,1642.652052,0.21,0.926,0.186,192,0,0,0,0,0,0,0,0,0,1.71E+09,0, 2024-03-05 16:15:59.401
209,-510.6479538,12055.36867,-6124.087408,-10405.98874,4104.562593,29161.06929,-9547.704106,1842.186075,0.21,0.926,0.186,192,0,0,0,0,0,0,0,0,0,1.71E+09,0, 2024-03-05 16:15:59.401
210,-707.4550638,12059.45904,-5882.777975,-10032.22287,4186.124109,27567.8593,-9508.901478,1830.585519,0.21,0.926,0.186,192,0,0,0,0,0,0,0,0,0,1.71E+09,0, 2024-03-05 16:15:59.881
211,2694.18987,11829.90662,-5769.767555,-8512.237193,5763.710232,30959.13302,-9703.831041,1591.086577,0.214,0.93,0.188,192,6,176,29,16,5,224,0,0,0,1.71E+09,0, 2024-03-05 16:15:59.881
212,4832.04482,11706.14501,-5916.976144,-8002.684474,6598.503184,34467.59694,-9831.548909,1477.137384,0.214,0.93,0.188,192,0,0,0,0,0,0,0,0,0,1.71E+09,0, 2024-03-05 16:15:59.881
213,2829.596738,11843.54119,-6132.782237,-9171.680709,5574.837992,33353.34013,-9733.424751,1633.219616,0.214,0.93,0.188,192,0,0,0,0,0,0,0,0,0,1.71E+09,0, 2024-03-05 16:15:59.881
214,-499.6732473,12050.40658,-6127.641335,-10403.79827,4110.217584,29204.58814,-9548.017031,1839.280348,0.214,0.93,0.188,192,0,0,0,0,0,0,0,0,0,1.71E+09,0, 2024-03-05 16:15:59.881
215,-739.6639275,12054.76517,-5887.650655,-10047.82439,4173.2048,27564.75241,-9511.471929,1829.087952,0.214,0.93,0.188,192,0,0,0,0,0,0,0,0,0,1.71E+09,0, 2024-03-05 16:15:59.881
216,2636.857645,11835.22634,-5759.664566,-8527.212861,5742.006688,30909.60156,-9693.839812,1601.793063,0.214,0.93,0.188,192,0,0,0,0,0,0,0,0,0,1.71E+09,0, 2024-03-05 16:15:59.881
217,4831.217805,11707.01673,-5904.660333,-7990.703939,6596.290361,34459.3268,-9829.805473,1480.646608,0.214,0.93,0.188,192,0,0,0,0,0,0,0,0,0,1.71E+09,0, 2024-03-05 16:15:59.881
218,2881.721006,11838.17677,-6127.06019,-9149.865407,5590.148937,33410.91823,-9737.8951,1625.262395,0.214,0.93,0.188,192,0,0,0,0,0,0,0,0,0,1.71E+09,0, 2024-03-05 16:15:59.881
219,-477.567372,12051.79239,-6122.053399,-10401.27252,4107.513023,29244.30719,-9542.987888,1841.426115,0.214,0.93,0.188,192,0,0,0,0,0,0,0,0,0,1.71E+09,0, 2024-03-05 16:15:59.881
220,-762.2838929,12051.07713,-5887.404786,-10061.45895,4151.322442,27552.14602,-9507.806242,1831.412534,0.214,0.93,0.188,192,0,0,0,0,0,0,0,0,0,1.71E+09,0, 2024-03-05 16:15:59.881
221,2607.845081,11826.62092,-5758.725793,-8539.439266,5724.013534,30872.22944,-9698.779547,1597.345066,0.216,0.932,0.182,192,6,192,29,32,5,176,0,0,0,1.71E+09,0, 2024-03-05 16:15:59.881
222,4817.31502,11704.04395,-5898.312437,-7990.949808,6593.161117,34434.65047,-9831.146578,1482.121823,0.216,0.932,0.182,192,0,0,0,0,0,0,0,0,0,1.71E+09,0, 2024-03-05 16:15:59.881
223,2901.390541,11843.36237,-6112.889184,-9130.329982,5615.741684,33435.54985,-9731.882481,1640.819209,0.216,0.932,0.182,192,0,0,0,0,0,0,0,0,0,1.71E+09,0, 2024-03-05 16:15:59.881
224,-455.3944415,12050.78656,-6123.841539,-10386.36391,4132.681088,29295.98442,-9550.945109,1841.426115,0.216,0.932,0.182,192,0,0,0,0,0,0,0,0,0,1.71E+09,0, 2024-03-05 16:15:59.881
225,-812.2847453,12057.80501,-5895.607876,-10085.30826,4141.152399,27525.63685,-9510.421397,1832.843045,0.216,0.932,0.182,192,0,0,0,0,0,0,0,0,0,1.71E+09,0, 2024-03-05 16:15:59.881
226,2542.980318,11835.94159,-5766.347738,-8559.600539,5710.222508,30810.8292,-9693.415128,1601.614249,0.216,0.932,0.182,192,0,0,0,0,0,0,0,0,0,1.71E+09,0, 2024-03-05 16:15:59.881
227,4805.714465,11704.73685,-5909.845937,-7990.212201,6603.554678,34425.79918,-9835.236947,1478.769061,0.216,0.932,0.182,192,0,0,0,0,0,0,0,0,0,1.71E+09,0, 2024-03-05 16:15:59.881
228,2928.436152,11842.40125,-6120.309963,-9116.315438,5635.478274,33478.24168,-9733.603565,1635.07481,0.216,0.932,0.182,192,0,0,0,0,0,0,0,0,0,1.71E+09,0, 2024-03-05 16:15:59.881
229,-426.2924703,12051.90415,-6120.488777,-10373.28814,4153.132934,29348.68984,-9543.099647,1846.09763,0.216,0.932,0.182,192,0,0,0,0,0,0,0,0,0,1.71E+09,0, 2024-03-05 16:15:59.881
230,-823.7735419,12057.73795,-5900.39115,-10091.92438,4135.65387,27533.61643,-9509.236754,1833.625356,0.216,0.932,0.182,192,0,0,0,0,0,0,0,0,0,1.71E+09,0, 2024-03-05 16:15:59.881
231,2504.110635,11841.08249,-5770.326349,-8579.203019,5688.362502,30765.56692,-9691.13525,1603.581202,0.214,0.93,0.184,192,6,176,29,16,5,192,0,0,0,1.71E+09,0, 2024-03-05 16:15:59.881
232,4795.723235,11707.93315,-5908.571888,-7989.80987,6594.837498,34400.00527,-9833.918194,1475.796279,0.214,0.93,0.184,192,0,0,0,0,0,0,0,0,0,1.71E+09,0, 2024-03-05 16:15:59.881
233,2954.699451,11839.56258,-6129.675344,-9108.469976,5643.279033,33506.85191,-9742.76778,1616.768732,0.214,0.93,0.184,192,0,0,0,0,0,0,0,0,0,1.71E+09,0, 2024-03-05 16:15:59.881
234,-411.9873538,12048.97607,-6138.59369,-10375.72448,4152.931768,29384.20676,-9554.901368,1828.149179,0.214,0.93,0.184,192,0,0,0,0,0,0,0,0,0,1.71E+09,0, 2024-03-05 16:15:59.881
235,-841.2973096,12061.47069,-5907.476653,-10102.4744,4126.221433,27535.67279,-9511.695446,1831.524292,0.214,0.93,0.184,192,0,0,0,0,0,0,0,0,0,1.71E+09,0, 2024-03-05 16:15:59.881
236,2458.669538,11846.49162,-5768.113526,-8589.350711,5669.922312,30734.90032,-9691.023492,1607.671572,0.214,0.93,0.184,192,0,0,0,0,0,0,0,0,0,1.71E+09,0, 2024-03-05 16:15:59.881
237,4769.482287,11712.71643,-5897.485423,-7984.043119,6593.406986,34385.83426,-9830.766598,1476.466832,0.214,0.93,0.184,192,0,0,0,0,0,0,0,0,0,1.71E+09,0, 2024-03-05 16:15:59.881
238,2971.865591,11840.79192,-6114.230289,-9085.58179,5665.295501,33543.2182,-9736.129312,1628.950432,0.214,0.93,0.184,192,0,0,0,0,0,0,0,0,0,1.71E+09,0, 2024-03-05 16:15:59.881
239,-406.3770659,12053.55818,-6124.556795,-10368.50487,4165.225228,29411.63235,-9547.74881,1839.615624,0.214,0.93,0.184,192,0,0,0,0,0,0,0,0,0,1.71E+09,0, 2024-03-05 16:15:59.881
240,-875.5625338,12058.72143,-5903.542746,-10118.76883,4113.145663,27505.38617,-9507.426263,1828.819731,0.214,0.93,0.184,192,0,0,0,0,0,0,0,0,0,1.71E+09,0, 2024-03-05 16:15:59.881
241,2421.140959,11843.09415,-5759.84338,-8606.561554,5663.574417,30677.14342,-9685.882591,1610.420836,0.21,0.932,0.182,192,6,144,29,32,5,176,0,0,0,1.71E+09,0, 2024-03-05 16:15:59.881
242,4764.699014,11711.44238,-5889.282333,-7985.048948,6599.039626,34352.26194,-9826.05038,1480.758367,0.21,0.932,0.182,192,0,0,0,0,0,0,0,0,0,1.71E+09,0, 2024-03-05 16:15:59.881
243,3015.362086,11827.53734,-6125.875548,-9076.551685,5679.265342,33573.9742,-9751.797885,1603.692961,0.21,0.932,0.182,192,0,0,0,0,0,0,0,0,0,1.71E+09,0, 2024-03-05 16:15:59.881
244,-361.2712456,12040.01302,-6138.660745,-10363.78865,4174.165925,29469.61277,-9561.942168,1823.54472,0.21,0.932,0.182,192,0,0,0,0,0,0,0,0,0,1.71E+09,0, 2024-03-05 16:15:59.881
245,-890.0911677,12062.36476,-5897.999513,-10127.41895,4105.434311,27515.62327,-9505.839289,1840.353231,0.21,0.932,0.182,192,0,0,0,0,0,0,0,0,0,1.71E+09,0, 2024-03-05 16:15:59.881
246,2384.193526,11844.70348,-5760.871561,-8616.038694,5640.976803,30647.4156,-9682.976864,1615.002944,0.21,0.932,0.182,192,0,0,0,0,0,0,0,0,0,1.71E+09,0, 2024-03-05 16:15:59.881
247,4755.847723,11713.07405,-5886.309551,-7980.556247,6591.618847,34342.02484,-9820.104816,1485.16166,0.21,0.932,0.182,192,0,0,0,0,0,0,0,0,0,1.71E+09,0, 2024-03-05 16:15:59.881
248,3038.451438,11832.63353,-6112.33039,-9058.692641,5689.860069,33605.53486,-9744.868844,1611.136092,0.21,0.932,0.182,192,0,0,0,0,0,0,0,0,0,1.71E+09,0, 2024-03-05 16:15:59.881
249,-338.3607076,12040.46005,-6130.301193,-10351.31637,4183.441899,29512.77399,-9557.449467,1826.606909,0.21,0.932,0.182,192,0,0,0,0,0,0,0,0,0,1.71E+09,0, 2024-03-05 16:15:59.881
250,-919.2378425,12068.46679,-5903.85567,-10143.19928,4085.921238,27497.98775,-9498.463213,1846.432906,0.21,0.932,0.182,192,0,0,0,0,0,0,0,0,0,1.71E+09,0, 2024-03-05 16:15:59.881
251,2338.573615,11856.61696,-5759.530456,-8628.28745,5621.642544,30599.18053,-9677.947721,1621.820226,0.21,0.932,0.182,192,0,0,0,0,0,0,0,0,0,1.71E+09,0, 2024-03-05 16:15:59.881
252,4749.075144,11712.11293,-5887.762414,-7975.348291,6586.321483,34341.68957,-9828.173796,1478.791413,0.204,0.928,0.184,192,6,96,29,0,5,192,0,0,0,1.71E+09,0, 2024-03-05 16:15:59.881
253,3066.525229,11825.54803,-6117.694809,-9043.091123,5702.242935,33659.38022,-9751.306147,1609.124435,0.204,0.928,0.184,192,0,0,0,0,0,0,0,0,0,1.71E+09,0, 2024-03-05 16:15:59.881
254,-310.5327857,12033.88864,-6145.388621,-10344.83437,4195.198917,29580.768,-9566.300758,1814.872243,0.204,0.928,0.184,192,0,0,0,0,0,0,0,0,0,1.71E+09,0, 2024-03-05 16:15:59.881
255,-930.3243077,12068.44444,-5915.344467,-10152.81053,4075.393567,27514.99742,-9500.519574,1840.174418,0.204,0.928,0.184,192,0,0,0,0,0,0,0,0,0,1.71E+09,0, 2024-03-05 16:15:59.881
0,2324.871996,11851.18548,-5768.381747,-8637.786941,5607.695056,30581.63441,-9680.227599,1617.573394,0.204,0.928,0.184,192,0,0,0,0,0,0,0,0,0,1.71E+09,0, 2024-03-05 16:15:59.881
1,4747.756391,11710.90593,-5893.529164,-7981.875,6583.214591,34318.75668,-9831.258336,1474.678692,0.204,0.928,0.184,192,0,0,0,0,0,0,0,0,0,1.71E+09,0, 2024-03-05 16:15:59.881
2,3102.80211,11830.2866,-6113.157405,-9034.016315,5717.062142,33676.45695,-9750.345022,1606.486929,0.204,0.928,0.184,192,0,0,0,0,0,0,0,0,0,1.71E+09,0, 2024-03-05 16:15:59.881
3,-279.5532679,12042.76228,-6138.034897,-10338.53118,4204.229022,29600.72811,-9561.159856,1826.092819,0.204,0.928,0.184,192,0,0,0,0,0,0,0,0,0,1.71E+09,0, 2024-03-05 16:15:59.881
4,-936.5157409,12064.17526,-5920.954754,-10175.09522,4062.831886,27491.72926,-9506.912173,1837.223987,0.204,0.928,0.184,192,0,0,0,0,0,0,0,0,0,1.71E+09,0, 2024-03-05 16:15:59.881
5,2291.254972,11854.49354,-5768.80643,-8664.474924,5585.767995,30515.74147,-9679.154715,1618.959203,0.204,0.928,0.184,192,0,0,0,0,0,0,0,0,0,1.71E+09,0, 2024-03-05 16:15:59.881
6,4764.207275,11708.98368,-5889.841126,-7977.337596,6590.25539,34298.61776,-9828.911403,1477.182088,0.204,0.926,0.186,192,6,96,28,240,5,208,0,0,0,1.71E+09,0, 2024-03-05 16:15:59.881
7,3145.695108,11831.15832,-6111.101045,-9021.52169,5734.250633,33696.57352,-9744.421809,1612.343086,0.204,0.926,0.186,192,0,0,0,0,0,0,0,0,0,1.71E+09,0, 2024-03-05 16:15:59.881
8,-244.5727878,12037.33081,-6140.158312,-10333.12205,4216.388371,29626.70083,-9559.103496,1823.187092,0.204,0.926,0.186,192,0,0,0,0,0,0,0,0,0,1.71E+09,0, 2024-03-05 16:15:59.881
9,-950.9773196,12066.79041,-5919.256022,-10185.91347,4059.210904,27469.1987,-9500.98896,1842.498999,0.204,0.926,0.186,192,0,0,0,0,0,0,0,0,0,1.71E+09,0, 2024-03-05 16:15:59.881
10,2252.295882,11855.34291,-5770.035776,-8680.098794,5571.664044,30452.86601,-9673.544428,1624.591842,0.204,0.926,0.186,192,0,0,0,0,0,0,0,0,0,1.71E+09,0, 2024-03-05 16:15:59.881
11,4764.609607,11705.9215,-5893.35035,-7974.364814,6589.182507,34265.22425,-9825.223365,1478.657303,0.204,0.926,0.186,192,0,0,0,0,0,0,0,0,0,1.71E+09,0, 2024-03-05 16:15:59.881
12,3199.004018,11814.64038,-6123.461559,-9002.008617,5750.455648,33744.60742,-9756.402344,1600.451958,0.204,0.926,0.186,192,0,0,0,0,0,0,0,0,0,1.71E+09,0, 2024-03-05 16:15:59.881
13,-220.3211451,12035.02858,-6148.875493,-10331.84801,4222.892728,29674.95825,-9564.91495,1817.845025,0.204,0.926,0.186,192,0,0,0,0,0,0,0,0,0,1.71E+09,0, 2024-03-05 16:15:59.881
14,-983.6108665,12077.22867,-5923.100522,-10201.87261,4047.073906,27450.64675,-9498.41851,1841.001432,0.204,0.926,0.186,192,0,0,0,0,0,0,0,0,0,1.71E+09,0, 2024-03-05 16:15:59.881
15,2214.186157,11863.97068,-5763.330253,-8689.620637,5560.421116,30404.36273,-9667.911788,1623.206034,0.204,0.926,0.186,192,0,0,0,0,0,0,0,0,0,1.71E+09,0, 2024-03-05 16:15:59.881
16,4759.535761,11712.47056,-5884.342597,-7965.871151,6596.91621,34246.78406,-9818.271973,1483.731149,0.206,0.922,0.186,192,6,112,28,208,5,208,0,0,0,1.71E+09,0, 2024-03-05 16:15:59.881
17,3230.810551,11821.14474,-6117.359533,-8985.714195,5775.310788,33769.68608,-9750.412077,1603.916479,0.206,0.922,0.186,192,0,0,0,0,0,0,0,0,0,1.71E+09,0, 2024-03-05 16:15:59.881
18,-176.1764498,12035.78854,-6144.606309,-10320.02393,4247.569054,29718.81237,-9566.613682,1815.945127,0.206,0.922,0.186,192,0,0,0,0,0,0,0,0,0,1.71E+09,0, 2024-03-05 16:15:59.881
19,-982.4485758,12082.30252,-5921.67001,-10208.01934,4045.129305,27450.98203,-9495.579838,1847.081107,0.206,0.922,0.186,192,0,0,0,0,0,0,0,0,0,1.71E+09,0, 2024-03-05 16:15:59.881
20,2185.754739,11877.89582,-5763.93375,-8698.024893,5542.472666,30361.7156,-9662.748535,1634.04663,0.206,0.922,0.186,192,0,0,0,0,0,0,0,0,0,1.71E+09,0, 2024-03-05 16:15:59.881
21,4759.446354,11717.92438,-5880.095766,-7955.187017,6595.195126,34232.45659,-9822.33999,1485.67575,0.206,0.922,0.186,192,0,0,0,0,0,0,0,0,0,1.71E+09,0, 2024-03-05 16:15:59.881
22,3271.133098,11826.79973,-6108.016504,-8959.048564,5791.851078,33808.60046,-9753.563673,1608.610345,0.206,0.922,0.186,192,0,0,0,0,0,0,0,0,0,1.71E+09,0, 2024-03-05 16:15:59.881
23,-154.0705745,12043.52224,-6146.103876,-10302.299,4256.845028,29754.95514,-9566.59133,1825.265804,0.206,0.922,0.186,192,0,0,0,0,0,0,0,0,0,1.71E+09,0, 2024-03-05 16:15:59.881
24,-990.0034654,12079.15092,-5931.728295,-10208.84636,4041.061287,27459.11806,-9502.017141,1847.215217,0.206,0.922,0.186,192,0,0,0,0,0,0,0,0,0,1.71E+09,0, 2024-03-05 16:15:59.881
25,2150.751907,11876.06297,-5772.159192,-8708.88784,5531.63207,30333.73121,-9670.973977,1629.978613,0.206,0.922,0.186,192,0,0,0,0,0,0,0,0,0,1.71E+09,0, 2024-03-05 16:15:59.881
26,4730.590252,11727.69209,-5882.241533,-7959.769125,6591.775309,34196.0009,-9820.484796,1485.273419,0.206,0.926,0.182,192,6,112,28,240,5,176,0,0,0,1.71E+09,0, 2024-03-05 16:15:59.881
27,3299.542165,11833.03587,-6115.996077,-8943.581157,5810.313619,33835.75783,-9754.837722,1604.944659,0.206,0.926,0.182,192,0,0,0,0,0,0,0,0,0,1.71E+09,0, 2024-03-05 16:15:59.881
28,-129.885987,12050.0266,-6145.880359,-10292.84421,4273.050043,29795.63532,-9562.120981,1828.79738,0.206,0.926,0.182,192,0,0,0,0,0,0,0,0,0,1.71E+09,0, 2024-03-05 16:15:59.881
29,-1011.84112,12083.86714,-5935.081057,-10218.61407,4030.46656,27449.01507,-9495.177507,1850.925607,0.206,0.926,0.182,192,0,0,0,0,0,0,0,0,0,1.71E+09,0, 2024-03-05 16:15:59.881
30,2105.444921,11866.54113,-5786.196087,-8732.088951,5501.591325,30279.19296,-9674.72907,1618.735685,0.206,0.926,0.182,192,0,0,0,0,0,0,0,0,0,1.71E+09,0, 2024-03-05 16:15:59.881
31,4716.08397,11717.455,-5885.460184,-7966.206427,6581.761728,34166.18367,-9825.424531,1476.0645,0.206,0.926,0.182,192,0,0,0,0,0,0,0,0,0,1.71E+09,0, 2024-03-05 16:15:59.881
32,3328.68884,11824.09517,-6111.436321,-8931.131235,5822.36121,33853.90745,-9755.485923,1597.412121,0.206,0.926,0.182,192,0,0,0,0,0,0,0,0,0,1.71E+09,0, 2024-03-05 16:15:59.881
33,-85.40601556,12036.32498,-6151.736516,-10282.4283,4281.096671,29843.26689,-9567.843028,1817.353286,0.206,0.926,0.182,192,0,0,0,0,0,0,0,0,0,1.71E+09,0, 2024-03-05 16:15:59.881
34,-1033.11998,12085.05179,-5934.723429,-10238.52947,4022.442284,27430.93251,-9489.298998,1859.195752,0.206,0.926,0.182,192,0,0,0,0,0,0,0,0,0,1.71E+09,0, 2024-03-05 16:15:59.881
35,2060.517914,11884.53429,-5764.537247,-8743.711858,5497.366845,30207.19799,-9651.974994,1648.284691,0.206,0.926,0.182,192,0,0,0,0,0,0,0,0,0,1.71E+09,0, 2024-03-05 16:15:59.881
36,4724.354115,11714.12459,-5878.218219,-7957.601006,6585.673283,34136.88053,-9820.127168,1483.731149,0.208,0.918,0.182,192,6,128,28,176,5,176,0,0,0,1.71E+09,0, 2024-03-05 16:15:59.881
37,3385.32816,11819.46836,-6105.133129,-8908.868898,5839.996736,33894.9676,-9755.57533,1597.903859,0.208,0.918,0.182,192,0,0,0,0,0,0,0,0,0,1.71E+09,0, 2024-03-05 16:15:59.881
38,-43.72001215,12033.26279,-6151.356536,-10274.1358,4289.813851,29890.69729,-9566.993662,1822.695353,0.208,0.918,0.182,192,0,0,0,0,0,0,0,0,0,1.71E+09,0, 2024-03-05 16:15:59.881
39,-1061.573751,12087.1752,-5939.685516,-10258.7131,3993.317961,27412.8723,-9488.516687,1863.554342,0.208,0.918,0.182,192,0,0,0,0,0,0,0,0,0,1.71E+09,0, 2024-03-05 16:15:59.881
40,2022.296431,11880.08629,-5772.583875,-8757.279367,5461.313481,30162.36039,-9660.535712,1640.282767,0.208,0.918,0.182,192,0,0,0,0,0,0,0,0,0,1.71E+09,0, 2024-03-05 16:15:59.881
41,4714.117016,11725.12164,-5868.87519,-7951.49898,6572.977492,34107.82327,-9816.774406,1483.887611,0.208,0.918,0.182,192,0,0,0,0,0,0,0,0,0,1.71E+09,0, 2024-03-05 16:15:59.881
42,3419.012239,11817.52376,-6105.937792,-8888.148831,5850.189132,33919.2416,-9759.03985,1594.104063,0.208,0.918,0.182,192,0,0,0,0,0,0,0,0,0,1.71E+09,0, 2024-03-05 16:15:59.881
43,-5.163252969,12036.92848,-6153.882283,-10257.34964,4310.846843,29943.78268,-9570.279368,1818.917909,0.208,0.918,0.182,192,0,0,0,0,0,0,0,0,0,1.71E+09,0, 2024-03-05 16:15:59.881
44,-1052.565998,12089.74565,-5946.90513,-10260.97062,3995.799005,27438.4427,-9492.808222,1860.06747,0.208,0.918,0.182,192,0,0,0,0,0,0,0,0,0,1.71E+09,0, 2024-03-05 16:15:59.881
45,1999.832928,11891.61979,-5773.992035,-8769.170495,5450.294071,30138.57813,-9649.73982,1648.999947,0.208,0.918,0.182,192,0,0,0,0,0,0,0,0,0,1.71E+09,0, 2024-03-05 16:15:59.881
46,4713.26765,11727.49093,-5881.280408,-7951.7672,6566.450783,34107.30918,-9815.366246,1491.263687,0.204,0.916,0.188,192,6,96,28,160,5,224,0,0,0,1.71E+09,0, 2024-03-05 16:15:59.881
47,3432.065658,11821.77059,-6117.761864,-8887.210058,5843.707126,33939.1123,-9761.699708,1600.139034,0.204,0.916,0.188,192,0,0,0,0,0,0,0,0,0,1.71E+09,0, 2024-03-05 16:15:59.881
48,20.02716303,12034.91682,-6162.711222,-10250.33119,4307.807005,29979.2996,-9578.325996,1813.419379,0.204,0.916,0.188,192,0,0,0,0,0,0,0,0,0,1.71E+09,0, 2024-03-05 16:15:59.881
49,-1064.546533,12093.5678,-5953.856522,-10269.46429,3978.945789,27428.54088,-9495.490431,1854.546589,0.204,0.916,0.188,192,0,0,0,0,0,0,0,0,0,1.71E+09,0, 2024-03-05 16:15:59.881
50,1954.391832,11891.48568,-5780.764613,-8786.26958,5423.62844,30082.11763,-9656.713564,1641.534465,0.204,0.916,0.188,192,0,0,0,0,0,0,0,0,0,1.71E+09,0, 2024-03-05 16:15:59.881
51,4686.646722,11730.44136,-5878.218219,-7951.946014,6565.422602,34059.31998,-9818.897822,1489.833175,0.204,0.916,0.188,192,0,0,0,0,0,0,0,0,0,1.71E+09,0, 2024-03-05 16:15:59.881
52,3473.595199,11821.56942,-6114.49851,-8857.504589,5880.02871,33978.18315,-9765.946539,1592.830013,0.204,0.916,0.188,192,0,0,0,0,0,0,0,0,0,1.71E+09,0, 2024-03-05 16:15:59.881
53,52.75011691,12036.68261,-6163.180609,-10237.12131,4329.041163,30033.27907,-9578.281293,1811.340667,0.204,0.916,0.188,192,0,0,0,0,0,0,0,0,0,1.71E+09,0, 2024-03-05 16:15:59.881
54,-1087.300609,12099.20044,-5954.191798,-10281.33306,3971.994397,27421.7683,-9490.193068,1861.877961,0.204,0.916,0.188,192,0,0,0,0,0,0,0,0,0,1.71E+09,0, 2024-03-05 16:15:59.881
55,1921.31125,11893.45263,-5784.542058,-8799.881792,5410.776187,30041.39275,-9656.691212,1641.802685,0.204,0.916,0.188,192,0,0,0,0,0,0,0,0,0,1.71E+09,0, 2024-03-05 16:15:59.881
56,4676.767251,11726.79802,-5878.307626,-7954.985852,6560.371108,34032.87787,-9819.344857,1482.72532,0.206,0.92,0.18,192,6,112,28,192,5,160,0,0,0,1.71E+09,0, 2024-03-05 16:15:59.881
57,3490.247248,11818.77545,-6104.306114,-8850.150865,5888.410615,33987.63794,-9761.029155,1594.32758,0.206,0.92,0.18,192,0,0,0,0,0,0,0,0,0,1.71E+09,0, 2024-03-05 16:15:59.881
58,82.38853006,12040.19183,-6152.764696,-10223.06207,4346.833151,30065.95732,-9568.401822,1822.516539,0.206,0.92,0.18,192,0,0,0,0,0,0,0,0,0,1.71E+09,0, 2024-03-05 16:15:59.881
59,-1098.543536,12096.67469,-5956.181104,-10292.12896,3960.751469,27412.20175,-9485.678015,1872.003302,0.206,0.92,0.18,192,0,0,0,0,0,0,0,0,0,1.71E+09,0, 2024-03-05 16:15:59.881
60,1878.082976,11892.15623,-5782.329235,-8819.238403,5391.419577,29980.84187,-9648.488122,1652.129191,0.206,0.92,0.18,192,0,0,0,0,0,0,0,0,0,1.71E+09,0, 2024-03-05 16:15:59.881
61,4674.353263,11721.59007,-5873.166725,-7951.521331,6562.271006,34004.66996,-9813.779272,1485.340474,0.206,0.92,0.18,192,0,0,0,0,0,0,0,0,0,1.71E+09,0, 2024-03-05 16:15:59.881
62,3548.942929,11806.66081,-6108.48589,-8831.420103,5911.768187,34036.99059,-9765.83478,1581.989417,0.206,0.92,0.18,192,0,0,0,0,0,0,0,0,0,1.71E+09,0, 2024-03-05 16:15:59.881
63,118.9336322,12028.23365,-6160.587807,-10227.80063,4350.92352,30109.47616,-9576.023767,1805.551565,0.206,0.92,0.18,192,0,0,0,0,0,0,0,0,0,1.71E+09,0, 2024-03-05 16:15:59.881
64,-1105.718446,12096.1606,-5956.114048,-10306.0988,3955.990548,27414.16871,-9481.677053,1869.276389,0.206,0.92,0.18,192,0,0,0,0,0,0,0,0,0,1.71E+09,0, 2024-03-05 16:15:59.881
65,1844.041269,11898.2359,-5774.819049,-8836.382191,5378.343806,29942.44158,-9640.933232,1660.935779,0.206,0.92,0.18,192,0,0,0,0,0,0,0,0,0,1.71E+09,0, 2024-03-05 16:15:59.881
66,4651.50978,11726.82038,-5866.684719,-7958.852703,6558.918245,33971.03059,-9811.968781,1494.795262,0.204,0.924,0.178,192,6,96,28,224,5,144,0,0,0,1.71E+09,0, 2024-03-05 16:15:59.881
67,3552.608615,11812.80754,-6098.87464,-8818.746664,5925.603917,34046.55713,-9760.872693,1596.495699,0.204,0.924,0.178,192,0,0,0,0,0,0,0,0,0,1.71E+09,0, 2024-03-05 16:15:59.881
68,146.247464,12031.09467,-6153.547007,-10201.38087,4379.757271,30166.00372,-9568.245359,1819.387295,0.204,0.924,0.178,192,0,0,0,0,0,0,0,0,0,1.71E+09,0, 2024-03-05 16:15:59.881
69,-1122.705772,12103.38022,-5948.000365,-10301.71785,3961.802001,27429.90433,-9474.345681,1884.877906,0.204,0.924,0.178,192,0,0,0,0,0,0,0,0,0,1.71E+09,0, 2024-03-05 16:15:59.881
70,1803.316391,11902.88507,-5769.029947,-8836.583356,5373.761698,29914.36778,-9639.793293,1668.13304,0.204,0.924,0.178,192,0,0,0,0,0,0,0,0,0,1.71E+09,0, 2024-03-05 16:15:59.881
71,4631.236748,11729.48023,-5864.382489,-7951.387221,6558.135934,33953.59623,-9811.007656,1492.269515,0.204,0.924,0.178,192,0,0,0,0,0,0,0,0,0,1.71E+09,0, 2024-03-05 16:15:59.881
72,3585.577439,11809.74535,-6101.087463,-8799.635923,5943.842941,34087.1479,-9768.204065,1584.850441,0.204,0.924,0.178,192,0,0,0,0,0,0,0,0,0,1.71E+09,0, 2024-03-05 16:15:59.881
73,168.7780224,12020.76817,-6168.790897,-10204.9348,4384.808765,30209.00848,-9591.915857,1796.432054,0.204,0.924,0.178,192,0,0,0,0,0,0,0,0,0,1.71E+09,0, 2024-03-05 16:15:59.881
74,-1135.423915,12094.77479,-5969.569799,-10328.00351,3946.401649,27429.47965,-9495.289266,1858.681662,0.204,0.924,0.178,192,0,0,0,0,0,0,0,0,0,1.71E+09,0, 2024-03-05 16:16:00.362
75,1768.06769,11898.86175,-5785.570238,-8864.29952,5345.173817,29868.27849,-9650.276262,1651.704508,0.204,0.924,0.178,192,0,0,0,0,0,0,0,0,0,1.71E+09,0, 2024-03-05 16:16:00.362
76,4625.268832,11734.55408,-5864.13662,-7956.058735,6550.245768,33916.78291,-9812.862851,1488.045035,0.2,0.922,0.188,192,6,64,28,208,5,224,0,0,0,1.71E+09,0, 2024-03-05 16:16:00.362
77,3632.806675,11811.6229,-6097.131204,-8782.089803,5966.172333,34107.15271,-9769.299301,1582.369397,0.2,0.922,0.188,192,0,0,0,0,0,0,0,0,0,1.71E+09,0, 2024-03-05 16:16:00.362
78,226.6690405,12029.48535,-6154.530484,-10179.3197,4424.013725,30257.73528,-9582.2152,1805.439807,0.2,0.922,0.188,192,0,0,0,0,0,0,0,0,0,1.71E+09,0, 2024-03-05 16:16:00.362
79,-1116.112008,12092.36081,-5972.497877,-10324.20371,3963.545437,27443.13657,-9497.680902,1857.787592,0.2,0.922,0.188,192,0,0,0,0,0,0,0,0,0,1.71E+09,0, 2024-03-05 16:16:00.362
80,1739.36805,11899.88993,-5784.385596,-8880.213962,5342.983346,29817.94236,-9646.02943,1653.291482,0.2,0.922,0.188,192,0,0,0,0,0,0,0,0,0,1.71E+09,0, 2024-03-05 16:16:00.362
81,4627.16873,11729.88257,-5866.014167,-7955.365831,6563.567408,33892.19599,-9815.522708,1483.731149,0.2,0.922,0.188,192,0,0,0,0,0,0,0,0,0,1.71E+09,0, 2024-03-05 16:16:00.362
82,3660.791059,11803.79978,-6104.820204,-8771.40567,5983.316121,34125.95053,-9780.542228,1565.918513,0.2,0.922,0.188,192,0,0,0,0,0,0,0,0,0,1.71E+09,0, 2024-03-05 16:16:00.362
83,244.1928082,12021.50578,-6165.661653,-10179.72203,4433.803789,30288.58069,-9591.737043,1790.464138,0.2,0.922,0.188,192,0,0,0,0,0,0,0,0,0,1.71E+09,0, 2024-03-05 16:16:00.362
84,-1144.386964,12094.23835,-5976.834116,-10338.70999,3960.12562,27432.13951,-9495.423376,1850.612682,0.2,0.922,0.188,192,0,0,0,0,0,0,0,0,0,1.71E+09,0, 2024-03-05 16:16:00.362
85,1698.866689,11897.87828,-5791.940485,-8894.183802,5333.863835,29778.53623,-9648.555177,1643.367308,0.2,0.922,0.188,192,0,0,0,0,0,0,0,0,0,1.71E+09,0, 2024-03-05 16:16:00.362
86,4612.997724,11727.71445,-5859.152181,-7953.130657,6565.579065,33868.23492,-9813.779272,1480.80307,0.202,0.922,0.184,192,6,80,28,208,5,192,0,0,0,1.71E+09,0, 2024-03-05 16:16:00.362
87,3696.419739,11796.60252,-6094.337236,-8749.791533,6007.210136,34164.48494,-9781.056318,1565.918513,0.202,0.922,0.184,192,0,0,0,0,0,0,0,0,0,1.71E+09,0, 2024-03-05 16:16:00.362
88,290.393864,12019.2259,-6159.917254,-10162.62295,4452.981586,30346.3823,-9593.279313,1789.659475,0.202,0.922,0.184,192,0,0,0,0,0,0,0,0,0,1.71E+09,0, 2024-03-05 16:16:00.362
89,-1147.002118,12098.52989,-5970.687386,-10345.81785,3956.459934,27429.36789,-9491.422414,1857.340557,0.202,0.922,0.184,192,0,0,0,0,0,0,0,0,0,1.71E+09,0, 2024-03-05 16:16:00.362
90,1670.368215,11905.43317,-5776.853058,-8904.487956,5326.420704,29725.5179,-9639.167445,1659.237046,0.202,0.922,0.184,192,0,0,0,0,0,0,0,0,0,1.71E+09,0, 2024-03-05 16:16:00.362
91,4593.886983,11734.24116,-5847.037536,-7949.755543,6568.97653,33817.33999,-9801.664627,1498.036265,0.202,0.922,0.184,192,0,0,0,0,0,0,0,0,0,1.71E+09,0, 2024-03-05 16:16:00.362
92,3732.473103,11795.30612,-6090.984475,-8726.992753,6031.417076,34178.54418,-9776.138935,1569.383033,0.202,0.922,0.184,192,0,0,0,0,0,0,0,0,0,1.71E+09,0, 2024-03-05 16:16:00.362
93,331.0069836,12013.07917,-6164.409955,-10142.57343,4479.69192,30391.73399,-9594.12868,1790.441786,0.202,0.922,0.184,192,0,0,0,0,0,0,0,0,0,1.71E+09,0, 2024-03-05 16:16:00.362
94,-1155.629892,12094.70774,-5981.416223,-10349.37177,3955.208237,27437.81685,-9494.439899,1861.47563,0.202,0.922,0.184,192,0,0,0,0,0,0,0,0,0,1.71E+09,0, 2024-03-05 16:16:00.362
95,1625.821188,11905.1873,-5782.820974,-8919.284811,5308.69577,29680.47913,-9640.195625,1661.539276,0.202,0.922,0.184,192,0,0,0,0,0,0,0,0,0,1.71E+09,0, 2024-03-05 16:16:00.362
96,4583.09109,11732.11774,-5853.653652,-7950.917834,6564.170905,33794.07183,-9808.303095,1489.877878,0.204,0.928,0.186,192,6,96,29,0,5,208,0,0,0,1.71E+09,0, 2024-03-05 16:16:00.362
97,3769.241723,11791.50633,-6091.476213,-8714.855756,6044.67166,34207.98143,-9780.721042,1564.08567,0.204,0.928,0.186,192,0,0,0,0,0,0,0,0,0,1.71E+09,0, 2024-03-05 16:16:00.362
98,365.4286701,12006.21718,-6165.974577,-10142.57343,4484.519897,30425.75335,-9598.241401,1778.103623,0.204,0.928,0.186,192,0,0,0,0,0,0,0,0,0,1.71E+09,0, 2024-03-05 16:16:00.362
99,-1133.479313,12082.50369,-5990.781604,-10360.45824,3947.273367,27454.53596,-9498.776138,1853.943092,0.204,0.928,0.186,192,0,0,0,0,0,0,0,0,0,1.71E+09,0, 2024-03-05 16:16:00.362
100,1604.497624,11899.4876,-5792.812204,-8948.185617,5284.310017,29644.20225,-9642.743724,1656.063098,0.204,0.928,0.186,192,0,0,0,0,0,0,0,0,0,1.71E+09,0, 2024-03-05 16:16:00.362
101,4576.676139,11729.6814,-5854.793591,-7962.160762,6554.380841,33758.08552,-9804.413891,1490.257858,0.204,0.928,0.186,192,0,0,0,0,0,0,0,0,0,1.71E+09,0, 2024-03-05 16:16:00.362
102,3796.130871,11789.36056,-6088.861059,-8704.439843,6055.892236,34221.92892,-9778.217647,1568.176039,0.204,0.928,0.186,192,0,0,0,0,0,0,0,0,0,1.71E+09,0, 2024-03-05 16:16:00.362
103,388.8309465,12012.07334,-6159.850199,-10126.01079,4501.909554,30466.50058,-9586.7079,1795.649743,0.204,0.928,0.186,192,0,0,0,0,0,0,0,0,0,1.71E+09,0, 2024-03-05 16:16:00.362
104,-1173.66775,12092.11494,-5982.444403,-10368.84014,3939.785533,27438.06272,-9486.840306,1866.996511,0.204,0.928,0.186,192,0,0,0,0,0,0,0,0,0,1.71E+09,0, 2024-03-05 16:16:00.362
105,1543.83499,11905.05319,-5783.200953,-8955.092306,5269.759032,29584.36663,-9631.143168,1668.356558,0.204,0.928,0.186,192,0,0,0,0,0,0,0,0,0,1.71E+09,0, 2024-03-05 16:16:00.362
106,4547.417706,11729.0332,-5850.971443,-7957.980985,6550.02225,33718.14295,-9803.005731,1489.542602,0.206,0.926,0.188,192,6,112,28,240,5,224,0,0,0,1.71E+09,0, 2024-03-05 16:16:00.362
107,3816.985049,11785.02432,-6091.319751,-8690.268837,6063.424774,34237.79866,-9781.145725,1559.257693,0.206,0.926,0.188,192,0,0,0,0,0,0,0,0,0,1.71E+09,0, 2024-03-05 16:16:00.362
108,434.7637814,11997.63411,-6172.702452,-10117.65124,4507.296325,30520.5918,-9601.013017,1771.711024,0.206,0.926,0.188,192,0,0,0,0,0,0,0,0,0,1.71E+09,0, 2024-03-05 16:16:00.362
109,-1156.367499,12086.39289,-5995.184898,-10377.80319,3928.520254,27466.91882,-9495.199859,1845.650595,0.206,0.926,0.188,192,0,0,0,0,0,0,0,0,0,1.71E+09,0, 2024-03-05 16:16:00.362
110,1510.374428,11905.52257,-5793.929791,-8978.740451,5234.644441,29549.69907,-9632.037238,1659.304101,0.206,0.926,0.188,192,0,0,0,0,0,0,0,0,0,1.71E+09,0, 2024-03-05 16:16:00.362
111,4532.039706,11728.25089,-5851.954919,-7966.497,6523.669544,33688.90687,-9801.619923,1494.527041,0.206,0.926,0.188,192,0,0,0,0,0,0,0,0,0,1.71E+09,0, 2024-03-05 16:16:00.362
112,3847.003442,11784.86786,-6084.614227,-8676.164886,6063.782402,34254.62952,-9779.201124,1567.192562,0.206,0.926,0.188,192,0,0,0,0,0,0,0,0,0,1.71E+09,0, 2024-03-05 16:16:00.362
113,474.3263691,11999.82458,-6164.3429,-10099.41221,4525.781217,30568.55864,-9601.594162,1781.746958,0.206,0.926,0.188,192,0,0,0,0,0,0,0,0,0,1.71E+09,0, 2024-03-05 16:16:00.362
114,-1165.665825,12090.975,-5996.526002,-10378.63021,3927.469722,27472.81968,-9494.104623,1858.256979,0.206,0.926,0.188,192,0,0,0,0,0,0,0,0,0,1.71E+09,0, 2024-03-05 16:16:00.362
115,1484.871088,11910.52936,-5790.532326,-8982.026158,5225.65904,29520.77592,-9629.422084,1670.502325,0.206,0.926,0.188,192,0,0,0,0,0,0,0,0,0,1.71E+09,0, 2024-03-05 16:16:00.362
116,4517.220499,11727.37917,-5857.252283,-7965.848799,6517.746331,33661.03425,-9806.470252,1495.219945,0.204,0.924,0.192,192,6,96,28,224,6,0,0,0,0,1.71E+09,0, 2024-03-05 16:16:00.362
117,3884.330855,11784.8008,-6090.895068,-8655.176598,6078.713367,34287.37483,-9784.900818,1563.817449,0.204,0.924,0.192,192,0,0,0,0,0,0,0,0,0,1.71E+09,0, 2024-03-05 16:16:00.362
118,500.1426339,12008.09473,-6168.455621,-10086.67172,4526.876453,30601.81804,-9599.068415,1785.479699,0.204,0.924,0.192,192,0,0,0,0,0,0,0,0,0,1.71E+09,0, 2024-03-05 16:16:00.362
119,-1182.787261,12101.41326,-5997.151851,-10384.46401,3915.466835,27459.74391,-9485.320388,1872.673854,0.204,0.924,0.192,192,0,0,0,0,0,0,0,0,0,1.71E+09,0, 2024-03-05 16:16:00.362
120,1452.841038,11924.07452,-5791.918134,-8985.378919,5219.221737,29469.83629,-9619.967296,1681.499384,0.204,0.924,0.192,192,0,0,0,0,0,0,0,0,0,1.71E+09,0, 2024-03-05 16:16:00.362
121,4521.623793,11731.91657,-5861.387355,-7957.198674,6529.413942,33638.50369,-9804.458595,1490.839003,0.204,0.924,0.192,192,0,0,0,0,0,0,0,0,0,1.71E+09,0, 2024-03-05 16:16:00.362
122,3900.178242,11789.47232,-6091.610323,-8645.96768,6100.483966,34294.37092,-9786.957179,1559.302397,0.204,0.924,0.192,192,0,0,0,0,0,0,0,0,0,1.71E+09,0, 2024-03-05 16:16:00.362
123,533.4243814,12003.31146,-6174.423537,-10073.14891,4561.901636,30651.2601,-9608.09852,1775.421414,0.204,0.924,0.192,192,0,0,0,0,0,0,0,0,0,1.71E+09,0, 2024-03-05 16:16:00.362
124,-1180.239162,12099.69218,-6003.142119,-10392.26477,3930.844835,27485.51547,-9491.914152,1865.633054,0.204,0.924,0.192,192,0,0,0,0,0,0,0,0,0,1.71E+09,0, 2024-03-05 16:16:00.362
125,1400.649715,11923.87336,-5797.416663,-9015.106739,5202.994371,29426.18333,-9624.348238,1678.370139,0.204,0.924,0.192,192,0,0,0,0,0,0,0,0,0,1.71E+09,0, 2024-03-05 16:16:00.362
126,4496.388673,11731.26837,-5859.889789,-7967.212256,6529.525701,33601.01981,-9807.654894,1489.788471,0.204,0.924,0.192,192,0,0,0,0,0,0,0,0,0,1.71E+09,0, 2024-03-05 16:16:00.362
127,3938.220911,11779.45873,-6096.684169,-8634.657697,6122.120455,34325.97629,-9791.382824,1549.400574,0.208,0.926,0.19,192,6,128,28,240,5,240,0,0,0,1.71E+09,0, 2024-03-05 16:16:00.362
128,564.2250853,11992.15794,-6180.503211,-10069.48323,4576.072642,30697.63997,-9612.188889,1767.151268,0.208,0.926,0.19,192,0,0,0,0,0,0,0,0,0,1.71E+09,0, 2024-03-05 16:16:00.362
129,-1193.672561,12080.89436,-6021.291735,-10410.68261,3923.491111,27500.33468,-9501.681864,1855.351252,0.208,0.926,0.19,192,0,0,0,0,0,0,0,0,0,1.71E+09,0, 2024-03-05 16:16:00.362
130,1349.017185,11917.23489,-5792.812204,-9042.264109,5191.259705,29384.02794,-9616.994514,1681.700549,0.208,0.926,0.19,192,0,0,0,0,0,0,0,0,0,1.71E+09,0, 2024-03-05 16:16:00.362
131,4475.959179,11728.94379,-5841.96369,-7973.001358,6531.917337,33569.39209,-9794.690883,1491.487204,0.208,0.926,0.19,192,0,0,0,0,0,0,0,0,0,1.71E+09,0, 2024-03-05 16:16:00.362
132,3962.04787,11772.88732,-6082.155535,-8622.833624,6137.632565,34341.30959,-9784.27497,1547.903007,0.208,0.926,0.19,192,0,0,0,0,0,0,0,0,0,1.71E+09,0, 2024-03-05 16:16:00.362
133,606.0451992,11992.98495,-6168.790897,-10055.84866,4596.837413,30741.04705,-9600.834203,1773.745033,0.208,0.926,0.19,192,0,0,0,0,0,0,0,0,0,1.71E+09,0, 2024-03-05 16:16:00.362
134,-1189.582192,12093.09841,-6005.869032,-10412.04606,3923.267594,27497.98775,-9486.907361,1866.661235,0.208,0.926,0.19,192,0,0,0,0,0,0,0,0,0,1.71E+09,0, 2024-03-05 16:16:00.362
135,1319.825807,11926.13088,-5787.783061,-9052.836484,5171.59017,29329.80261,-9612.83709,1687.802576,0.208,0.926,0.19,192,0,0,0,0,0,0,0,0,0,1.71E+09,0, 2024-03-05 16:16:00.362
136,4452.623958,11740.16437,-5835.504035,-7971.682605,6523.982468,33518.58658,-9788.566505,1502.126634,0.208,0.926,0.19,192,0,0,0,0,0,0,0,0,0,1.71E+09,0, 2024-03-05 16:16:00.362
137,3988.579391,11783.10207,-6073.974797,-8602.225316,6153.792876,34355.77117,-9780.653987,1554.09444,0.212,0.926,0.19,192,6,160,28,240,5,240,0,0,0,1.71E+09,0, 2024-03-05 16:16:00.362
138,627.4358186,11996.8965,-6173.484763,-10045.56686,4597.530317,30777.70391,-9602.220011,1773.253295,0.212,0.926,0.19,192,0,0,0,0,0,0,0,0,0,1.71E+09,0, 2024-03-05 16:16:00.362
139,-1215.264346,12105.99537,-6000.415206,-10418.99746,3903.039265,27493.91973,-9479.687748,1885.839031,0.212,0.926,0.19,192,0,0,0,0,0,0,0,0,0,1.71E+09,0, 2024-03-05 16:16:00.362
140,1279.704425,11936.47974,-5784.206782,-9057.977385,5144.611614,29292.83283,-9604.030502,1703.694666,0.212,0.926,0.19,192,0,0,0,0,0,0,0,0,0,1.71E+09,0, 2024-03-05 16:16:00.362
141,4441.24692,11737.45981,-5842.790704,-7969.089802,6499.797881,33500.52637,-9791.271066,1504.719437,0.212,0.926,0.19,192,0,0,0,0,0,0,0,0,0,1.71E+09,0, 2024-03-05 16:16:00.362
142,4005.432606,11783.16912,-6071.002015,-8586.310874,6151.423592,34374.52428,-9781.436298,1563.482173,0.212,0.926,0.19,192,0,0,0,0,0,0,0,0,0,1.71E+09,0, 2024-03-05 16:16:00.362
143,659.2870545,11987.08409,-6171.65192,-10023.77391,4608.683837,30832.01865,-9610.311343,1773.476812,0.212,0.926,0.19,192,0,0,0,0,0,0,0,0,0,1.71E+09,0, 2024-03-05 16:16:00.362
144,-1208.156491,12085.78939,-6021.895232,-10419.06451,3897.831309,27537.21506,-9493.948161,1869.008168,0.212,0.926,0.19,192,0,0,0,0,0,0,0,0,0,1.71E+09,0, 2024-03-05 16:16:00.362
145,1227.826026,11929.79657,-5800.523555,-9087.392281,5115.286126,29255.9748,-9611.339523,1692.429387,0.212,0.926,0.19,192,0,0,0,0,0,0,0,0,0,1.71E+09,0, 2024-03-05 16:16:00.362
146,4399.493861,11731.51424,-5851.776105,-7984.534858,6485.269247,33461.05319,-9799.13888,1497.544527,0.212,0.926,0.19,192,0,0,0,0,0,0,0,0,0,1.71E+09,0, 2024-03-05 16:16:00.362
147,4019.000115,11768.34992,-6093.554925,-8582.242856,6154.821057,34402.82159,-9796.546077,1547.523027,0.214,0.932,0.188,192,6,176,29,32,5,224,0,0,0,1.71E+09,0, 2024-03-05 16:16:00.362
148,687.2937903,11985.54182,-6179.273865,-10016.6437,4624.464169,30888.65797,-9610.467805,1773.297998,0.214,0.932,0.188,192,0,0,0,0,0,0,0,0,0,1.71E+09,0, 2024-03-05 16:16:00.362
149,-1207.75416,12090.86324,-6019.950631,-10421.94789,3906.369675,27562.0702,-9490.573047,1871.712729,0.214,0.932,0.188,192,0,0,0,0,0,0,0,0,0,1.71E+09,0, 2024-03-05 16:16:00.362
150,1198.031151,11928.36606,-5801.819957,-9099.909258,5113.945021,29242.56375,-9607.986761,1692.272924,0.214,0.932,0.188,192,0,0,0,0,0,0,0,0,0,1.71E+09,0, 2024-03-05 16:16:00.362
151,4362.524076,11742.10897,-5847.037536,-7994.906067,6485.783337,33418.71898,-9785.638426,1504.473568,0.214,0.932,0.188,192,0,0,0,0,0,0,0,0,0,1.71E+09,0, 2024-03-05 16:16:00.362
152,4034.981613,11771.3227,-6082.513163,-8562.81919,6185.062967,34414.26568,-9785.68313,1550.562865,0.214,0.932,0.188,192,0,0,0,0,0,0,0,0,0,1.71E+09,0, 2024-03-05 16:16:00.362
153,700.257802,11988.35814,-6180.503211,-10007.03245,4646.882969,30920.3751,-9602.711749,1772.29217,0.214,0.932,0.188,192,0,0,0,0,0,0,0,0,0,1.71E+09,0, 2024-03-05 16:16:00.362
154,-1231.067029,12098.99927,-6018.92245,-10430.55331,3912.404646,27558.9186,-9479.374823,1872.606799,0.214,0.932,0.188,192,0,0,0,0,0,0,0,0,0,1.71E+09,0, 2024-03-05 16:16:00.362
155,1146.085697,11935.63037,-5801.104701,-9117.656543,5098.723483,29186.39382,-9600.320113,1698.397302,0.214,0.932,0.188,192,0,0,0,0,0,0,0,0,0,1.71E+09,0, 2024-03-05 16:16:00.362
156,4361.048861,11739.33735,-5839.683812,-7991.307436,6486.431537,33395.20495,-9785.750185,1499.243259,0.214,0.932,0.188,192,0,0,0,0,0,0,0,0,0,1.71E+09,0, 2024-03-05 16:16:00.362
157,4067.972787,11777.46943,-6073.080727,-8552.917368,6192.595505,34430.04601,-9783.403252,1546.27133,0.212,0.93,0.192,192,6,160,29,16,6,0,0,0,0,1.71E+09,0, 2024-03-05 16:16:00.362
158,753.5220091,11996.98591,-6168.254455,-9991.609751,4666.060766,30961.47996,-9601.683569,1774.706158,0.212,0.93,0.192,192,0,0,0,0,0,0,0,0,0,1.71E+09,0, 2024-03-05 16:16:00.362
159,-1218.080666,12107.93997,-6019.570651,-10436.94591,3905.699123,27563.67952,-9482.414661,1881.391034,0.212,0.93,0.192,192,0,0,0,0,0,0,0,0,0,1.71E+09,0, 2024-03-05 16:16:00.362
160,1124.158636,11949.89079,-5792.298113,-9127.021924,5083.658407,29137.10822,-9596.587371,1710.377837,0.212,0.93,0.192,192,0,0,0,0,0,0,0,0,0,1.71E+09,0, 2024-03-05 16:16:00.362
161,4358.299596,11744.90294,-5835.459332,-7987.261771,6483.101128,33358.7269,-9786.018406,1509.614469,0.212,0.93,0.192,192,0,0,0,0,0,0,0,0,0,1.71E+09,0, 2024-03-05 16:16:00.362
162,4117.660715,11770.56274,-6076.746413,-8531.392638,6210.409845,34460.06441,-9794.333255,1549.624091,0.212,0.93,0.192,192,0,0,0,0,0,0,0,0,0,1.71E+09,0, 2024-03-05 16:16:00.362
163,812.9552976,11980.60208,-6186.202906,-9976.164696,4677.080176,31041.65566,-9624.303535,1761.116297,0.212,0.93,0.192,192,0,0,0,0,0,0,0,0,0,1.71E+09,0, 2024-03-05 16:16:00.362
164,-1228.295413,12102.93318,-6032.936994,-10448.27824,3885.448442,27588.71348,-9490.304827,1875.624284,0.212,0.93,0.192,192,0,0,0,0,0,0,0,0,0,1.71E+09,0, 2024-03-05 16:16:00.362
165,1069.553324,11942.9841,-5810.090102,-9153.061706,5040.653651,29099.71375,-9602.354121,1703.962887,0.212,0.93,0.192,192,0,0,0,0,0,0,0,0,0,1.71E+09,0, 2024-03-05 16:16:00.362
166,4320.16752,11744.56766,-5839.639108,-7995.867192,6457.396621,33322.76295,-9787.538324,1510.597946,0.212,0.93,0.192,192,0,0,0,0,0,0,0,0,0,1.71E+09,0, 2024-03-05 16:16:00.362
167,4136.391477,11769.62397,-6075.29355,-8514.807643,6223.060933,34483.28787,-9795.562601,1550.11583,0.214,0.928,0.19,192,6,176,29,0,5,240,0,0,0,1.71E+09,0, 2024-03-05 16:16:00.362
168,835.1952833,11983.30664,-6184.057138,-9962.865408,4689.999484,31079.22895,-9618.402674,1767.754765,0.214,0.928,0.19,192,0,0,0,0,0,0,0,0,0,1.71E+09,0, 2024-03-05 16:16:00.362
169,-1233.592776,12104.34134,-6036.267404,-10451.36278,3883.012102,27595.55311,-9486.50503,1879.200563,0.214,0.928,0.19,192,0,0,0,0,0,0,0,0,0,1.71E+09,0, 2024-03-05 16:16:00.362
170,1032.404725,11944.81694,-5816.72857,-9167.836209,5027.354363,29057.29014,-9603.404653,1696.519756,0.214,0.928,0.19,192,0,0,0,0,0,0,0,0,0,1.71E+09,0, 2024-03-05 16:16:00.362
171,4285.991703,11744.25474,-5847.931605,-8009.747626,6448.679441,33263.55317,-9786.398385,1496.359884,0.214,0.928,0.19,192,0,0,0,0,0,0,0,0,0,1.71E+09,0, 2024-03-05 16:16:00.362
172,4153.758783,11767.58996,-6079.383919,-8511.745454,6231.778113,34471.59791,-9797.194278,1537.084763,0.214,0.928,0.19,192,0,0,0,0,0,0,0,0,0,1.71E+09,0, 2024-03-05 16:16:00.362
173,884.0114932,11972.62251,-6192.059063,-9956.629271,4712.127711,31117.20456,-9623.744741,1758.188219,0.214,0.928,0.19,192,0,0,0,0,0,0,0,0,0,1.71E+09,0, 2024-03-05 16:16:00.362
174,-1216.292526,12091.86907,-6049.589044,-10464.61737,3887.147175,27619.44713,-9492.808222,1871.265694,0.214,0.928,0.19,192,0,0,0,0,0,0,0,0,0,1.71E+09,0, 2024-03-05 16:16:00.362
175,991.3222183,11941.88886,-5822.338858,-9199.285114,5012.624563,29018.71103,-9599.873078,1703.627611,0.214,0.928,0.19,192,0,0,0,0,0,0,0,0,0,1.71E+09,0, 2024-03-05 16:16:00.362
176,4272.155973,11729.7261,-5853.49719,-8024.879757,6445.147865,33233.82535,-9792.768633,1489.967285,0.214,0.928,0.19,192,0,0,0,0,0,0,0,0,0,1.71E+09,0, 2024-03-05 16:16:00.362
177,4184.671245,11747.16046,-6084.927152,-8506.068111,6244.205683,34504.07499,-9807.207859,1518.063428,0.214,0.926,0.19,192,6,176,28,240,5,240,0,0,0,1.71E+09,0, 2024-03-05 16:16:00.362
178,901.7364266,11968.0404,-6189.734482,-9951.644832,4718.319144,31163.42797,-9624.191776,1745.090097,0.214,0.926,0.19,192,0,0,0,0,0,0,0,0,0,1.71E+09,0, 2024-03-05 16:16:00.362
179,-1243.427544,12093.92543,-6043.196445,-10474.51919,3879.078195,27625.83973,-9487.108527,1868.427023,0.214,0.926,0.19,192,0,0,0,0,0,0,0,0,0,1.71E+09,0, 2024-03-05 16:16:00.362
180,927.3962292,11949.62257,-5812.325276,-9217.188861,4989.535211,28964.5304,-9589.725386,1704.789901,0.214,0.926,0.19,192,0,0,0,0,0,0,0,0,0,1.71E+09,0, 2024-03-05 16:16:00.362
181,4244.976252,11750.40147,-5837.582748,-8019.068303,6437.369458,33193.61457,-9778.463516,1504.741788,0.214,0.926,0.19,192,0,0,0,0,0,0,0,0,0,1.71E+09,0, 2024-03-05 16:16:00.362
182,4203.089083,11776.26244,-6057.255692,-8477.390823,6266.088041,34510.66876,-9783.246789,1548.953539,0.214,0.926,0.19,192,0,0,0,0,0,0,0,0,0,1.71E+09,0, 2024-03-05 16:16:00.362
183,945.6576044,11982.63609,-6173.171839,-9921.313515,4749.700993,31203.72816,-9612.524165,1761.965664,0.214,0.926,0.19,192,0,0,0,0,0,0,0,0,0,1.71E+09,0, 2024-03-05 16:16:00.362
184,-1221.366372,12097.83698,-6045.766896,-10470.54058,3883.548544,27645.68807,-9489.008425,1868.583485,0.214,0.926,0.19,192,0,0,0,0,0,0,0,0,0,1.71E+09,0, 2024-03-05 16:16:00.362
185,922.7694181,11957.0657,-5812.660553,-9226.576594,4975.699481,28936.54602,-9588.428985,1710.333134,0.214,0.926,0.19,192,0,0,0,0,0,0,0,0,0,1.71E+09,0, 2024-03-05 16:16:00.362
186,4252.039403,11757.10699,-5826.876262,-8018.487158,6438.442342,33163.08208,-9774.149629,1514.040114,0.214,0.926,0.19,192,0,0,0,0,0,0,0,0,0,1.71E+09,0, 2024-03-05 16:16:00.362
187,4259.750755,11774.18372,-6057.210989,-8461.185808,6283.25418,34540.82126,-9789.52763,1543.387955,0.214,0.924,0.19,192,6,176,28,224,5,240,0,0,0,1.71E+09,0, 2024-03-05 16:16:00.362
188,990.9198869,11988.87223,-6168.32151,-9910.003532,4762.441488,31258.80286,-9611.786558,1763.418527,0.214,0.924,0.19,192,0,0,0,0,0,0,0,0,0,1.71E+09,0, 2024-03-05 16:16:00.362
189,-1216.896023,12112.20915,-6032.981698,-10467.97013,3887.236582,27668.19628,-9476.178524,1883.112119,0.214,0.924,0.19,192,0,0,0,0,0,0,0,0,0,1.71E+09,0, 2024-03-05 16:16:00.362
190,885.8219845,11971.2367,-5801.35057,-9233.684448,4967.854019,28902.95135,-9577.007243,1720.704343,0.214,0.924,0.19,192,0,0,0,0,0,0,0,0,0,1.71E+09,0, 2024-03-05 16:16:00.362
191,4222.445693,11769.40045,-5822.472968,-8014.240326,6425.634793,33126.38052,-9770.998033,1513.928355,0.214,0.924,0.19,192,0,0,0,0,0,0,0,0,0,1.71E+09,0, 2024-03-05 16:16:00.362
192,4290.260886,11773.96021,-6064.542361,-8437.090628,6284.930561,34569.5209,-9799.496508,1535.587196,0.214,0.924,0.19,192,0,0,0,0,0,0,0,0,0,1.71E+09,0, 2024-03-05 16:16:00.362
193,1034.192864,11987.28525,-6180.145583,-9893.172669,4767.694148,31318.10204,-9619.833186,1759.305806,0.214,0.924,0.19,192,0,0,0,0,0,0,0,0,0,1.71E+09,0, 2024-03-05 16:16:00.362
194,-1222.729829,12114.17611,-6044.67166,-10474.27332,3869.489297,27684.82598,-9484.560428,1881.815717,0.214,0.924,0.19,192,0,0,0,0,0,0,0,0,0,1.71E+09,0, 2024-03-05 16:16:00.843
195,848.9192544,11974.34359,-5807.877279,-9249.375373,4938.327365,28869.46843,-9581.477592,1724.347678,0.214,0.924,0.19,192,0,0,0,0,0,0,0,0,0,1.71E+09,0, 2024-03-05 16:16:00.843
196,4202.262068,11766.38296,-5824.663439,-8030.04301,6409.608592,33086.68382,-9774.261388,1513.682486,0.214,0.924,0.19,192,0,0,0,0,0,0,0,0,0,1.71E+09,0, 2024-03-05 16:16:00.843
197,4308.25404,11777.02239,-6052.494771,-8431.167416,6294.117128,34564.80468,-9794.422662,1535.050754,0.212,0.924,0.188,192,6,160,28,224,5,224,0,0,0,1.71E+09,0, 2024-03-05 16:16:00.843
198,1069.262751,11983.57487,-6175.094089,-9886.221276,4784.994398,31341.81724,-9617.106273,1752.488524,0.212,0.924,0.188,192,0,0,0,0,0,0,0,0,0,1.71E+09,0, 2024-03-05 16:16:00.843
199,-1206.837738,12109.92928,-6044.80577,-10479.54833,3881.849811,27691.10682,-9477.966664,1873.433813,0.212,0.924,0.188,192,0,0,0,0,0,0,0,0,0,1.71E+09,0, 2024-03-05 16:16:00.843
200,834.0553443,11964.93351,-5812.325276,-9266.608568,4933.834664,28838.93595,-9578.147182,1722.358372,0.212,0.924,0.188,192,0,0,0,0,0,0,0,0,0,1.71E+09,0, 2024-03-05 16:16:00.843
201,4185.431204,11761.10795,-5820.483663,-8037.888472,6404.691208,33053.26796,-9765.611263,1519.717457,0.212,0.924,0.188,192,0,0,0,0,0,0,0,0,0,1.71E+09,0, 2024-03-05 16:16:00.843
202,4326.984802,11763.25372,-6049.700803,-8423.165491,6309.89746,34582.03788,-9791.829859,1534.201388,0.212,0.924,0.188,192,0,0,0,0,0,0,0,0,0,1.71E+09,0, 2024-03-05 16:16:00.843
203,1105.472577,11970.43204,-6171.406051,-9871.782049,4809.044875,31396.42255,-9619.184985,1752.443821,0.212,0.924,0.188,192,0,0,0,0,0,0,0,0,0,1.71E+09,0, 2024-03-05 16:16:00.843
204,-1204.691971,12098.44048,-6051.71246,-10483.88457,3885.649608,27722.17574,-9486.102699,1874.439642,0.212,0.924,0.188,192,0,0,0,0,0,0,0,0,0,1.71E+09,0, 2024-03-05 16:16:00.843
205,785.5073554,11955.36696,-5822.808245,-9290.703749,4913.226356,28802.48026,-9581.924627,1718.111541,0.212,0.924,0.188,192,0,0,0,0,0,0,0,0,0,1.71E+09,0, 2024-03-05 16:16:00.843
206,4154.205817,11749.03801,-5832.419495,-8050.785428,6392.755376,33018.39924,-9770.193371,1509.88269,0.212,0.924,0.188,192,0,0,0,0,0,0,0,0,0,1.71E+09,0, 2024-03-05 16:16:00.843
207,4335.567872,11756.10116,-6058.395631,-8421.198537,6311.260916,34588.63164,-9795.137917,1529.708687,0.212,0.93,0.182,192,6,160,29,16,5,176,0,0,0,1.71E+09,0, 2024-03-05 16:16:00.843
208,1119.911804,11969.22505,-6179.497383,-9873.369023,4813.179948,31421.43415,-9616.234555,1751.952082,0.212,0.93,0.182,192,0,0,0,0,0,0,0,0,0,1.71E+09,0, 2024-03-05 16:16:00.843
209,-1215.800788,12099.9157,-6057.188637,-10496.82623,3876.306579,27716.47605,-9478.972492,1877.658293,0.212,0.93,0.182,192,0,0,0,0,0,0,0,0,0,1.71E+09,0, 2024-03-05 16:16:00.843
210,750.3704131,11959.14441,-5827.815035,-9310.954429,4891.612219,28756.25685,-9576.694319,1726.582852,0.212,0.93,0.182,192,0,0,0,0,0,0,0,0,0,1.71E+09,0, 2024-03-05 16:16:00.843
211,4125.14855,11761.51028,-5828.373829,-8058.563835,6384.306417,32964.50918,-9759.956272,1526.221815,0.212,0.93,0.182,192,0,0,0,0,0,0,0,0,0,1.71E+09,0, 2024-03-05 16:16:00.843
212,4346.386116,11757.71049,-6053.321785,-8411.542584,6328.583518,34581.18851,-9790.421699,1535.341327,0.212,0.93,0.182,192,0,0,0,0,0,0,0,0,0,1.71E+09,0, 2024-03-05 16:16:00.843
213,1157.328624,11947.5662,-6201.424444,-9863.243683,4829.429666,31469.71392,-9639.167445,1730.561463,0.212,0.93,0.182,192,0,0,0,0,0,0,0,0,0,1.71E+09,0, 2024-03-05 16:16:00.843
214,-1207.932974,12083.50951,-6081.708501,-10508.24797,3873.579666,27753.06585,-9498.083234,1865.856572,0.212,0.93,0.182,192,0,0,0,0,0,0,0,0,0,1.71E+09,0, 2024-03-05 16:16:00.843
215,709.5784795,11966.6993,-5828.507939,-9325.527766,4882.984445,28729.21124,-9573.408612,1734.383611,0.212,0.93,0.182,192,0,0,0,0,0,0,0,0,0,1.71E+09,0, 2024-03-05 16:16:00.843
216,4100.651038,11755.85529,-5838.543873,-8059.01087,6381.221876,32939.6764,-9765.544208,1519.806864,0.212,0.93,0.182,192,0,0,0,0,0,0,0,0,0,1.71E+09,0, 2024-03-05 16:16:00.843
217,4366.368576,11742.69012,-6072.968969,-8400.187898,6338.060658,34608.39058,-9805.665589,1516.409399,0.214,0.932,0.186,192,6,176,29,32,5,208,0,0,0,1.71E+09,0, 2024-03-05 16:16:00.843
218,1174.070081,11953.62353,-6197.602296,-9849.765581,4843.868893,31512.60692,-9631.523148,1738.585739,0.214,0.932,0.186,192,0,0,0,0,0,0,0,0,0,1.71E+09,0, 2024-03-05 16:16:00.843
219,-1220.651116,12097.79228,-6070.376166,-10499.84372,3873.445555,27762.90062,-9479.263065,1884.117947,0.214,0.932,0.186,192,0,0,0,0,0,0,0,0,0,1.71E+09,0, 2024-03-05 16:16:00.843
220,665.0538045,11964.77705,-5831.614832,-9337.597708,4862.554951,28687.0335,-9570.234665,1730.203835,0.214,0.932,0.186,192,0,0,0,0,0,0,0,0,0,1.71E+09,0, 2024-03-05 16:16:00.843
221,4064.865895,11743.69594,-5845.405858,-8074.76885,6357.372565,32885.45106,-9773.792001,1496.225774,0.214,0.932,0.186,192,0,0,0,0,0,0,0,0,0,1.71E+09,0, 2024-03-05 16:16:00.843
222,4374.75048,11738.30917,-6069.750317,-8397.058653,6328.985849,34594.39839,-9808.481909,1506.909908,0.214,0.932,0.186,192,0,0,0,0,0,0,0,0,0,1.71E+09,0, 2024-03-05 16:16:00.844
223,1205.854262,11954.00351,-6187.208734,-9838.299136,4848.473352,31532.05294,-9627.499834,1741.782038,0.214,0.932,0.186,192,0,0,0,0,0,0,0,0,0,1.71E+09,0, 2024-03-05 16:16:00.844
224,-1205.586041,12097.07702,-6070.152649,-10500.24605,3868.774041,27775.90934,-9476.603207,1878.12768,0.214,0.932,0.186,192,0,0,0,0,0,0,0,0,0,1.71E+09,0, 2024-03-05 16:16:00.844
225,631.6826501,11970.09676,-5828.26207,-9353.869778,4841.454904,28641.5924,-9561.428077,1731.790809,0.214,0.932,0.186,192,0,0,0,0,0,0,0,0,0,1.71E+09,0, 2024-03-05 16:16:00.844
226,4035.428647,11754.31302,-5831.883053,-8080.960283,6347.604853,32828.61058,-9765.454801,1513.190748,0.214,0.932,0.186,192,0,0,0,0,0,0,0,0,0,1.71E+09,0, 2024-03-05 16:16:00.844
227,4391.693102,11747.92042,-6051.153666,-8375.623331,6349.638861,34596.3877,-9802.357531,1519.203367,0.21,0.93,0.192,192,6,144,29,16,6,0,0,0,0,1.71E+09,0, 2024-03-05 16:16:00.844
228,1244.411021,11961.04431,-6180.167935,-9815.679171,4871.696815,31580.10919,-9627.701,1737.266986,0.21,0.93,0.192,192,0,0,0,0,0,0,0,0,0,1.71E+09,0, 2024-03-05 16:16:00.844
229,-1209.16232,12104.09547,-6066.039928,-10502.10124,3875.30075,27790.34856,-9479.106603,1879.401729,0.21,0.93,0.192,192,0,0,0,0,0,0,0,0,0,1.71E+09,0, 2024-03-05 16:16:00.844
230,599.496138,11969.78384,-5832.374791,-9368.219598,4828.33443,28612.40102,-9569.832333,1728.236881,0.21,0.93,0.192,192,0,0,0,0,0,0,0,0,0,1.71E+09,0, 2024-03-05 16:16:00.844
231,4018.642487,11755.83294,-5829.916099,-8084.313045,6340.921681,32801.90024,-9760.06803,1513.637783,0.21,0.93,0.192,192,0,0,0,0,0,0,0,0,0,1.71E+09,0, 2024-03-05 16:16:00.844
232,4421.622088,11752.18961,-6048.560864,-8360.088868,6360.278292,34615.52079,-9794.579124,1525.014821,0.21,0.93,0.192,192,0,0,0,0,0,0,0,0,0,1.71E+09,0, 2024-03-05 16:16:00.844
233,1297.541117,11957.82566,-6180.23499,-9799.250638,4886.493669,31633.03812,-9629.399732,1735.680012,0.21,0.93,0.192,192,0,0,0,0,0,0,0,0,0,1.71E+09,0, 2024-03-05 16:16:00.844
234,-1178.205154,12099.60277,-6070.242056,-10499.03905,3872.35032,27831.67694,-9485.007463,1872.159764,0.21,0.93,0.192,192,0,0,0,0,0,0,0,0,0,1.71E+09,0, 2024-03-05 16:16:00.844
235,577.9714081,11973.67304,-5832.978288,-9383.754061,4798.807776,28590.87629,-9571.665176,1731.567291,0.21,0.93,0.192,192,0,0,0,0,0,0,0,0,0,1.71E+09,0, 2024-03-05 16:16:00.844
236,4006.840766,11762.89609,-5824.976364,-8084.156583,6321.855643,32772.10537,-9762.571426,1517.974021,0.21,0.93,0.192,192,0,0,0,0,0,0,0,0,0,1.71E+09,0, 2024-03-05 16:16:00.844
237,4447.795981,11740.16437,-6058.440335,-8349.762362,6358.19958,34627.41192,-9809.375979,1510.106207,0.208,0.93,0.184,192,6,128,29,16,5,192,0,0,0,1.71E+09,0, 2024-03-05 16:16:00.844
238,1339.85297,11951.79068,-6195.076548,-9782.129202,4893.981504,31684.44713,-9638.385134,1732.237844,0.208,0.93,0.184,192,0,0,0,0,0,0,0,0,0,1.71E+09,0, 2024-03-05 16:16:00.844
239,-1163.050671,12100.63095,-6083.720158,-10490.0313,3867.835268,27871.68656,-9486.840306,1877.837107,0.208,0.93,0.184,192,0,0,0,0,0,0,0,0,0,1.71E+09,0, 2024-03-05 16:16:00.844
240,532.9102913,11979.81977,-5840.063791,-9397.746253,4774.869058,28554.77822,-9562.053926,1739.345698,0.208,0.93,0.184,192,0,0,0,0,0,0,0,0,0,1.71E+09,0, 2024-03-05 16:16:00.844
241,3962.405498,11766.58413,-5832.307736,-8095.220696,6298.788643,32714.01318,-9757.363469,1522.019687,0.208,0.93,0.184,192,0,0,0,0,0,0,0,0,0,1.71E+09,0, 2024-03-05 16:16:00.844
242,4463.151629,11750.04384,-6047.040945,-8327.678839,6368.190809,34632.46341,-9800.390577,1518.622222,0.208,0.93,0.184,192,0,0,0,0,0,0,0,0,0,1.71E+09,0, 2024-03-05 16:16:00.844
243,1368.731423,11952.28242,-6194.58481,-9766.885312,4908.018399,31731.27404,-9639.614479,1725.889948,0.208,0.93,0.184,192,0,0,0,0,0,0,0,0,0,1.71E+09,0, 2024-03-05 16:16:00.844
244,-1172.281941,12103.91666,-6082.222591,-10502.30241,3859.945102,27874.05585,-9486.12505,1875.020787,0.208,0.93,0.184,192,0,0,0,0,0,0,0,0,0,1.71E+09,0, 2024-03-05 16:16:00.844
245,497.5945351,11983.9772,-5834.967594,-9417.907526,4759.513409,28508.10778,-9557.471819,1741.111486,0.208,0.93,0.184,192,0,0,0,0,0,0,0,0,0,1.71E+09,0, 2024-03-05 16:16:00.844
246,3946.356946,11773.46847,-5826.742152,-8101.590944,6293.670093,32670.33788,-9750.680298,1527.026478,0.208,0.93,0.184,192,0,0,0,0,0,0,0,0,0,1.71E+09,0, 2024-03-05 16:16:00.844
247,4497.483909,11758.13517,-6038.256709,-8310.937382,6387.301551,34639.72773,-9794.445013,1520.723286,0.202,0.928,0.188,192,6,80,29,0,5,224,0,0,0,1.71E+09,0, 2024-03-05 16:16:00.844
248,1419.156959,11956.12692,-6183.096013,-9748.243958,4931.845359,31777.85507,-9630.159692,1732.550768,0.202,0.928,0.188,192,0,0,0,0,0,0,0,0,0,1.71E+09,0, 2024-03-05 16:16:00.844
249,-1149.013775,12102.66496,-6083.273123,-10500.60368,3872.953817,27911.47267,-9480.73828,1874.774918,0.202,0.928,0.188,192,0,0,0,0,0,0,0,0,0,1.71E+09,0, 2024-03-05 16:16:00.844
250,473.1640784,11994.52722,-5829.267899,-9426.267079,4754.39486,28493.13211,-9549.469894,1746.610015,0.202,0.928,0.188,192,0,0,0,0,0,0,0,0,0,1.71E+09,0, 2024-03-05 16:16:00.844
251,3919.75837,11780.88925,-5819.522538,-8106.575383,6284.930561,32636.58674,-9744.578271,1526.244167,0.202,0.928,0.188,192,0,0,0,0,0,0,0,0,0,1.71E+09,0, 2024-03-05 16:16:00.844
252,4508.637429,11763.41018,-6030.433599,-8302.868402,6397.650408,34637.73842,-9790.309941,1520.097437,0.202,0.928,0.188,192,0,0,0,0,0,0,0,0,0,1.71E+09,0, 2024-03-05 16:16:00.844
253,1462.005253,11958.13858,-6182.783089,-9732.977716,4951.894874,31809.19222,-9636.082904,1730.449704,0.202,0.928,0.188,192,0,0,0,0,0,0,0,0,0,1.71E+09,0, 2024-03-05 16:16:00.844
254,-1146.175104,12109.79517,-6083.898972,-10499.55314,3873.020872,27915.0713,-9481.475887,1880.720482,0.202,0.928,0.188,192,0,0,0,0,0,0,0,0,0,1.71E+09,0, 2024-03-05 16:16:00.844
255,434.0932291,11996.60593,-5835.034649,-9438.091151,4737.563996,28445.81347,-9552.956766,1749.895722,0.202,0.928,0.188,192,0,0,0,0,0,0,0,0,0,1.71E+09,0, 2024-03-05 16:16:00.844
0,3905.296791,11784.64434,-5814.783968,-8102.909696,6287.076329,32605.51782,-9746.545225,1532.681469,0.202,0.928,0.188,192,0,0,0,0,0,0,0,0,0,1.71E+09,0, 2024-03-05 16:16:00.844
1,4529.089275,11769.22164,-6021.023514,-8279.667292,6418.16931,34660.91718,-9790.891086,1530.960385,0.202,0.928,0.188,192,0,0,0,0,0,0,0,0,0,1.71E+09,0, 2024-03-05 16:16:00.844
2,1501.836062,11968.6439,-6171.674272,-9700.299466,4986.294208,31881.58952,-9627.991572,1736.462323,0.2,0.924,0.182,192,6,64,28,224,5,176,0,0,0,1.71E+09,0, 2024-03-05 16:16:00.844
3,-1145.281034,12120.32284,-6083.094309,-10494.30048,3879.569933,27964.02162,-9477.765498,1883.313284,0.2,0.924,0.182,192,0,0,0,0,0,0,0,0,0,1.71E+09,0, 2024-03-05 16:16:00.844
4,372.000083,12010.73223,-5827.815035,-9455.927844,4713.491167,28408.88839,-9544.55251,1762.904437,0.2,0.924,0.182,192,0,0,0,0,0,0,0,0,0,1.71E+09,0, 2024-03-05 16:16:00.844
5,3861.509724,11790.34403,-5807.005561,-8106.150699,6268.099698,32548.00678,-9740.130274,1541.800981,0.2,0.924,0.182,192,0,0,0,0,0,0,0,0,0,1.71E+09,0, 2024-03-05 16:16:00.844
6,4555.017299,11761.42088,-6023.14693,-8262.612911,6418.146958,34666.3263,-9793.640351,1523.249033,0.2,0.924,0.182,192,0,0,0,0,0,0,0,0,0,1.71E+09,0, 2024-03-05 16:16:00.844
7,1540.102248,11955.814,-6182.380758,-9690.196477,4984.416662,31927.20943,-9640.173273,1729.175655,0.2,0.924,0.182,192,0,0,0,0,0,0,0,0,0,1.71E+09,0, 2024-03-05 16:16:00.844
8,-1129.746572,12113.68437,-6085.508297,-10494.07697,3874.250218,27995.44817,-9480.067728,1885.235534,0.2,0.924,0.182,192,0,0,0,0,0,0,0,0,0,1.71E+09,0, 2024-03-05 16:16:00.844
9,346.1838181,12007.02185,-5840.264957,-9476.916132,4688.03253,28386.71546,-9546.005374,1759.529324,0.2,0.924,0.182,192,0,0,0,0,0,0,0,0,0,1.71E+09,0, 2024-03-05 16:16:00.844
10,3830.127875,11791.17105,-5813.286401,-8123.562708,6250.57593,32508.15362,-9738.297431,1544.639652,0.2,0.924,0.182,192,0,0,0,0,0,0,0,0,0,1.71E+09,0, 2024-03-05 16:16:00.844
11,4554.167933,11762.96315,-6026.879671,-8262.970538,6419.398656,34655.441,-9790.086423,1528.278175,0.2,0.924,0.182,192,0,0,0,0,0,0,0,0,0,1.71E+09,0, 2024-03-05 16:16:00.844
12,1555.837876,11961.26782,-6179.832659,-9683.222733,4995.860755,31945.64962,-9628.148035,1736.372916,0.21,0.924,0.186,192,6,144,28,224,5,208,0,0,0,1.71E+09,0, 2024-03-05 16:16:00.844
13,-1124.113932,12121.41807,-6077.975759,-10492.60175,3886.387215,28005.97584,-9472.289321,1890.979933,0.21,0.924,0.186,192,0,0,0,0,0,0,0,0,0,1.71E+09,0, 2024-03-05 16:16:00.844
14,313.6620299,12014.37557,-5833.067695,-9486.37092,4686.646722,28349.87978,-9536.639993,1769.028815,0.21,0.924,0.186,192,0,0,0,0,0,0,0,0,0,1.71E+09,0, 2024-03-05 16:16:00.844
15,3802.121139,11789.71819,-5811.945297,-8127.138987,6249.659508,32459.96326,-9734.452931,1545.533722,0.21,0.924,0.186,192,0,0,0,0,0,0,0,0,0,1.71E+09,0, 2024-03-05 16:16:00.844
16,4583.202849,11756.43644,-6024.756256,-8248.50896,6439.291708,34665.38753,-9792.567467,1518.041076,0.21,0.924,0.186,192,0,0,0,0,0,0,0,0,0,1.71E+09,0, 2024-03-05 16:16:00.844
17,1609.616173,11958.83148,-6176.099917,-9669.945797,5025.700334,31993.90703,-9629.399732,1730.919091,0.21,0.924,0.186,192,0,0,0,0,0,0,0,0,0,1.71E+09,0, 2024-03-05 16:16:00.844
18,-1096.956563,12121.44043,-6084.033082,-10491.77474,3894.858527,28039.9952,-9470.501181,1888.565944,0.21,0.924,0.186,192,0,0,0,0,0,0,0,0,0,1.71E+09,0, 2024-03-05 16:16:00.844
19,288.7621866,12020.90228,-5831.145445,-9505.816937,4668.742975,28314.18405,-9531.074408,1770.436975,0.21,0.924,0.186,192,0,0,0,0,0,0,0,0,0,1.71E+09,0, 2024-03-05 16:16:00.844
20,3788.196002,11798.50242,-5805.955029,-8136.504368,6236.784904,32412.5105,-9731.301335,1541.66687,0.21,0.924,0.186,192,0,0,0,0,0,0,0,0,0,1.71E+09,0, 2024-03-05 16:16:00.844
21,4617.088093,11760.54916,-6016.195538,-8234.002678,6456.703717,34675.19995,-9788.655912,1521.706763,0.21,0.924,0.186,192,0,0,0,0,0,0,0,0,0,1.71E+09,0, 2024-03-05 16:16:00.844
22,1666.523715,11949.62257,-6177.843353,-9652.82436,5048.119133,32056.78249,-9639.681535,1725.688782,0.204,0.924,0.188,192,6,96,28,224,5,224,0,0,0,1.71E+09,0, 2024-03-05 16:16:00.844
23,-1095.816624,12113.37145,-6090.626847,-10503.28589,3892.913925,28071.53351,-9480.425355,1887.627171,0.204,0.924,0.188,192,0,0,0,0,0,0,0,0,0,1.71E+09,0, 2024-03-05 16:16:00.844
24,228.3901248,12018.22007,-5838.76739,-9532.147292,4646.346527,28275.09085,-9531.499092,1777.81305,0.204,0.924,0.188,192,0,0,0,0,0,0,0,0,0,1.71E+09,0, 2024-03-05 16:16:00.844
25,3737.390487,11793.00389,-5814.761617,-8152.597624,6221.339848,32366.48826,-9731.301335,1550.272292,0.204,0.924,0.188,192,0,0,0,0,0,0,0,0,0,1.71E+09,0, 2024-03-05 16:16:00.844
26,4599.832547,11750.44617,-6026.387933,-8235.656707,6452.590996,34663.37587,-9793.617999,1517.549338,0.204,0.924,0.188,192,0,0,0,0,0,0,0,0,0,1.71E+09,0, 2024-03-05 16:16:00.844
27,1671.686968,11939.31841,-6195.277714,-9651.505608,5044.967538,32078.7319,-9646.565872,1712.992992,0.204,0.924,0.188,192,0,0,0,0,0,0,0,0,0,1.71E+09,0, 2024-03-05 16:16:00.844
28,-1091.234516,12103.60373,-6110.184623,-10509.96906,3882.743881,28091.76184,-9491.623579,1870.885714,0.204,0.924,0.188,192,0,0,0,0,0,0,0,0,0,1.71E+09,0, 2024-03-05 16:16:00.844
29,210.5757845,12011.78277,-5855.754716,-9549.000507,4626.900509,28259.71285,-9538.383429,1760.758669,0.204,0.924,0.188,192,0,0,0,0,0,0,0,0,0,1.71E+09,0, 2024-03-05 16:16:00.844
30,3712.088312,11792.55686,-5820.550718,-8166.925093,6205.425406,32332.67007,-9734.765856,1537.576501,0.204,0.924,0.188,192,0,0,0,0,0,0,0,0,0,1.71E+09,0, 2024-03-05 16:16:00.844
31,4602.939439,11759.58803,-6018.520119,-8227.677134,6460.592921,34659.79959,-9793.282723,1517.437579,0.204,0.924,0.188,192,0,0,0,0,0,0,0,0,0,1.71E+09,0, 2024-03-05 16:16:00.844
32,1706.779207,11954.18232,-6178.268037,-9625.644639,5076.528201,32115.90285,-9638.362782,1725.599375,0.212,0.93,0.19,192,6,160,29,16,5,240,0,0,0,1.71E+09,0, 2024-03-05 16:16:00.844
33,-1057.84101,12106.57652,-6110.721065,-10496.3792,3899.865317,28128.08342,-9488.382577,1877.904162,0.212,0.93,0.19,192,0,0,0,0,0,0,0,0,0,1.71E+09,0, 2024-03-05 16:16:00.844
34,195.7789297,12014.1297,-5861.633225,-9563.216217,4613.757683,28236.02,-9540.775066,1768.984111,0.212,0.93,0.19,192,0,0,0,0,0,0,0,0,0,1.71E+09,0, 2024-03-05 16:16:00.844
35,3694.788062,11797.42954,-5823.188224,-8175.485811,6191.567325,32284.43501,-9736.86692,1543.365603,0.212,0.93,0.19,192,0,0,0,0,0,0,0,0,0,1.71E+09,0, 2024-03-05 16:16:00.844
36,4633.941309,11754.80476,-6024.443331,-8220.099893,6469.131287,34655.3516,-9801.262295,1510.419132,0.212,0.93,0.19,192,0,0,0,0,0,0,0,0,0,1.71E+09,0, 2024-03-05 16:16:00.844
37,1754.768402,11943.65465,-6188.192211,-9617.262735,5095.147204,32161.81334,-9650.589186,1708.924974,0.212,0.93,0.19,192,0,0,0,0,0,0,0,0,0,1.71E+09,0, 2024-03-05 16:16:00.844
38,-1052.364832,12109.57165,-6105.53546,-10503.53175,3907.688428,28146.41185,-9487.242638,1878.015921,0.212,0.93,0.19,192,0,0,0,0,0,0,0,0,0,1.71E+09,0, 2024-03-05 16:16:00.844
39,148.5943971,12019.04708,-5856.648786,-9583.37749,4604.884041,28198.40201,-9532.951955,1773.119184,0.212,0.93,0.19,192,0,0,0,0,0,0,0,0,0,1.71E+09,0, 2024-03-05 16:16:00.844
40,3644.474285,11801.87753,-5814.918079,-8188.583933,6185.174726,32227.81804,-9723.478225,1548.573559,0.212,0.93,0.19,192,0,0,0,0,0,0,0,0,0,1.71E+09,0, 2024-03-05 16:16:00.844
41,4639.506893,11754.17891,-6011.367561,-8206.174756,6485.872744,34653.98814,-9796.568429,1509.837986,0.212,0.93,0.19,192,0,0,0,0,0,0,0,0,0,1.71E+09,0, 2024-03-05 16:16:00.844
42,1791.559373,11936.07741,-6180.212638,-9599.604857,5118.102445,32205.93568,-9654.143113,1704.633439,0.21,0.932,0.19,192,6,144,29,32,5,240,0,0,0,1.71E+09,0, 2024-03-05 16:16:00.844
43,-1048.36387,12120.4346,-6092.392634,-10498.12263,3909.744788,28171.33405,-9473.093983,1887.850688,0.21,0.932,0.19,192,0,0,0,0,0,0,0,0,0,1.71E+09,0, 2024-03-05 16:16:00.844
44,103.0862454,12033.88864,-5842.723649,-9595.022749,4584.208677,28154.45848,-9515.741112,1786.038492,0.21,0.932,0.19,192,0,0,0,0,0,0,0,0,0,1.71E+09,0, 2024-03-05 16:16:00.844
45,3625.072971,11804.49269,-5806.402064,-8188.874506,6173.551819,32190.15535,-9721.935954,1548.439449,0.21,0.932,0.19,192,0,0,0,0,0,0,0,0,0,1.71E+09,0, 2024-03-05 16:16:00.844
46,4669.346472,11756.03411,-6008.260668,-8188.561581,6487.99616,34672.56244,-9794.936752,1509.435655,0.21,0.932,0.19,192,0,0,0,0,0,0,0,0,0,1.71E+09,0, 2024-03-05 16:16:00.844
47,1831.74781,11945.28633,-6182.626627,-9583.735118,5121.924594,32256.00359,-9651.505608,1706.980372,0.21,0.932,0.19,192,0,0,0,0,0,0,0,0,0,1.71E+09,0, 2024-03-05 16:16:00.844
48,-1047.380393,12119.76404,-6108.195318,-10501.87773,3904.89446,28202.78295,-9482.884047,1879.602895,0.21,0.932,0.19,192,0,0,0,0,0,0,0,0,0,1.71E+09,0, 2024-03-05 16:16:00.844
49,57.26516929,12030.1559,-5860.202713,-9617.553308,4559.018261,28128.64222,-9529.0404,1771.934542,0.21,0.932,0.19,192,0,0,0,0,0,0,0,0,0,1.71E+09,0, 2024-03-05 16:16:00.844
50,3582.470546,11807.53253,-5816.996791,-8205.59361,6156.765658,32144.58014,-9727.434483,1538.381164,0.21,0.932,0.19,192,0,0,0,0,0,0,0,0,0,1.71E+09,0, 2024-03-05 16:16:00.844
51,4652.493257,11756.36938,-6017.916622,-8195.758843,6488.219677,34650.54597,-9805.956162,1495.309352,0.21,0.932,0.19,192,0,0,0,0,0,0,0,0,0,1.71E+09,0, 2024-03-05 16:16:00.844
52,1842.186075,11946.53802,-6183.788918,-9579.823563,5137.63787,32276.6119,-9654.254872,1705.79573,0.216,0.924,0.19,192,6,192,28,224,5,240,0,0,0,1.71E+09,0, 2024-03-05 16:16:00.844
53,-1037.076239,12114.77961,-6118.924155,-10508.31503,3908.291925,28232.39901,-9492.540001,1876.071319,0.216,0.924,0.19,192,0,0,0,0,0,0,0,0,0,1.71E+09,0, 2024-03-05 16:16:00.844
54,19.28955546,12037.50962,-5861.096783,-9640.888529,4547.998851,28098.22149,-9522.804263,1782.663379,0.216,0.924,0.19,192,0,0,0,0,0,0,0,0,0,1.71E+09,0, 2024-03-05 16:16:00.844
55,3546.394831,11809.90181,-5815.923907,-8217.216518,6144.87453,32097.17209,-9719.253745,1555.212027,0.216,0.924,0.19,192,0,0,0,0,0,0,0,0,0,1.71E+09,0, 2024-03-05 16:16:00.844
56,4669.637045,11745.84171,-6020.040038,-8184.292398,6493.807613,34651.86473,-9805.41972,1502.461911,0.216,0.924,0.19,192,0,0,0,0,0,0,0,0,0,1.71E+09,0, 2024-03-05 16:16:00.844
57,1887.090729,11925.99677,-6194.763624,-9565.294929,5153.39585,32324.6458,-9662.010927,1695.8045,0.216,0.924,0.19,192,0,0,0,0,0,0,0,0,0,1.71E+09,0, 2024-03-05 16:16:00.844
58,-1022.458198,12105.68245,-6118.097141,-10507.97975,3910.504748,28253.07438,-9488.0473,1872.807964,0.216,0.924,0.19,192,0,0,0,0,0,0,0,0,0,1.71E+09,0, 2024-03-05 16:16:00.844
59,8.62777336,12019.29295,-5870.640978,-9654.634852,4529.826883,28085.39159,-9529.442731,1770.682844,0.216,0.924,0.19,192,0,0,0,0,0,0,0,0,0,1.71E+09,0, 2024-03-05 16:16:01.323
60,3531.977955,11797.36248,-5818.51671,-8231.946317,6127.909556,32068.87478,-9725.959268,1544.729059,0.216,0.924,0.19,192,0,0,0,0,0,0,0,0,0,1.71E+09,0, 2024-03-05 16:16:01.323
61,4702.561164,11741.01373,-6012.820424,-8177.072785,6499.686122,34665.90162,-9804.90563,1493.275344,0.216,0.924,0.19,192,0,0,0,0,0,0,0,0,0,1.71E+09,0, 2024-03-05 16:16:01.323
62,1931.637756,11927.36023,-6188.058101,-9555.147237,5165.622254,32363.38137,-9656.065363,1692.161166,0.212,0.922,0.182,192,6,160,28,208,5,176,0,0,0,1.71E+09,0, 2024-03-05 16:16:01.323
63,-984.8178607,12102.24028,-6124.467388,-10503.35294,3917.254975,28296.07913,-9492.428242,1860.469801,0.212,0.922,0.182,192,0,0,0,0,0,0,0,0,0,1.71E+09,0, 2024-03-05 16:16:01.323
64,-7.599593115,12029.23948,-5869.724556,-9666.257759,4519.165101,28069.14187,-9518.915059,1775.309655,0.212,0.922,0.182,192,0,0,0,0,0,0,0,0,0,1.71E+09,0, 2024-03-05 16:16:01.323
65,3524.445417,11811.37703,-5816.840329,-8234.405009,6122.567489,32034.20723,-9714.314009,1552.865094,0.212,0.922,0.182,192,0,0,0,0,0,0,0,0,0,1.71E+09,0, 2024-03-05 16:16:01.323
66,4718.475606,11755.18474,-6010.026456,-8169.495543,6509.342076,34654.16696,-9798.870659,1502.350152,0.212,0.922,0.182,192,0,0,0,0,0,0,0,0,0,1.71E+09,0, 2024-03-05 16:16:01.323
67,1980.76689,11945.80042,-6171.249589,-9530.537967,5192.60081,32402.98866,-9651.326794,1702.755893,0.212,0.922,0.182,192,0,0,0,0,0,0,0,0,0,1.71E+09,0, 2024-03-05 16:16:01.323
68,-960.7226802,12120.83693,-6112.486853,-10489.22664,3936.298661,28324.93524,-9482.235847,1875.914857,0.212,0.922,0.182,192,0,0,0,0,0,0,0,0,0,1.71E+09,0, 2024-03-05 16:16:01.323
69,-45.01641333,12041.35412,-5868.986949,-9678.260646,4508.950354,28030.11573,-9520.367923,1784.742091,0.212,0.922,0.182,192,0,0,0,0,0,0,0,0,0,1.71E+09,0, 2024-03-05 16:16:01.323
70,3471.628245,11816.00384,-5815.566279,-8247.257262,6102.696789,31973.20932,-9719.119635,1549.60174,0.212,0.922,0.182,192,0,0,0,0,0,0,0,0,0,1.71E+09,0, 2024-03-05 16:16:01.323
71,4725.225833,11759.02924,-6000.750482,-8151.301223,6517.187538,34649.62955,-9798.356569,1502.19369,0.212,0.922,0.182,192,0,0,0,0,0,0,0,0,0,1.71E+09,0, 2024-03-05 16:16:01.323
72,2015.970888,11943.18526,-6182.000778,-9515.048208,5203.821385,32439.95845,-9652.019698,1699.313724,0.21,0.924,0.186,192,6,144,28,224,5,208,0,0,0,1.71E+09,0, 2024-03-05 16:16:01.323
73,-953.6595289,12121.64159,-6122.478082,-10496.4686,3930.978946,28341.78845,-9480.112431,1873.366758,0.21,0.924,0.186,192,0,0,0,0,0,0,0,0,0,1.71E+09,0, 2024-03-05 16:16:01.323
74,-79.21458235,12049.35605,-5868.562265,-9694.890344,4487.738548,27991.04488,-9512.097777,1787.29019,0.21,0.924,0.186,192,0,0,0,0,0,0,0,0,0,1.71E+09,0, 2024-03-05 16:16:01.323
75,3457.233722,11820.653,-5813.666381,-8243.591576,6100.215745,31943.72737,-9717.577364,1557.313091,0.21,0.924,0.186,192,0,0,0,0,0,0,0,0,0,1.71E+09,0, 2024-03-05 16:16:01.323
76,4750.282139,11748.47922,-6011.434616,-8138.694839,6531.962041,34667.77917,-9810.359455,1494.348227,0.21,0.924,0.186,192,0,0,0,0,0,0,0,0,0,1.71E+09,0, 2024-03-05 16:16:01.323
77,2066.262313,11930.04244,-6190.561496,-9495.60219,5227.603641,32510.58996,-9669.722279,1686.908506,0.21,0.924,0.186,192,0,0,0,0,0,0,0,0,0,1.71E+09,0, 2024-03-05 16:16:01.323
78,-933.5653107,12107.06825,-6132.402257,-10490.59009,3940.925472,28407.21201,-9499.893725,1862.593217,0.21,0.924,0.186,192,0,0,0,0,0,0,0,0,0,1.71E+09,0, 2024-03-05 16:16:01.323
79,-107.1542629,12038.4931,-5887.985931,-9711.855318,4472.159382,28002.73484,-9532.639031,1774.594399,0.21,0.924,0.186,192,0,0,0,0,0,0,0,0,0,1.71E+09,0, 2024-03-05 16:16:01.323
80,3412.731399,11817.27789,-5821.243622,-8262.970538,6080.479155,31909.70801,-9725.98162,1552.239245,0.21,0.924,0.186,192,0,0,0,0,0,0,0,0,0,1.71E+09,0, 2024-03-05 16:16:01.323
81,4752.629072,11747.24987,-6007.90304,-8126.691953,6540.969794,34675.1776,-9814.561583,1493.722378,0.21,0.924,0.186,192,0,0,0,0,0,0,0,0,0,1.71E+09,0, 2024-03-05 16:16:01.323
82,2087.675284,11929.14837,-6196.283543,-9481.431184,5244.479209,32552.90181,-9672.80682,1688.920163,0.212,0.914,0.184,192,6,160,28,144,5,192,0,0,0,1.71E+09,0, 2024-03-05 16:16:01.323
83,-933.4088485,12116.5901,-6134.302155,-10486.7903,3945.485228,28423.797,-9495.155155,1870.461031,0.212,0.914,0.184,192,0,0,0,0,0,0,0,0,0,1.71E+09,0, 2024-03-05 16:16:01.323
84,-155.2999205,12051.43476,-5882.777975,-9721.801844,4464.17981,27950.2753,-9521.709027,1784.406815,0.212,0.914,0.184,192,0,0,0,0,0,0,0,0,0,1.71E+09,0, 2024-03-05 16:16:01.323
85,3376.521573,11820.13891,-5823.970535,-8268.714937,6069.929131,31848.15131,-9723.992315,1550.004071,0.212,0.914,0.184,192,0,0,0,0,0,0,0,0,0,1.71E+09,0, 2024-03-05 16:16:01.323
86,4747.555226,11755.11769,-6004.840851,-8125.104979,6539.963965,34647.30497,-9808.817185,1496.382236,0.212,0.914,0.184,192,0,0,0,0,0,0,0,0,0,1.71E+09,0, 2024-03-05 16:16:01.323
87,2116.553738,11932.747,-6188.572191,-9466.880198,5262.494715,32573.46542,-9670.191666,1683.533392,0.212,0.914,0.184,192,0,0,0,0,0,0,0,0,0,1.71E+09,0, 2024-03-05 16:16:01.323
88,-905.983258,12113.77378,-6139.018373,-10480.37535,3960.796173,28456.63171,-9500.586629,1861.967368,0.212,0.914,0.184,192,0,0,0,0,0,0,0,0,0,1.71E+09,0, 2024-03-05 16:16:01.323
89,-186.5476592,12050.11601,-5886.600123,-9745.494693,4446.63369,27914.55721,-9523.944202,1783.557449,0.212,0.914,0.184,192,0,0,0,0,0,0,0,0,0,1.71E+09,0, 2024-03-05 16:16:01.323
90,3347.956043,11819.06603,-5824.954012,-8286.037539,6059.848495,31789.12035,-9728.93205,1540.929263,0.212,0.914,0.184,192,0,0,0,0,0,0,0,0,0,1.71E+09,0, 2024-03-05 16:16:01.323
91,4782.625113,11747.94278,-6000.638723,-8112.275077,6562.8298,34647.48378,-9818.093159,1482.501803,0.212,0.914,0.184,192,0,0,0,0,0,0,0,0,0,1.71E+09,0, 2024-03-05 16:16:01.323
92,2176.367006,11927.91902,-6187.611066,-9448.596471,5289.294456,32617.07367,-9680.540524,1678.526602,0.218,0.918,0.184,192,6,208,28,176,5,192,0,0,0,1.71E+09,0, 2024-03-05 16:16:01.323
93,-864.8784,12110.82335,-6136.53733,-10473.9604,3977.850554,28491.0087,-9509.035588,1858.234627,0.218,0.918,0.184,192,0,0,0,0,0,0,0,0,0,1.71E+09,0, 2024-03-05 16:16:01.323
94,-181.8090894,12052.08296,-5888.500022,-9754.882426,4451.729888,27897.30166,-9529.465083,1780.517612,0.218,0.918,0.184,192,0,0,0,0,0,0,0,0,0,1.71E+09,0, 2024-03-05 16:16:01.323
95,3345.698517,11824.38574,-5818.51671,-8291.670178,6066.598721,31750.56359,-9727.993277,1545.578426,0.218,0.918,0.184,192,0,0,0,0,0,0,0,0,0,1.71E+09,0, 2024-03-05 16:16:01.323
96,4802.115834,11752.23431,-5998.627066,-8105.703665,6576.933751,34634.45272,-9820.261278,1480.80307,0.218,0.918,0.184,192,0,0,0,0,0,0,0,0,0,1.71E+09,0, 2024-03-05 16:16:01.323
97,2229.050068,11923.94041,-6191.299104,-9433.062009,5311.981477,32656.21157,-9691.492878,1660.533447,0.218,0.918,0.184,192,0,0,0,0,0,0,0,0,0,1.71E+09,0, 2024-03-05 16:16:01.323
98,-847.1981701,12113.86318,-6143.399315,-10475.07798,3979.750452,28508.64422,-9512.835385,1848.66808,0.218,0.918,0.184,192,0,0,0,0,0,0,0,0,0,1.71E+09,0, 2024-03-05 16:16:01.324
99,-210.9334124,12058.74378,-5888.321208,-9764.068993,4433.31205,27860.98008,-9521.552565,1792.207574,0.218,0.918,0.184,192,0,0,0,0,0,0,0,0,0,1.71E+09,0, 2024-03-05 16:16:01.324
100,3303.900755,11830.77834,-5814.024009,-8298.979199,6040.044849,31690.50445,-9718.762007,1557.558961,0.218,0.918,0.184,192,0,0,0,0,0,0,0,0,0,1.71E+09,0, 2024-03-05 16:16:01.324
101,4795.298552,11755.72118,-5994.112014,-8093.723129,6567.814239,34612.19038,-9813.600458,1487.039207,0.218,0.918,0.184,192,0,0,0,0,0,0,0,0,0,1.71E+09,0, 2024-03-05 16:16:01.324
102,2251.24535,11929.43894,-6183.341883,-9412.252535,5325.213709,32685.00062,-9683.647416,1672.536334,0.214,0.924,0.184,192,6,176,28,224,5,192,0,0,0,1.71E+09,0, 2024-03-05 16:16:01.324
103,-844.0242224,12109.37048,-6141.745286,-10470.89821,3987.618266,28532.06885,-9508.92383,1855.664176,0.214,0.924,0.184,192,0,0,0,0,0,0,0,0,0,1.71E+09,0, 2024-03-05 16:16:01.324
104,-232.9945842,12048.7302,-5895.741987,-9778.351757,4422.203234,27844.6186,-9523.005429,1786.887859,0.214,0.924,0.184,192,0,0,0,0,0,0,0,0,0,1.71E+09,0, 2024-03-05 16:16:01.324
105,3280.297313,11827.26912,-5818.024971,-8309.082187,6027.103189,31651.61242,-9713.866975,1558.765955,0.214,0.924,0.184,192,0,0,0,0,0,0,0,0,0,1.71E+09,0, 2024-03-05 16:16:01.324
106,4811.794139,11747.5628,-5990.960418,-8083.530734,6577.17962,34606.96007,-9810.113586,1487.106262,0.214,0.924,0.184,192,0,0,0,0,0,0,0,0,0,1.71E+09,0, 2024-03-05 16:16:01.324
107,2290.360903,11917.21254,-6185.86763,-9397.589791,5350.359422,32720.13756,-9680.406413,1667.976578,0.214,0.924,0.184,192,0,0,0,0,0,0,0,0,0,1.71E+09,0, 2024-03-05 16:16:01.324
108,-824.8687774,12108.07408,-6144.583958,-10466.80784,4001.901031,28564.76945,-9505.325199,1851.931435,0.214,0.924,0.184,192,0,0,0,0,0,0,0,0,0,1.71E+09,0, 2024-03-05 16:16:01.324
109,-284.5153552,12065.78458,-5887.248324,-9796.926057,4408.859242,27798.14932,-9509.795548,1791.581725,0.214,0.924,0.184,192,0,0,0,0,0,0,0,0,0,1.71E+09,0, 2024-03-05 16:16:01.324
110,3249.161333,11842.02127,-5807.25143,-8309.015132,6030.143026,31603.89144,-9703.674579,1564.175077,0.214,0.924,0.184,192,0,0,0,0,0,0,0,0,0,1.71E+09,0, 2024-03-05 16:16:01.324
111,4830.167273,11758.5375,-5982.377348,-8070.700833,6601.543021,34605.03782,-9804.100967,1488.402663,0.214,0.924,0.184,192,0,0,0,0,0,0,0,0,0,1.71E+09,0, 2024-03-05 16:16:01.324
112,2339.579444,11922.5546,-6178.066871,-9377.696738,5374.499306,32758.56021,-9679.110012,1668.691834,0.21,0.93,0.182,192,6,144,29,16,5,176,0,0,0,1.71E+09,0, 2024-03-05 16:16:01.324
113,-780.6793786,12106.59887,-6140.247719,-10452.1898,4016.831996,28607.41658,-9504.31937,1858.458144,0.21,0.93,0.182,192,0,0,0,0,0,0,0,0,0,1.71E+09,0, 2024-03-05 16:16:01.324
114,-284.5153552,12059.95078,-5892.411577,-9800.703502,4399.806786,27797.25525,-9512.656571,1793.727493,0.21,0.93,0.182,192,0,0,0,0,0,0,0,0,0,1.71E+09,0, 2024-03-05 16:16:01.324
115,3221.087542,11833.61701,-5814.091064,-8324.326077,6006.561936,31557.51157,-9707.586134,1562.230475,0.21,0.93,0.182,192,0,0,0,0,0,0,0,0,0,1.71E+09,0, 2024-03-05 16:16:01.324
116,4834.011773,11746.33345,-5983.852563,-8066.006966,6599.754882,34598.35465,-9811.499394,1481.607733,0.21,0.93,0.182,192,0,0,0,0,0,0,0,0,0,1.71E+09,0, 2024-03-05 16:16:01.324
117,2367.72029,11909.21061,-6188.236915,-9368.398412,5382.054196,32803.219,-9690.062367,1658.678253,0.21,0.93,0.182,192,0,0,0,0,0,0,0,0,0,1.71E+09,0, 2024-03-05 16:16:01.324
118,-772.0516052,12101.12269,-6152.787048,-10457.30835,4008.383037,28639.31252,-9509.147347,1852.020842,0.21,0.93,0.182,192,0,0,0,0,0,0,0,0,0,1.71E+09,0, 2024-03-05 16:16:01.324
119,-335.0526494,12057.44738,-5907.923687,-9832.375924,4364.893361,27754.22815,-9509.996713,1791.961705,0.21,0.93,0.182,192,0,0,0,0,0,0,0,0,0,1.71E+09,0, 2024-03-05 16:16:01.324
120,3172.427794,11830.30895,-5821.780064,-8346.342545,5979.158697,31492.62446,-9705.552126,1561.917551,0.21,0.93,0.182,192,0,0,0,0,0,0,0,0,0,1.71E+09,0, 2024-03-05 16:16:01.324
121,4840.292614,11732.74359,-5996.682465,-8063.637681,6585.539172,34581.21086,-9816.595592,1481.384216,0.21,0.93,0.182,192,0,0,0,0,0,0,0,0,0,1.71E+09,0, 2024-03-05 16:16:01.324
122,2407.796968,11902.43803,-6188.30397,-9356.373174,5387.463318,32832.23156,-9686.039053,1662.88038,0.204,0.93,0.186,192,6,96,29,16,5,208,0,0,0,1.71E+09,0, 2024-03-05 16:16:01.324
123,-759.3334626,12098.1052,-6151.02126,-10456.21311,4019.760075,28665.03938,-9502.151251,1856.290025,0.204,0.93,0.186,192,0,0,0,0,0,0,0,0,0,1.71E+09,0, 2024-03-05 16:16:01.324
124,-365.4957253,12048.01494,-5915.277411,-9849.87734,4357.673747,27735.87736,-9513.952972,1791.559373,0.204,0.93,0.186,192,0,0,0,0,0,0,0,0,0,1.71E+09,0, 2024-03-05 16:16:01.324
125,3141.62709,11821.2565,-5826.563338,-8358.971281,5969.793316,31464.14834,-9711.341227,1558.341272,0.204,0.93,0.186,192,0,0,0,0,0,0,0,0,0,1.71E+09,0, 2024-03-05 16:16:01.324
126,4832.93889,11733.41414,-5994.894325,-8064.77762,6593.518745,34572.73955,-9813.846328,1479.77489,0.204,0.93,0.186,192,0,0,0,0,0,0,0,0,0,1.71E+09,0, 2024-03-05 16:16:01.324
127,2430.059305,11898.37002,-6197.53524,-9347.186607,5405.94821,32867.54732,-9688.989483,1656.241912,0.204,0.93,0.186,192,0,0,0,0,0,0,0,0,0,1.71E+09,0, 2024-03-05 16:16:01.324
128,-748.6716805,12092.3161,-6162.286539,-10454.33556,4022.598746,28700.66806,-9507.694484,1854.43483,0.204,0.93,0.186,192,0,0,0,0,0,0,0,0,0,1.71E+09,0, 2024-03-05 16:16:01.324
129,-395.7599873,12052.30648,-5910.605897,-9861.679061,4351.906997,27722.01928,-9502.933562,1803.808129,0.204,0.93,0.186,192,0,0,0,0,0,0,0,0,0,1.71E+09,0, 2024-03-05 16:16:01.324
130,3092.877936,11824.5422,-5821.422436,-8374.103412,5959.936197,31408.96188,-9692.4093,1573.071071,0.204,0.93,0.186,192,0,0,0,0,0,0,0,0,0,1.71E+09,0, 2024-03-05 16:16:01.324
131,4825.89809,11726.06042,-5994.469642,-8061.916597,6597.184431,34552.53357,-9807.47608,1483.842907,0.204,0.93,0.186,192,0,0,0,0,0,0,0,0,0,1.71E+09,0, 2024-03-05 16:16:01.324
132,2471.186515,11886.0095,-6194.897735,-9329.93106,5425.260118,32910.99911,-9690.174125,1653.313834,0.204,0.93,0.186,192,0,0,0,0,0,0,0,0,0,1.71E+09,0, 2024-03-05 16:16:01.324
133,-721.782532,12082.21311,-6160.476048,-10454.71554,4036.23331,28740.74474,-9510.711969,1849.338633,0.2,0.926,0.184,192,6,64,28,240,5,192,0,0,0,1.71E+09,0, 2024-03-05 16:16:01.324
134,-429.3993627,12059.03435,-5903.006304,-9878.822849,4340.954642,27683.7978,-9494.618713,1814.849891,0.2,0.926,0.184,192,0,0,0,0,0,0,0,0,0,1.71E+09,0, 2024-03-05 16:16:01.324
135,3056.154019,11837.90855,-5807.854928,-8378.640816,5953.476543,31347.1146,-9683.759175,1586.035083,0.2,0.926,0.184,192,0,0,0,0,0,0,0,0,0,1.71E+09,0, 2024-03-05 16:16:01.324
136,4834.257643,11742.19838,-5974.442479,-8043.029373,6619.826748,34529.95831,-9799.720025,1492.85066,0.2,0.926,0.184,192,0,0,0,0,0,0,0,0,0,1.71E+09,0, 2024-03-05 16:16:01.324
137,2510.078551,11889.87635,-6187.678121,-9311.312057,5460.106487,32935.9213,-9692.655169,1648.843485,0.2,0.926,0.184,192,0,0,0,0,0,0,0,0,0,1.71E+09,0, 2024-03-05 16:16:01.324
138,-703.0964736,12090.08093,-6157.838542,-10446.19953,4055.388755,28755.83217,-9505.101681,1848.802191,0.2,0.926,0.184,192,0,0,0,0,0,0,0,0,0,1.71E+09,0, 2024-03-05 16:16:01.324
139,-449.314767,12051.81474,-5918.093731,-9890.199887,4328.8847,27666.25168,-9503.894687,1799.449539,0.2,0.926,0.184,192,0,0,0,0,0,0,0,0,0,1.71E+09,0, 2024-03-05 16:16:01.324
140,3023.207548,11833.28174,-5824.395218,-8398.42211,5926.207414,31299.48304,-9690.934085,1576.89322,0.2,0.926,0.184,192,0,0,0,0,0,0,0,0,0,1.71E+09,0, 2024-03-05 16:16:01.324
141,4843.041878,11730.73193,-5990.334569,-8040.794199,6605.409873,34525.2868,-9812.147595,1485.251067,0.2,0.926,0.184,192,0,0,0,0,0,0,0,0,0,1.71E+09,0, 2024-03-05 16:16:01.324
142,2540.56633,11887.8647,-6198.161089,-9296.761071,5455.412621,32974.03103,-9694.152736,1650.989252,0.2,0.926,0.184,192,0,0,0,0,0,0,0,0,0,1.71E+09,0, 2024-03-05 16:16:01.324
143,-694.7145694,12087.35401,-6179.832659,-10444.67961,4034.154598,28792.51138,-9510.08612,1848.511618,0.202,0.924,0.182,192,6,80,28,224,5,176,0,0,0,1.71E+09,0, 2024-03-05 16:16:01.324
144,-498.2874391,12066.701,-5917.870214,-9907.343675,4298.441624,27632.41114,-9491.534172,1821.75658,0.202,0.924,0.182,192,0,0,0,0,0,0,0,0,0,1.71E+09,0, 2024-03-05 16:16:01.324
145,2987.176536,11838.84732,-5823.724666,-8400.098491,5901.508737,31257.59587,-9684.519134,1593.411159,0.202,0.924,0.182,192,0,0,0,0,0,0,0,0,0,1.71E+09,0, 2024-03-05 16:16:01.324
146,4848.719221,11732.98946,-5987.27238,-8028.210166,6605.36517,34527.25375,-9803.341008,1492.895364,0.202,0.924,0.182,192,0,0,0,0,0,0,0,0,0,1.71E+09,0, 2024-03-05 16:16:01.324
147,2588.35436,11885.74128,-6196.998798,-9275.146934,5472.399947,33029.48571,-9692.878687,1657.471258,0.202,0.924,0.182,192,0,0,0,0,0,0,0,0,0,1.71E+09,0, 2024-03-05 16:16:01.324
148,-658.4153364,12082.90602,-6179.117403,-10435.02366,4052.684194,28853.77751,-9510.84608,1853.987796,0.202,0.924,0.182,192,0,0,0,0,0,0,0,0,0,1.71E+09,0, 2024-03-05 16:16:01.324
149,-525.6906778,12054.54165,-5935.773961,-9927.996686,4284.874116,27634.44515,-9498.843193,1814.58167,0.202,0.924,0.182,192,0,0,0,0,0,0,0,0,0,1.71E+09,0, 2024-03-05 16:16:01.324
150,2922.579995,11827.93967,-5839.080315,-8431.323878,5876.966521,31202.61058,-9693.012797,1577.854345,0.202,0.924,0.182,192,0,0,0,0,0,0,0,0,0,1.71E+09,0, 2024-03-05 16:16:01.324
151,4829.407314,11725.52398,-5988.747595,-8035.653297,6598.212611,34496.87773,-9809.375979,1478.478489,0.202,0.924,0.182,192,0,0,0,0,0,0,0,0,0,1.71E+09,0, 2024-03-05 16:16:01.324
152,2611.42136,11874.05132,-6200.262153,-9270.833048,5486.950932,33056.62072,-9700.835908,1641.936796,0.202,0.924,0.182,192,0,0,0,0,0,0,0,0,0,1.71E+09,0, 2024-03-05 16:16:01.324
153,-641.1597897,12066.83511,-6192.439043,-10440.32102,4057.378061,28890.52378,-9525.665286,1831.703106,0.21,0.928,0.188,192,6,144,29,0,5,224,0,0,0,1.71E+09,0, 2024-03-05 16:16:01.324
154,-542.1639135,12049.22194,-5945.765191,-9943.665259,4274.793479,27632.20997,-9505.504013,1797.549641,0.21,0.928,0.188,192,0,0,0,0,0,0,0,0,0,1.71E+09,0, 2024-03-05 16:16:01.324
155,2904.050398,11830.73364,-5833.89471,-8435.414247,5873.09967,31184.12568,-9689.347111,1578.43549,0.21,0.928,0.188,192,0,0,0,0,0,0,0,0,0,1.71E+09,0, 2024-03-05 16:16:01.324
156,4834.078829,11729.88257,-5984.478412,-8024.03039,6610.260202,34504.41027,-9800.211763,1490.369617,0.21,0.928,0.188,192,0,0,0,0,0,0,0,0,0,1.71E+09,0, 2024-03-05 16:16:01.324
157,2644.591349,11882.05324,-6189.265095,-9246.894329,5513.638915,33109.75082,-9693.370425,1652.464468,0.21,0.928,0.188,192,0,0,0,0,0,0,0,0,0,1.71E+09,0, 2024-03-05 16:16:01.324
158,-623.8818912,12082.99542,-6172.747156,-10426.26177,4086.167107,28939.83173,-9511.695446,1851.86438,0.21,0.928,0.188,192,0,0,0,0,0,0,0,0,0,1.71E+09,0, 2024-03-05 16:16:01.324
159,-582.620571,12058.81084,-5940.467827,-9959.982033,4266.948017,27605.09731,-9501.257181,1805.596269,0.21,0.928,0.188,192,0,0,0,0,0,0,0,0,0,1.71E+09,0, 2024-03-05 16:16:01.324
