Sample Index, EXG Channel 0, EXG Channel 1, EXG Channel 2, EXG Channel 3, EXG Channel 4, EXG Channel 5, EXG Channel 6, EXG Channel 7, Accel Channel 0, Accel Channel 1, Accel Channel 2, Other, Other, Other, Other, Other, Other, Other, Analog Channel 0, Analog Channel 1, Analog Channel 2, Timestamp, Other, Timestamp (Formatted)
0,-1781.322274,14213.67546,-5545.758372,-6628.05219,-6388.843821,32418.67959,-8689.330064,8038.648431,0.176,0.94,0.072,192,5,128,29,96,2,64,0,0,0,1.71E+09,0, 2024-03-05 16:06:20.291
1,-770.2634657,14133.41035,-4990.295171,-6227.464226,-6208.174671,32851.31995,-8734.279422,7977.583465,0.176,0.94,0.072,192,0,0,0,0,0,0,0,0,0,1.71E+09,0, 2024-03-05 16:06:20.291
2,-1463.726337,14088.21512,-4620.597317,-6097.578239,-6103.389693,33417.22142,-8731.68662,7982.456146,0.176,0.94,0.072,192,0,0,0,0,0,0,0,0,0,1.71E+09,0, 2024-03-05 16:06:20.291
3,-2816.118636,14138.46184,-4889.19823,-6369.777783,-6199.904525,33379.60343,-8694.359206,8035.116856,0.176,0.94,0.072,192,0,0,0,0,0,0,0,0,0,1.71E+09,0, 2024-03-05 16:06:20.291
4,-3022.380534,14218.70461,-5435.228996,-6673.0239,-6364.61453,32793.16071,-8667.49241,8068.264493,0.176,0.94,0.072,192,0,0,0,0,0,0,0,0,0,1.71E+09,0, 2024-03-05 16:06:20.291
5,-1796.342647,14217.9223,-5539.343421,-6629.058019,-6395.10231,32419.10427,-8689.441823,8039.184873,0.176,0.94,0.072,192,0,0,0,0,0,0,0,0,0,1.71E+09,0, 2024-03-05 16:06:20.291
6,-779.9864745,14137.32191,-4991.278647,-6234.43797,-6217.00361,32838.44535,-8737.118094,7973.448393,0.176,0.94,0.072,192,0,0,0,0,0,0,0,0,0,1.71E+09,0, 2024-03-05 16:06:20.291
7,-1463.547523,14084.61649,-4613.802387,-6100.394559,-6106.004847,33408.25837,-8735.866396,7973.336634,0.176,0.94,0.072,192,0,0,0,0,0,0,0,0,0,1.71E+09,0, 2024-03-05 16:06:20.291
8,-2822.824159,14130.147,-4883.587943,-6373.041138,-6200.73154,33374.30607,-8691.229962,8030.780617,0.176,0.94,0.072,192,0,0,0,0,0,0,0,0,0,1.71E+09,0, 2024-03-05 16:06:20.291
9,-3039.457266,14208.62397,-5430.758647,-6679.528258,-6369.129583,32791.81961,-8667.425354,8061.916597,0.176,0.94,0.072,192,0,0,0,0,0,0,0,0,0,1.71E+09,0, 2024-03-05 16:06:20.291
10,-1824.595252,14216.13416,-5544.461971,-6635.852949,-6400.578487,32410.5659,-8685.731433,8037.128513,0.178,0.94,0.072,192,5,144,29,96,2,64,0,0,0,1.71E+09,0, 2024-03-05 16:06:20.291
11,-779.9641228,14127.88947,-4985.713063,-6230.280546,-6220.021095,32844.27915,-8738.99564,7970.900294,0.178,0.94,0.072,192,0,0,0,0,0,0,0,0,0,1.71E+09,0, 2024-03-05 16:06:20.291
12,-1435.69725,14080.61553,-4598.692608,-6090.828012,-6106.295419,33422.76465,-8736.201672,7979.237494,0.178,0.94,0.072,192,0,0,0,0,0,0,0,0,0,1.71E+09,0, 2024-03-05 16:06:20.291
13,-2811.223604,14130.68344,-4878.067062,-6369.017824,-6199.345732,33381.01159,-8684.770308,8044.035202,0.178,0.94,0.072,192,0,0,0,0,0,0,0,0,0,1.71E+09,0, 2024-03-05 16:06:20.291
14,-3035.299842,14203.43837,-5420.767417,-6670.788726,-6368.257865,32802.95078,-8667.62652,8062.095411,0.178,0.94,0.072,192,0,0,0,0,0,0,0,0,0,1.71E+09,0, 2024-03-05 16:06:20.291
15,-1819.879034,14209.51804,-5536.325936,-6631.740228,-6395.884621,32413.58339,-8682.982169,8040.928309,0.178,0.94,0.072,192,0,0,0,0,0,0,0,0,0,1.71E+09,0, 2024-03-05 16:06:20.291
16,-776.9913408,14128.22475,-4989.959894,-6234.482674,-6211.683895,32831.02457,-8731.239585,7979.05868,0.178,0.94,0.072,192,0,0,0,0,0,0,0,0,0,1.71E+09,0, 2024-03-05 16:06:20.291
17,-1440.547578,14085.37645,-4616.216375,-6102.897954,-6100.819242,33395.65198,-8726.769236,7981.875,0.178,0.94,0.072,192,0,0,0,0,0,0,0,0,0,1.71E+09,0, 2024-03-05 16:06:20.291
18,-2826.065162,14135.9808,-4893.04273,-6376.371548,-6190.852069,33356.7376,-8678.042433,8039.207225,0.178,0.94,0.072,192,0,0,0,0,0,0,0,0,0,1.71E+09,0, 2024-03-05 16:06:20.291
19,-3049.001461,14201.27025,-5423.293164,-6667.570075,-6356.299681,32795.79822,-8662.23975,8057.915635,0.178,0.94,0.072,192,0,0,0,0,0,0,0,0,0,1.71E+09,0, 2024-03-05 16:06:20.291
20,-1818.694391,14201.09143,-5535.275404,-6628.05219,-6400.265563,32420.24421,-8688.234829,8023.583355,0.18,0.938,0.072,192,5,160,29,80,2,64,0,0,0,1.71E+09,0, 2024-03-05 16:06:20.291
21,-754.6842998,14112.42206,-4988.998769,-6235.84613,-6229.274717,32839.31706,-8748.226911,7947.118038,0.18,0.938,0.072,192,0,0,0,0,0,0,0,0,0,1.71E+09,0, 2024-03-05 16:06:20.291
22,-1408.53988,14074.02177,-4613.154186,-6104.842556,-6109.268202,33407.20784,-8738.906233,7962.428983,0.18,0.938,0.072,192,0,0,0,0,0,0,0,0,0,1.71E+09,0, 2024-03-05 16:06:20.291
23,-2790.972923,14130.05759,-4878.111765,-6372.504696,-6191.746139,33379.67049,-8687.877201,8027.763132,0.18,0.938,0.072,192,0,0,0,0,0,0,0,0,0,1.71E+09,0, 2024-03-05 16:06:20.291
24,-3048.107391,14217.85524,-5422.734371,-6673.806211,-6352.075202,32800.31327,-8660.295148,8061.000176,0.18,0.938,0.072,192,0,0,0,0,0,0,0,0,0,1.71E+09,0, 2024-03-05 16:06:20.291
25,-1813.352324,14208.84749,-5528.43577,-6626.107589,-6391.838955,32430.54836,-8690.470003,8022.778693,0.18,0.938,0.072,192,0,0,0,0,0,0,0,0,0,1.71E+09,0, 2024-03-05 16:06:20.291
26,-743.7990002,14122.458,-4988.395272,-6238.684802,-6229.56529,32838.22183,-8746.103495,7951.320166,0.18,0.938,0.072,192,0,0,0,0,0,0,0,0,0,1.71E+09,0, 2024-03-05 16:06:20.291
27,-1384.221182,14077.7098,-4605.666352,-6099.6346,-6110.206975,33411.78994,-8742.370754,7956.841046,0.18,0.938,0.072,192,0,0,0,0,0,0,0,0,0,1.71E+09,0, 2024-03-05 16:06:20.291
28,-2760.686309,14123.62029,-4860.297425,-6361.351175,-6191.544973,33398.64712,-8694.180393,8019.090655,0.18,0.938,0.072,192,0,0,0,0,0,0,0,0,0,1.71E+09,0, 2024-03-05 16:06:20.291
29,-3037.467961,14201.42671,-5410.016228,-6670.341691,-6356.657309,32817.85939,-8666.911264,8049.153751,0.18,0.938,0.072,192,0,0,0,0,0,0,0,0,0,1.71E+09,0, 2024-03-05 16:06:20.291
30,-1847.237569,14208.40045,-5549.222892,-6644.19015,-6400.176156,32410.87883,-8685.753785,8023.89628,0.184,0.94,0.068,192,5,192,29,96,2,32,0,0,0,1.71E+09,0, 2024-03-05 16:06:20.291
31,-778.3995007,14128.60473,-5014.859738,-6251.782924,-6222.748008,32804.38129,-8740.806131,7956.058735,0.184,0.94,0.068,192,0,0,0,0,0,0,0,0,0,1.71E+09,0, 2024-03-05 16:06:20.291
32,-1392.312514,14078.49211,-4610.963715,-6095.857155,-6096.907687,33396.05432,-8741.275518,7953.018898,0.184,0.94,0.068,192,0,0,0,0,0,0,0,0,0,1.71E+09,0, 2024-03-05 16:06:20.291
33,-2740.457981,14120.62515,-4837.766866,-6341.569882,-6176.368138,33418.71898,-8698.717797,8009.92644,0.184,0.94,0.068,192,0,0,0,0,0,0,0,0,0,1.71E+09,0, 2024-03-05 16:06:20.291
34,-3035.121028,14207.17111,-5396.694588,-6661.35629,-6350.085896,32839.04884,-8667.045375,8049.39962,0.184,0.94,0.068,192,0,0,0,0,0,0,0,0,0,1.71E+09,0, 2024-03-05 16:06:20.291
35,-1826.964537,14203.32661,-5519.606831,-6627.091065,-6394.34235,32445.45698,-8694.940352,8014.955582,0.184,0.94,0.068,192,0,0,0,0,0,0,0,0,0,1.71E+09,0, 2024-03-05 16:06:20.291
36,-731.3937821,14118.45703,-4982.695577,-6235.935537,-6227.687744,32844.23445,-8746.483475,7950.716668,0.184,0.94,0.068,192,0,0,0,0,0,0,0,0,0,1.71E+09,0, 2024-03-05 16:06:20.291
37,-1349.151295,14069.61847,-4599.005532,-6092.616152,-6107.234193,33417.82491,-8742.013126,7956.192846,0.184,0.94,0.068,192,0,0,0,0,0,0,0,0,0,1.71E+09,0, 2024-03-05 16:06:20.291
38,-2722.576585,14110.49981,-4842.03605,-6348.253053,-6189.667426,33424.23986,-8704.372788,8005.143166,0.184,0.94,0.068,192,0,0,0,0,0,0,0,0,0,1.71E+09,0, 2024-03-05 16:06:20.291
39,-3042.564159,14202.16432,-5403.37776,-6668.084165,-6354.578597,32841.26167,-8665.234883,8050.316042,0.184,0.94,0.068,192,0,0,0,0,0,0,0,0,0,1.71E+09,0, 2024-03-05 16:06:20.291
40,-1845.628243,14209.83096,-5533.576671,-6638.512807,-6395.191717,32438.7291,-8686.20082,8028.25487,0.18,0.942,0.076,192,5,160,29,112,2,96,0,0,0,1.71E+09,0, 2024-03-05 16:06:20.291
41,-757.4782678,14130.39286,-5005.941392,-6250.374764,-6226.413694,32822.79913,-8737.945108,7960.774953,0.18,0.942,0.076,192,0,0,0,0,0,0,0,0,0,1.71E+09,0, 2024-03-05 16:06:20.291
42,-1364.708109,14076.14518,-4617.624535,-6104.172004,-6115.750207,33399.72,-8740.02382,7960.417326,0.18,0.942,0.076,192,0,0,0,0,0,0,0,0,0,1.71E+09,0, 2024-03-05 16:06:20.291
43,-2745.978862,14121.07219,-4857.592864,-6356.858475,-6194.160127,33406.40317,-8694.873297,8016.408445,0.18,0.942,0.076,192,0,0,0,0,0,0,0,0,0,1.71E+09,0, 2024-03-05 16:06:20.291
44,-3064.49122,14207.34992,-5406.596411,-6670.341691,-6356.836123,32835.11494,-8666.643043,8053.512341,0.18,0.942,0.076,192,0,0,0,0,0,0,0,0,0,1.71E+09,0, 2024-03-05 16:06:20.291
45,-1885.637866,14218.41403,-5550.85457,-6649.621624,-6398.388016,32417.22672,-8685.418509,8031.607632,0.18,0.942,0.076,192,0,0,0,0,0,0,0,0,0,1.71E+09,0, 2024-03-05 16:06:20.291
46,-797.6667044,14138.14892,-5029.053095,-6260.589511,-6223.597374,32787.79629,-8735.195844,7968.41925,0.18,0.942,0.076,192,0,0,0,0,0,0,0,0,0,1.71E+09,0, 2024-03-05 16:06:20.291
47,-1372.508868,14078.33565,-4615.210547,-6096.885335,-6098.472309,33381.65979,-8742.929547,7962.250169,0.18,0.942,0.076,192,0,0,0,0,0,0,0,0,0,1.71E+09,0, 2024-03-05 16:06:20.291
48,-2724.990574,14121.8545,-4828.468541,-6337.770085,-6180.950246,33420.21655,-8703.925753,8016.095521,0.18,0.942,0.076,192,0,0,0,0,0,0,0,0,0,1.71E+09,0, 2024-03-05 16:06:20.291
49,-3066.502877,14210.9262,-5388.178574,-6666.676005,-6348.20835,32842.4016,-8665.972491,8059.279091,0.18,0.942,0.076,192,0,0,0,0,0,0,0,0,0,1.71E+09,0, 2024-03-05 16:06:20.291
50,-1893.706845,14206.83583,-5539.522235,-6651.812095,-6399.662065,32426.12272,-8690.537058,8028.277222,0.186,0.95,0.078,192,5,208,29,176,2,112,0,0,0,1.71E+09,0, 2024-03-05 16:06:20.291
51,-778.7571286,14120.75926,-5013.295116,-6258.756668,-6232.850997,32811.04211,-8754.552454,7948.570901,0.186,0.95,0.078,192,0,0,0,0,0,0,0,0,0,1.71E+09,0, 2024-03-05 16:06:20.291
52,-1332.409839,14067.428,-4598.625552,-6094.00196,-6110.899879,33411.9017,-8758.285196,7942.245357,0.186,0.95,0.078,192,0,0,0,0,0,0,0,0,0,1.71E+09,0, 2024-03-05 16:06:20.291
53,-2701.297724,14107.83995,-4824.847558,-6343.738001,-6188.996874,33434.78989,-8713.179375,7998.862326,0.186,0.95,0.078,192,0,0,0,0,0,0,0,0,0,1.71E+09,0, 2024-03-05 16:06:20.291
54,-3034.539882,14183.79118,-5378.187344,-6665.737231,-6359.831257,32866.6756,-8686.84902,8030.221823,0.186,0.95,0.078,192,0,0,0,0,0,0,0,0,0,1.71E+09,0, 2024-03-05 16:06:20.291
55,-1881.949828,14200.91262,-5545.512503,-6660.529275,-6407.306362,32430.4366,-8694.292151,8019.001248,0.186,0.95,0.078,192,0,0,0,0,0,0,0,0,0,1.71E+09,0, 2024-03-05 16:06:20.291
56,-754.8631137,14115.48425,-5013.898613,-6264.03168,-6232.359258,32810.72918,-8752.518446,7942.647689,0.186,0.95,0.078,192,0,0,0,0,0,0,0,0,0,1.71E+09,0, 2024-03-05 16:06:20.291
57,-1320.608118,14067.40565,-4610.471977,-6108.999981,-6112.375094,33393.68503,-8755.602986,7940.077238,0.186,0.95,0.078,192,0,0,0,0,0,0,0,0,0,1.71E+09,0, 2024-03-05 16:06:20.291
58,-2686.098538,14110.34335,-4819.572546,-6345.52614,-6177.485726,33427.50322,-8712.352361,7998.705864,0.186,0.95,0.078,192,0,0,0,0,0,0,0,0,0,1.71E+09,0, 2024-03-05 16:06:20.291
59,-3043.726449,14192.48601,-5380.891905,-6673.605046,-6349.728268,32852.12461,-8678.780041,8039.922481,0.186,0.95,0.078,192,0,0,0,0,0,0,0,0,0,1.71E+09,0, 2024-03-05 16:06:20.291
60,-1892.969238,14203.03603,-5544.886654,-6659.389336,-6395.526993,32425.22865,-8696.437919,8017.168405,0.184,0.942,0.076,192,5,192,29,112,2,96,0,0,0,1.71E+09,0, 2024-03-05 16:06:20.291
61,-770.6210936,14122.25683,-5022.012296,-6267.160924,-6224.402037,32792.3784,-8753.881902,7943.675869,0.184,0.942,0.076,192,0,0,0,0,0,0,0,0,0,1.71E+09,0, 2024-03-05 16:06:20.291
62,-1313.924946,14063.56115,-4604.302896,-6098.561716,-6100.2828,33386.15249,-8761.481495,7934.243433,0.184,0.942,0.076,192,0,0,0,0,0,0,0,0,0,1.71E+09,0, 2024-03-05 16:06:20.291
63,-2694.458091,14105.8283,-4825.629869,-6345.01205,-6173.797688,33409.84534,-8717.672076,7994.704902,0.184,0.942,0.076,192,0,0,0,0,0,0,0,0,0,1.71E+09,0, 2024-03-05 16:06:20.291
64,-3057.852752,14186.24987,-5378.52262,-6662.987967,-6335.870187,32846.17905,-8687.541924,8030.5571,0.184,0.942,0.076,192,0,0,0,0,0,0,0,0,0,1.71E+09,0, 2024-03-05 16:06:20.291
65,-1870.304569,14185.10994,-5527.251128,-6645.665365,-6396.443414,32441.76894,-8719.460216,7994.123756,0.184,0.942,0.076,192,0,0,0,0,0,0,0,0,0,1.71E+09,0, 2024-03-05 16:06:20.291
66,-756.3159771,14113.98668,-5028.47195,-6275.274608,-6233.029811,32787.37161,-8761.325033,7936.836235,0.184,0.942,0.076,192,0,0,0,0,0,0,0,0,0,1.71E+09,0, 2024-03-05 16:06:20.291
67,-1316.607155,14061.61655,-4627.124027,-6115.772559,-6106.094254,33358.97277,-8757.726402,7938.82554,0.184,0.942,0.076,192,0,0,0,0,0,0,0,0,0,1.71E+09,0, 2024-03-05 16:06:20.291
68,-2684.980951,14099.30159,-4830.904881,-6346.621376,-6173.797688,33396.83663,-8719.281402,7989.94398,0.184,0.942,0.076,192,0,0,0,0,0,0,0,0,0,1.71E+09,0, 2024-03-05 16:06:20.291
69,-3061.250217,14177.15271,-5381.271885,-6670.051118,-6341.346364,32831.09162,-8692.682826,8022.8681,0.184,0.942,0.076,192,0,0,0,0,0,0,0,0,0,1.71E+09,0, 2024-03-05 16:06:20.291
70,-1900.255907,14191.63664,-5544.998413,-6664.127906,-6400.243211,32404.62034,-8711.368884,7997.208297,0.178,0.944,0.078,192,5,144,29,128,2,112,0,0,0,1.71E+09,0, 2024-03-05 16:06:20.291
71,-779.7182536,14114.79135,-5044.60991,-6288.685654,-6234.706191,32751.60882,-8763.761373,7930.711857,0.178,0.944,0.078,192,0,0,0,0,0,0,0,0,0,1.71E+09,0, 2024-03-05 16:06:20.291
72,-1306.146539,14059.38137,-4623.726562,-6117.270126,-6104.328466,33343.75123,-8765.25894,7934.958689,0.178,0.944,0.078,192,0,0,0,0,0,0,0,0,0,1.71E+09,0, 2024-03-05 16:06:20.291
73,-2673.849782,14098.49693,-4818.767884,-6347.358983,-6166.846295,33392.81331,-8722.07537,7985.943018,0.178,0.944,0.078,192,0,0,0,0,0,0,0,0,0,1.71E+09,0, 2024-03-05 16:06:20.291
74,-3057.338662,14167.51911,-5370.96773,-6674.700281,-6346.979004,32837.30541,-8699.924791,8013.279201,0.178,0.944,0.078,192,0,0,0,0,0,0,0,0,0,1.71E+09,0, 2024-03-05 16:06:20.291
75,-1897.528994,14179.38789,-5535.655384,-6666.966577,-6402.746606,32417.20437,-8722.745922,7984.043119,0.178,0.944,0.078,192,0,0,0,0,0,0,0,0,0,1.71E+09,0, 2024-03-05 16:06:20.291
76,-782.1098902,14113.13732,-5049.124962,-6302.275515,-6233.186273,32746.55732,-8759.469838,7928.588441,0.178,0.944,0.078,192,0,0,0,0,0,0,0,0,0,1.71E+09,0, 2024-03-05 16:06:20.291
77,-1297.898745,14054.73221,-4616.685762,-6121.919289,-6098.807585,33340.55493,-8763.627263,7919.580688,0.178,0.944,0.078,192,0,0,0,0,0,0,0,0,0,1.71E+09,0, 2024-03-05 16:06:20.291
78,-2655.320186,14088.84097,-4799.277162,-6345.190864,-6168.209752,33409.01833,-8724.176434,7979.572771,0.178,0.944,0.078,192,0,0,0,0,0,0,0,0,0,1.71E+09,0, 2024-03-05 16:06:20.291
79,-3069.922694,14169.68723,-5363.569303,-6682.232819,-6341.860454,32845.53085,-8694.962704,8015.223803,0.178,0.944,0.078,192,0,0,0,0,0,0,0,0,0,1.71E+09,0, 2024-03-05 16:06:20.291
80,-1928.061477,14184.52879,-5543.724363,-6679.505906,-6404.71356,32412.57756,-8713.916983,7991.307436,0.174,0.942,0.082,192,5,112,29,112,2,144,0,0,0,1.71E+09,0, 2024-03-05 16:06:20.291
81,-786.066149,14113.18202,-5046.375697,-6301.224983,-6234.147398,32748.50193,-8760.855646,7930.577747,0.174,0.942,0.082,192,0,0,0,0,0,0,0,0,0,1.71E+09,0, 2024-03-05 16:06:20.291
82,-1285.113547,14055.62628,-4609.980239,-6120.935812,-6099.344027,33346.23228,-8767.270597,7921.055904,0.174,0.942,0.082,192,0,0,0,0,0,0,0,0,0,1.71E+09,0, 2024-03-05 16:06:20.291
83,-2647.698241,14088.81862,-4793.018674,-6339.781742,-6166.175743,33420.35066,-8730.457274,7971.906122,0.174,0.942,0.082,192,0,0,0,0,0,0,0,0,0,1.71E+09,0, 2024-03-05 16:06:20.291
84,-3061.317272,14168.18966,-5349.465352,-6669.894656,-6341.54753,32869.04488,-8701.57882,8007.62421,0.174,0.942,0.082,192,0,0,0,0,0,0,0,0,0,1.71E+09,0, 2024-03-05 16:06:20.291
85,-1942.456,14182.20421,-5545.110171,-6683.52922,-6409.295667,32416.51147,-8715.056922,7992.313265,0.174,0.942,0.082,192,0,0,0,0,0,0,0,0,0,1.71E+09,0, 2024-03-05 16:06:20.291
86,-791.4529194,14114.2102,-5045.7722,-6301.269686,-6229.900566,32742.46696,-8755.223007,7936.880939,0.174,0.942,0.082,192,0,0,0,0,0,0,0,0,0,1.71E+09,0, 2024-03-05 16:06:20.291
87,-1271.523687,14052.7429,-4606.448663,-6111.123396,-6096.483004,33348.02042,-8762.353213,7928.879014,0.174,0.942,0.082,192,0,0,0,0,0,0,0,0,0,1.71E+09,0, 2024-03-05 16:06:20.291
88,-2641.685622,14090.85263,-4791.789328,-6334.126751,-6160.788972,33419.03191,-8719.840195,7982.63496,0.174,0.942,0.082,192,0,0,0,0,0,0,0,0,0,1.71E+09,0, 2024-03-05 16:06:20.291
89,-3078.572819,14168.21202,-5351.521713,-6669.939359,-6333.232681,32858.31605,-8694.202744,8016.095521,0.174,0.942,0.082,192,0,0,0,0,0,0,0,0,0,1.71E+09,0, 2024-03-05 16:06:20.291
90,-1944.75823,14184.28292,-5529.419247,-6673.359176,-6390.520202,32418.88075,-8713.179375,7992.514431,0.174,0.938,0.076,192,5,112,29,80,2,96,0,0,0,1.71E+09,0, 2024-03-05 16:06:20.772
91,-787.9660473,14110.16454,-5038.798456,-6296.687579,-6226.324287,32744.65743,-8762.286158,7929.348401,0.174,0.938,0.076,192,0,0,0,0,0,0,0,0,0,1.71E+09,0, 2024-03-05 16:06:20.772
92,-1262.627693,14046.3056,-4606.180442,-6115.6608,-6099.411082,33349.47328,-8766.778859,7922.486415,0.174,0.938,0.076,192,0,0,0,0,0,0,0,0,0,1.71E+09,0, 2024-03-05 16:06:20.772
93,-2626.262918,14080.43672,-4778.713558,-6333.724419,-6161.615987,33432.04062,-8731.507806,7966.586407,0.174,0.938,0.076,192,0,0,0,0,0,0,0,0,0,1.71E+09,0, 2024-03-05 16:06:20.772
94,-3077.365825,14166.66975,-5341.418724,-6673.627397,-6336.473684,32869.00018,-8701.377654,8002.349198,0.174,0.938,0.076,192,0,0,0,0,0,0,0,0,0,1.71E+09,0, 2024-03-05 16:06:20.772
95,-1958.795125,14182.78535,-5530.983869,-6684.490345,-6394.699978,32419.21603,-8716.710951,7984.937189,0.174,0.938,0.076,192,0,0,0,0,0,0,0,0,0,1.71E+09,0, 2024-03-05 16:06:20.772
96,-791.5423264,14110.18689,-5045.571035,-6310.92564,-6228.402999,32737.8625,-8763.046117,7925.347438,0.174,0.938,0.076,192,0,0,0,0,0,0,0,0,0,1.71E+09,0, 2024-03-05 16:06:20.772
97,-1252.301187,14051.46886,-4605.822814,-6120.935812,-6087.743472,33344.98058,-8760.162742,7926.353267,0.174,0.938,0.076,192,0,0,0,0,0,0,0,0,0,1.71E+09,0, 2024-03-05 16:06:20.772
98,-2639.22693,14093.28897,-4785.597895,-6342.016917,-6146.774429,33419.85892,-8710.273649,7984.780727,0.174,0.938,0.076,192,0,0,0,0,0,0,0,0,0,1.71E+09,0, 2024-03-05 16:06:20.772
99,-3108.926488,14171.52007,-5344.167989,-6673.292121,-6320.559242,32871.213,-8688.011311,8012.228669,0.174,0.938,0.076,192,0,0,0,0,0,0,0,0,0,1.71E+09,0, 2024-03-05 16:06:20.772
100,-1983.06912,14185.71343,-5535.208349,-6683.260999,-6393.671798,32423.3064,-8707.72555,7988.647579,0.182,0.93,0.078,192,5,176,29,16,2,112,0,0,0,1.71E+09,0, 2024-03-05 16:06:20.772
101,-814.8775476,14119.39581,-5057.864494,-6315.239527,-6223.552671,32718.99762,-8751.222044,7929.795436,0.182,0.93,0.078,192,0,0,0,0,0,0,0,0,0,1.71E+09,0, 2024-03-05 16:06:20.772
102,-1249.216646,14057.97321,-4601.978314,-6115.817263,-6082.937847,33325.80278,-8760.319204,7919.60304,0.182,0.93,0.078,192,0,0,0,0,0,0,0,0,0,1.71E+09,0, 2024-03-05 16:06:20.772
103,-2622.396066,14089.8468,-4767.98472,-6331.93628,-6143.287557,33412.5499,-8724.891689,7968.79923,0.182,0.93,0.078,192,0,0,0,0,0,0,0,0,0,1.71E+09,0, 2024-03-05 16:06:20.772
104,-3103.18209,14161.39473,-5331.941585,-6672.487458,-6320.961573,32862.89815,-8697.756672,8006.327809,0.182,0.93,0.078,192,0,0,0,0,0,0,0,0,0,1.71E+09,0, 2024-03-05 16:06:20.772
105,-1989.327608,14178.69498,-5529.240433,-6686.434947,-6387.03333,32410.81177,-8711.123015,7995.174288,0.182,0.93,0.078,192,0,0,0,0,0,0,0,0,0,1.71E+09,0, 2024-03-05 16:06:20.772
106,-802.4499777,14107.99642,-5051.315433,-6318.547585,-6223.217395,32716.56128,-8760.52037,7933.997564,0.182,0.93,0.078,192,0,0,0,0,0,0,0,0,0,1.71E+09,0, 2024-03-05 16:06:20.772
107,-1230.910567,14044.11513,-4601.419521,-6122.902766,-6083.608399,33325.69102,-8766.935321,7926.39797,0.182,0.93,0.078,192,0,0,0,0,0,0,0,0,0,1.71E+09,0, 2024-03-05 16:06:20.772
108,-2599.485528,14073.73119,-4767.045947,-6333.500902,-6142.974632,33424.70925,-8725.204614,7976.287064,0.182,0.93,0.078,192,0,0,0,0,0,0,0,0,0,1.71E+09,0, 2024-03-05 16:06:20.772
109,-3112.301601,14163.60756,-5352.25932,-6687.798403,-6321.073332,32853.59983,-8688.503049,8020.767036,0.182,0.93,0.078,192,0,0,0,0,0,0,0,0,0,1.71E+09,0, 2024-03-05 16:06:20.772
110,-2005.666733,14172.10122,-5545.713669,-6695.599162,-6388.933228,32399.90412,-8712.911154,7987.887619,0.178,0.934,0.08,192,5,144,29,48,2,128,0,0,0,1.71E+09,0, 2024-03-05 16:06:20.772
111,-788.4354339,14086.31522,-5051.896578,-6318.212309,-6230.168787,32716.98597,-8769.371661,7916.071465,0.178,0.934,0.08,192,0,0,0,0,0,0,0,0,0,1.71E+09,0, 2024-03-05 16:06:20.772
112,-1189.157509,14031.79932,-4596.502137,-6121.941641,-6097.242963,33331.39072,-8774.49021,7911.891688,0.178,0.934,0.08,192,0,0,0,0,0,0,0,0,0,1.71E+09,0, 2024-03-05 16:06:20.772
113,-2537.75001,14058.64377,-4748.62811,-6327.018896,-6158.598502,33445.02699,-8740.895538,7955.030555,0.178,0.934,0.08,192,0,0,0,0,0,0,0,0,0,1.71E+09,0, 2024-03-05 16:06:20.772
114,-3057.517476,14152.31993,-5332.701544,-6686.166726,-6339.737039,32876.86799,-8698.293114,8003.623248,0.178,0.934,0.08,192,0,0,0,0,0,0,0,0,0,1.71E+09,0, 2024-03-05 16:06:20.772
115,-1985.147832,14175.78926,-5547.322994,-6706.998552,-6400.891411,32401.60285,-8713.358189,7983.216105,0.178,0.934,0.08,192,0,0,0,0,0,0,0,0,0,1.71E+09,0, 2024-03-05 16:06:20.772
116,-771.3810529,14097.71461,-5060.88198,-6331.064562,-6240.07061,32708.11232,-8769.505771,7914.819767,0.178,0.934,0.08,192,0,0,0,0,0,0,0,0,0,1.71E+09,0, 2024-03-05 16:06:20.772
117,-1196.86886,14044.18219,-4621.044352,-6145.7686,-6105.781329,33300.14298,-8765.996547,7918.19488,0.178,0.934,0.08,192,0,0,0,0,0,0,0,0,0,1.71E+09,0, 2024-03-05 16:06:20.772
118,-2575.971493,14075.117,-4773.393842,-6342.95569,-6151.40124,33402.24575,-8725.472835,7967.748698,0.178,0.934,0.08,192,0,0,0,0,0,0,0,0,0,1.71E+09,0, 2024-03-05 16:06:20.772
119,-3067.016967,14149.68242,-5314.46252,-6667.659481,-6320.492187,32879.88548,-8702.070558,7999.666989,0.178,0.934,0.08,192,0,0,0,0,0,0,0,0,0,1.71E+09,0, 2024-03-05 16:06:20.772
120,-1976.989445,14169.17314,-5521.909061,-6688.379549,-6396.376359,32422.23351,-8720.398989,7981.718538,0.178,0.934,0.08,192,0,0,0,0,0,0,0,0,0,1.71E+09,0, 2024-03-05 16:06:20.772
121,-785.2391345,14099.56981,-5061.284311,-6326.81773,-6241.590529,32704.58075,-8767.784687,7918.19488,0.186,0.938,0.078,192,5,208,29,80,2,112,0,0,0,1.71E+09,0, 2024-03-05 16:06:20.772
122,-1167.453965,14037.43196,-4595.116329,-6115.52669,-6101.221573,33325.06517,-8776.859495,7905.409682,0.186,0.938,0.078,192,0,0,0,0,0,0,0,0,0,1.71E+09,0, 2024-03-05 16:06:20.772
123,-2527.199987,14069.90904,-4740.112095,-6317.675867,-6159.112592,33440.64605,-8737.095742,7953.93532,0.186,0.938,0.078,192,0,0,0,0,0,0,0,0,0,1.71E+09,0, 2024-03-05 16:06:20.772
124,-3086.418281,14163.98754,-5324.945489,-6676.510772,-6334.953765,32875.25867,-8694.314503,8002.013922,0.186,0.938,0.078,192,0,0,0,0,0,0,0,0,0,1.71E+09,0, 2024-03-05 16:06:20.772
125,-2017.624917,14173.30821,-5538.94109,-6696.560287,-6402.27722,32404.53093,-8712.352361,7979.528067,0.186,0.938,0.078,192,0,0,0,0,0,0,0,0,0,1.71E+09,0, 2024-03-05 16:06:20.772
126,-788.2119165,14085.82349,-5062.088974,-6323.017934,-6252.319366,32703.41846,-8771.740946,7900.604057,0.186,0.938,0.078,192,0,0,0,0,0,0,0,0,0,1.71E+09,0, 2024-03-05 16:06:20.772
127,-1149.393755,14030.25705,-4593.59641,-6115.459635,-6114.565565,33322.45002,-8777.552399,7896.826613,0.186,0.938,0.078,192,0,0,0,0,0,0,0,0,0,1.71E+09,0, 2024-03-05 16:06:20.772
128,-2518.594565,14069.9761,-4738.346307,-6318.972268,-6158.732612,33430.67717,-8730.345515,7956.192846,0.186,0.938,0.078,192,0,0,0,0,0,0,0,0,0,1.71E+09,0, 2024-03-05 16:06:20.772
129,-3085.457156,14157.7961,-5320.251622,-6674.633226,-6326.147178,32870.00601,-8690.17943,8004.852594,0.186,0.938,0.078,192,0,0,0,0,0,0,0,0,0,1.71E+09,0, 2024-03-05 16:06:20.772
130,-2002.582193,14165.61921,-5530.760352,-6688.692473,-6397.762167,32410.99059,-8713.469948,7976.711747,0.186,0.938,0.078,192,0,0,0,0,0,0,0,0,0,1.71E+09,0, 2024-03-05 16:06:20.772
131,-791.3858642,14096.30645,-5080.640922,-6332.562129,-6251.09002,32682.67604,-8762.733193,7917.233755,0.184,0.942,0.072,192,5,192,29,112,2,64,0,0,0,1.71E+09,0, 2024-03-05 16:06:20.772
132,-1149.863142,14036.80611,-4607.074512,-6116.398408,-6099.6346,33300.38885,-8771.02569,7909.321238,0.184,0.942,0.072,192,0,0,0,0,0,0,0,0,0,1.71E+09,0, 2024-03-05 16:06:20.772
133,-2482.876478,14058.10732,-4723.214176,-6302.700198,-6148.71903,33448.3574,-8744.002431,7945.016974,0.184,0.942,0.072,192,0,0,0,0,0,0,0,0,0,1.71E+09,0, 2024-03-05 16:06:20.772
134,-3060.423203,14146.53082,-5309.880413,-6670.45345,-6331.511597,32890.03317,-8700.505936,7994.68255,0.184,0.942,0.072,192,0,0,0,0,0,0,0,0,0,1.71E+09,0, 2024-03-05 16:06:20.772
135,-2017.379048,14164.21105,-5539.790456,-6705.523337,-6398.589182,32405.33559,-8708.23964,7983.774899,0.184,0.942,0.072,192,0,0,0,0,0,0,0,0,0,1.71E+09,0, 2024-03-05 16:06:20.772
136,-805.9368498,14089.66799,-5091.146242,-6350.488228,-6248.586625,32667.4992,-8760.699184,7916.853776,0.184,0.942,0.072,192,0,0,0,0,0,0,0,0,0,1.71E+09,0, 2024-03-05 16:06:20.772
137,-1136.854426,14024.40089,-4611.880137,-6130.435304,-6104.864908,33294.21977,-8775.652501,7898.055959,0.184,0.942,0.072,192,0,0,0,0,0,0,0,0,0,1.71E+09,0, 2024-03-05 16:06:20.772
138,-2502.25544,14066.1763,-4742.503732,-6321.833291,-6144.74042,33422.16115,-8727.953878,7958.472724,0.184,0.942,0.072,192,0,0,0,0,0,0,0,0,0,1.71E+09,0, 2024-03-05 16:06:20.772
139,-3061.607845,14141.97107,-5301.856137,-6665.312548,-6317.497053,32893.81062,-8702.495241,7994.347274,0.184,0.942,0.072,192,0,0,0,0,0,0,0,0,0,1.71E+09,0, 2024-03-05 16:06:20.772
140,-2004.929126,14157.99727,-5523.652497,-6693.922781,-6397.53865,32428.60376,-8725.316373,7967.145201,0.184,0.942,0.072,192,0,0,0,0,0,0,0,0,0,1.71E+09,0, 2024-03-05 16:06:20.772
141,-797.5549457,14095.03241,-5091.906201,-6351.494056,-6252.095849,32677.15516,-8768.902274,7907.734264,0.178,0.938,0.072,192,5,144,29,80,2,64,0,0,0,1.71E+09,0, 2024-03-05 16:06:20.772
142,-1124.09158,14022.90333,-4614.584698,-6130.502359,-6108.620001,33297.46077,-8784.503792,7890.121089,0.178,0.938,0.072,192,0,0,0,0,0,0,0,0,0,1.71E+09,0, 2024-03-05 16:06:20.772
143,-2465.442117,14048.83135,-4730.813769,-6311.506785,-6160.431345,33442.99298,-8750.01505,7935.673944,0.178,0.938,0.072,192,0,0,0,0,0,0,0,0,0,1.71E+09,0, 2024-03-05 16:06:20.772
144,-3048.688537,14134.41618,-5296.402311,-6667.458316,-6330.438713,32905.41117,-8706.205631,7986.144183,0.178,0.938,0.072,192,0,0,0,0,0,0,0,0,0,1.71E+09,0, 2024-03-05 16:06:20.772
145,-2022.966984,14169.21785,-5539.388125,-6710.194851,-6404.646504,32413.40457,-8709.513689,7976.599989,0.178,0.938,0.072,192,0,0,0,0,0,0,0,0,0,1.71E+09,0, 2024-03-05 16:06:20.772
146,-796.6161724,14095.45709,-5096.398902,-6352.745754,-6250.687689,32667.99094,-8765.705975,7904.984999,0.178,0.938,0.072,192,0,0,0,0,0,0,0,0,0,1.71E+09,0, 2024-03-05 16:06:20.772
147,-1112.491025,14028.02188,-4622.273698,-6135.687963,-6109.983457,33284.385,-8779.027614,7889.562296,0.178,0.938,0.072,192,0,0,0,0,0,0,0,0,0,1.71E+09,0, 2024-03-05 16:06:20.772
148,-2455.473239,14052.56409,-4727.75158,-6311.395027,-6149.300176,33440.19901,-8745.231777,7932.611755,0.178,0.938,0.072,192,0,0,0,0,0,0,0,0,0,1.71E+09,0, 2024-03-05 16:06:20.772
149,-3061.741955,14141.45698,-5302.41493,-6672.152182,-6329.611698,32901.2761,-8702.428186,7984.423099,0.178,0.938,0.072,192,0,0,0,0,0,0,0,0,0,1.71E+09,0, 2024-03-05 16:06:20.772
150,-2031.415943,14163.02641,-5535.454218,-6708.339656,-6404.579449,32419.03721,-8715.526308,7970.252093,0.178,0.938,0.072,192,0,0,0,0,0,0,0,0,0,1.71E+09,0, 2024-03-05 16:06:20.772
151,-800.6841899,14095.5912,-5097.672951,-6363.631053,-6259.360166,32659.49728,-8760.833294,7912.852813,0.182,0.944,0.072,192,5,176,29,128,2,64,0,0,0,1.71E+09,0, 2024-03-05 16:06:20.772
152,-1113.943888,14033.34159,-4619.569137,-6141.231196,-6105.826033,33271.21982,-8766.242417,7901.095796,0.182,0.944,0.072,192,0,0,0,0,0,0,0,0,0,1.71E+09,0, 2024-03-05 16:06:20.772
153,-2453.975672,14053.56992,-4720.733132,-6316.044189,-6147.713202,33429.33606,-8734.212367,7942.111247,0.182,0.944,0.072,192,0,0,0,0,0,0,0,0,0,1.71E+09,0, 2024-03-05 16:06:20.772
154,-3075.689444,14139.64649,-5295.307075,-6679.103575,-6323.174396,32887.82035,-8693.532192,7989.608704,0.182,0.944,0.072,192,0,0,0,0,0,0,0,0,0,1.71E+09,0, 2024-03-05 16:06:20.772
155,-2043.105905,14156.61146,-5531.408552,-6716.140415,-6399.393845,32409.40361,-8714.721646,7968.642768,0.182,0.944,0.072,192,0,0,0,0,0,0,0,0,0,1.71E+09,0, 2024-03-05 16:06:20.772
156,-794.3139427,14091.45613,-5092.934381,-6363.563998,-6250.017136,32657.41857,-8763.4708,7907.130767,0.182,0.944,0.072,192,0,0,0,0,0,0,0,0,0,1.71E+09,0, 2024-03-05 16:06:20.772
157,-1075.700054,14026.07727,-4603.274715,-6133.050458,-6100.931001,33289.70471,-8773.439678,7895.396101,0.182,0.944,0.072,192,0,0,0,0,0,0,0,0,0,1.71E+09,0, 2024-03-05 16:06:20.772
158,-2388.708578,14035.4203,-4687.876068,-6298.207497,-6144.025164,33476.23002,-8750.976175,7925.392142,0.182,0.944,0.072,192,0,0,0,0,0,0,0,0,0,1.71E+09,0, 2024-03-05 16:06:20.772
159,-3030.047182,14124.53671,-5278.163287,-6676.711938,-6336.540739,32930.06515,-8705.870355,7981.159744,0.182,0.944,0.072,192,0,0,0,0,0,0,0,0,0,1.71E+09,0, 2024-03-05 16:06:20.772
160,-2027.906719,14159.38308,-5532.079104,-6724.768189,-6412.179042,32429.25196,-8714.587535,7966.11702,0.182,0.944,0.072,192,0,0,0,0,0,0,0,0,0,1.71E+09,0, 2024-03-05 16:06:20.772
161,-781.7299106,14092.28314,-5101.919782,-6376.572713,-6260.254235,32661.57599,-8763.381393,7898.950028,0.178,0.95,0.07,192,5,144,29,176,2,48,0,0,0,1.71E+09,0, 2024-03-05 16:06:20.772
162,-1048.497981,14023.30566,-4608.773244,-6138.392525,-6111.101045,33291.71637,-8777.619455,7885.203705,0.178,0.95,0.07,192,0,0,0,0,0,0,0,0,0,1.71E+09,0, 2024-03-05 16:06:20.772
163,-2396.777558,14048.13845,-4708.596135,-6313.116111,-6152.027089,33456.96282,-8743.242472,7933.014087,0.178,0.95,0.07,192,0,0,0,0,0,0,0,0,0,1.71E+09,0, 2024-03-05 16:06:20.772
164,-3037.959699,14135.31025,-5276.777479,-6670.96754,-6321.341553,32926.71239,-8704.39514,7977.449355,0.178,0.95,0.07,192,0,0,0,0,0,0,0,0,0,1.71E+09,0, 2024-03-05 16:06:20.772
165,-2000.972867,14148.98952,-5507.983924,-6704.897488,-6402.366627,32453.57066,-8727.506844,7951.007241,0.178,0.95,0.07,192,0,0,0,0,0,0,0,0,0,1.71E+09,0, 2024-03-05 16:06:20.772
166,-751.6668143,14085.08588,-5093.023788,-6371.074184,-6264.322253,32669.48851,-8772.43385,7893.429147,0.178,0.95,0.07,192,0,0,0,0,0,0,0,0,0,1.71E+09,0, 2024-03-05 16:06:20.772
167,-1003.950954,14015.16962,-4596.725654,-6135.352687,-6117.247774,33298.77952,-8786.694263,7873.022005,0.178,0.95,0.07,192,0,0,0,0,0,0,0,0,0,1.71E+09,0, 2024-03-05 16:06:20.772
168,-2366.69211,14048.27256,-4702.203536,-6312.892593,-6157.391507,33458.79566,-8743.331879,7931.248299,0.178,0.95,0.07,192,0,0,0,0,0,0,0,0,0,1.71E+09,0, 2024-03-05 16:06:20.772
169,-3026.69442,14134.88557,-5280.465517,-6677.181325,-6329.835216,32926.13124,-8704.149271,7977.628169,0.178,0.95,0.07,192,0,0,0,0,0,0,0,0,0,1.71E+09,0, 2024-03-05 16:06:20.772
170,-2032.086495,14160.18774,-5537.287061,-6730.713753,-6406.144071,32423.3511,-8714.855756,7964.95473,0.178,0.95,0.07,192,0,0,0,0,0,0,0,0,0,1.71E+09,0, 2024-03-05 16:06:20.772
171,-756.3383289,14088.5951,-5104.557288,-6381.132469,-6260.991843,32652.83646,-8765.303643,7898.614752,0.174,0.944,0.074,192,5,112,29,128,2,80,0,0,0,1.71E+09,0, 2024-03-05 16:06:20.772
172,-995.1890701,14018.99177,-4606.515718,-6145.165103,-6113.559736,33283.82621,-8778.021786,7882.745014,0.174,0.944,0.074,192,0,0,0,0,0,0,0,0,0,1.71E+09,0, 2024-03-05 16:06:20.772
173,-2352.230531,14042.4164,-4699.029589,-6317.139425,-6151.40124,33458.41568,-8739.286213,7928.588441,0.174,0.944,0.074,192,0,0,0,0,0,0,0,0,0,1.71E+09,0, 2024-03-05 16:06:20.772
174,-3035.076324,14132.7398,-5274.922284,-6683.193944,-6322.772065,32928.56758,-8692.727529,7984.400747,0.174,0.944,0.074,192,0,0,0,0,0,0,0,0,0,1.71E+09,0, 2024-03-05 16:06:20.772
175,-2043.172961,14161.08181,-5527.273479,-6733.820645,-6401.740778,32431.62125,-8707.256163,7970.497962,0.174,0.944,0.074,192,0,0,0,0,0,0,0,0,0,1.71E+09,0, 2024-03-05 16:06:20.772
176,-772.8339163,14101.55911,-5105.563117,-6388.240324,-6256.499142,32644.45456,-8753.926605,7905.610848,0.174,0.944,0.074,192,0,0,0,0,0,0,0,0,0,1.71E+09,0, 2024-03-05 16:06:20.772
177,-993.3115236,14026.36785,-4601.486576,-6141.521769,-6107.949449,33282.23923,-8770.310434,7885.024891,0.174,0.944,0.074,192,0,0,0,0,0,0,0,0,0,1.71E+09,0, 2024-03-05 16:06:20.772
178,-2333.052735,14044.361,-4681.014083,-6306.544698,-6140.538292,33475.49241,-8737.721591,7924.922755,0.174,0.944,0.074,192,0,0,0,0,0,0,0,0,0,1.71E+09,0, 2024-03-05 16:06:20.772
179,-3033.936385,14136.98663,-5266.227456,-6680.891714,-6314.367809,32941.53159,-8696.259105,7975.549457,0.174,0.944,0.074,192,0,0,0,0,0,0,0,0,0,1.71E+09,0, 2024-03-05 16:06:20.772
180,-2017.446103,14146.1732,-5506.218136,-6719.716694,-6399.505603,32461.08084,-8724.489358,7946.693354,0.174,0.944,0.074,192,0,0,0,0,0,0,0,0,0,1.71E+09,0, 2024-03-05 16:06:20.772
181,-728.0633721,14083.4542,-5091.816794,-6380.551324,-6264.165791,32673.62358,-8767.292949,7891.171621,0.174,0.946,0.078,192,5,112,29,144,2,112,0,0,0,1.71E+09,0, 2024-03-05 16:06:20.772
182,-939.3767642,14014.49907,-4590.891849,-6133.788065,-6113.895013,33310.693,-8784.637902,7871.457383,0.174,0.946,0.078,192,0,0,0,0,0,0,0,0,0,1.71E+09,0, 2024-03-05 16:06:20.772
183,-2277.910981,14040.49415,-4669.301768,-6296.978151,-6149.210769,33506.76251,-8751.154989,7919.871261,0.174,0.946,0.078,192,0,0,0,0,0,0,0,0,0,1.71E+09,0, 2024-03-05 16:06:20.772
184,-2999.514699,14135.15379,-5260.572465,-6676.2202,-6323.152044,32969.98536,-8698.673093,7979.461012,0.174,0.946,0.078,192,0,0,0,0,0,0,0,0,0,1.71E+09,0, 2024-03-05 16:06:20.772
185,-2029.471341,14163.83107,-5525.507692,-6727.539805,-6398.991513,32460.67851,-8705.244506,7966.11702,0.174,0.946,0.078,192,0,0,0,0,0,0,0,0,0,1.71E+09,0, 2024-03-05 16:06:20.772
186,-753.6784713,14092.3949,-5116.850748,-6389.894353,-6261.193009,32659.47493,-8754.88773,7897.720682,0.174,0.946,0.078,192,0,0,0,0,0,0,0,0,0,1.71E+09,0, 2024-03-05 16:06:20.772
187,-965.0142151,14016.17545,-4615.76934,-6146.416801,-6115.191414,33288.833,-8772.009167,7879.861639,0.174,0.946,0.078,192,0,0,0,0,0,0,0,0,0,1.71E+09,0, 2024-03-05 16:06:20.772
188,-2319.149949,14041.36587,-4697.912001,-6310.188032,-6147.780257,33477.03469,-8735.374658,7927.582613,0.174,0.946,0.078,192,0,0,0,0,0,0,0,0,0,1.71E+09,0, 2024-03-05 16:06:20.772
189,-3021.486464,14121.11689,-5261.064203,-6669.738194,-6317.698219,32964.35272,-8702.115262,7968.486305,0.174,0.946,0.078,192,0,0,0,0,0,0,0,0,0,1.71E+09,0, 2024-03-05 16:06:20.772
190,-2051.130182,14146.59788,-5520.411494,-6729.238537,-6400.332618,32456.54344,-8712.151195,7951.811904,0.174,0.946,0.078,192,0,0,0,0,0,0,0,0,0,1.71E+09,0, 2024-03-05 16:06:20.772
191,-780.3888059,14084.25886,-5122.125759,-6400.48908,-6258.466096,32638.10666,-8757.56994,7887.81886,0.176,0.95,0.082,192,5,128,29,176,2,144,0,0,0,1.71E+09,0, 2024-03-05 16:06:20.772
192,-976.8606397,14018.76825,-4619.457378,-6151.580054,-6104.797853,33260.98272,-8770.243379,7875.659511,0.176,0.95,0.082,192,0,0,0,0,0,0,0,0,0,1.71E+09,0, 2024-03-05 16:06:20.772
193,-2314.344324,14042.32699,-4685.506783,-6305.583573,-6136.760847,33464.00362,-8739.621489,7915.847947,0.176,0.95,0.082,192,0,0,0,0,0,0,0,0,0,1.71E+09,0, 2024-03-05 16:06:20.772
194,-3033.243481,14121.87685,-5258.404345,-6677.829525,-6313.540794,32947.65597,-8700.930619,7960.573788,0.176,0.95,0.082,192,0,0,0,0,0,0,0,0,0,1.71E+09,0, 2024-03-05 16:06:20.772
195,-2052.873618,14143.42393,-5514.264764,-6728.456226,-6403.283048,32454.46473,-8720.466044,7938.758485,0.176,0.95,0.082,192,0,0,0,0,0,0,0,0,0,1.71E+09,0, 2024-03-05 16:06:20.772
196,-777.4160239,14087.11989,-5130.731181,-6407.462824,-6275.855753,32620.96287,-8761.682661,7884.331987,0.176,0.95,0.082,192,0,0,0,0,0,0,0,0,0,1.71E+09,0, 2024-03-05 16:06:20.772
197,-952.3631278,14019.05883,-4616.261079,-6150.976557,-6112.598611,33244.37538,-8773.931417,7873.357281,0.176,0.95,0.082,192,0,0,0,0,0,0,0,0,0,1.71E+09,0, 2024-03-05 16:06:20.772
198,-2296.798205,14038.99658,-4681.662283,-6303.214288,-6138.928966,33447.28451,-8739.062695,7918.19488,0.176,0.95,0.082,192,0,0,0,0,0,0,0,0,0,1.71E+09,0, 2024-03-05 16:06:20.772
199,-3015.02681,14112.64558,-5237.751333,-6662.38447,-6314.300753,32953.758,-8708.172585,7957.869227,0.176,0.95,0.082,192,0,0,0,0,0,0,0,0,0,1.71E+09,0, 2024-03-05 16:06:20.772
200,-2065.211781,14143.20041,-5516.030552,-6733.015982,-6410.837938,32442.86417,-8719.013181,7949.107343,0.176,0.95,0.082,192,0,0,0,0,0,0,0,0,0,1.71E+09,0, 2024-03-05 16:06:20.772
201,-762.7532795,14074.40175,-5121.656373,-6400.958467,-6271.20659,32629.50124,-8765.549513,7885.874258,0.176,0.946,0.088,192,5,128,29,144,2,192,0,0,0,1.71E+09,0, 2024-03-05 16:06:20.772
202,-911.7053046,13994.96365,-4607.879175,-6149.166065,-6116.733684,33267.35297,-8786.336635,7864.193066,0.176,0.946,0.088,192,0,0,0,0,0,0,0,0,0,1.71E+09,0, 2024-03-05 16:06:20.772
203,-2280.59319,14028.44656,-4690.670036,-6319.307544,-6139.286594,33451.86662,-8736.17932,7922.665229,0.176,0.946,0.088,192,0,0,0,0,0,0,0,0,0,1.71E+09,0, 2024-03-05 16:06:20.772
204,-3035.14338,14110.85744,-5254.336328,-6682.881019,-6309.472777,32943.74441,-8704.372788,7959.433849,0.176,0.946,0.088,192,0,0,0,0,0,0,0,0,0,1.71E+09,0, 2024-03-05 16:06:20.772
205,-2074.621865,14138.50655,-5514.644744,-6736.391096,-6405.406464,32449.94968,-8726.590422,7939.496093,0.176,0.946,0.088,192,0,0,0,0,0,0,0,0,0,1.71E+09,0, 2024-03-05 16:06:20.772
206,-763.6473493,14077.95567,-5118.795349,-6404.557098,-6275.341663,32632.45167,-8775.339577,7878.632293,0.176,0.946,0.088,192,0,0,0,0,0,0,0,0,0,1.71E+09,0, 2024-03-05 16:06:20.772
207,-928.9608513,14011.0569,-4616.261079,-6156.072754,-6125.540271,33248.13047,-8780.838106,7868.797525,0.176,0.946,0.088,192,0,0,0,0,0,0,0,0,0,1.71E+09,0, 2024-03-05 16:06:20.772
208,-2272.993597,14032.38047,-4676.431975,-6308.601059,-6146.707373,33455.71112,-8745.611757,7911.936392,0.176,0.946,0.088,192,0,0,0,0,0,0,0,0,0,1.71E+09,0, 2024-03-05 16:06:20.772
209,-3040.753667,14113.76317,-5248.904854,-6681.294046,-6325.968364,32952.28278,-8709.334875,7956.349308,0.176,0.946,0.088,192,0,0,0,0,0,0,0,0,0,1.71E+09,0, 2024-03-05 16:06:20.772
210,-2102.896822,14141.74755,-5517.572822,-6742.448418,-6418.728103,32447.08865,-8724.578765,7940.546625,0.176,0.946,0.088,192,0,0,0,0,0,0,0,0,0,1.71E+09,0, 2024-03-05 16:06:20.773
211,-805.7133324,14073.88766,-5139.358954,-6420.851519,-6294.13948,32609.22821,-8776.837144,7875.39129,0.174,0.946,0.084,192,5,112,29,144,2,160,0,0,0,1.71E+09,0, 2024-03-05 16:06:21.252
212,-939.5555782,14004.30667,-4617.959811,-6158.285577,-6128.222481,33238.00513,-8788.281237,7858.783944,0.174,0.946,0.084,192,0,0,0,0,0,0,0,0,0,1.71E+09,0, 2024-03-05 16:06:21.252
213,-2265.505763,14023.12684,-4661.590417,-6301.31439,-6149.009603,33458.05805,-8753.412515,7906.683732,0.174,0.946,0.084,192,0,0,0,0,0,0,0,0,0,1.71E+09,0, 2024-03-05 16:06:21.252
214,-3045.089906,14109.0246,-5238.041906,-6678.611836,-6327.532986,32949.71233,-8711.860622,7955.298776,0.174,0.946,0.084,192,0,0,0,0,0,0,0,0,0,1.71E+09,0, 2024-03-05 16:06:21.252
215,-2125.539139,14138.75242,-5521.417322,-6748.192817,-6419.71158,32436.87391,-8723.058846,7942.312413,0.174,0.946,0.084,192,0,0,0,0,0,0,0,0,0,1.71E+09,0, 2024-03-05 16:06:21.252
216,-831.4401902,14077.68745,-5150.668937,-6432.161502,-6291.367864,32589.02223,-8768.745812,7883.370862,0.174,0.946,0.084,192,0,0,0,0,0,0,0,0,0,1.71E+09,0, 2024-03-05 16:06:21.252
217,-951.8937411,14011.1016,-4627.16873,-6166.823943,-6129.541234,33216.83803,-8784.794365,7864.37188,0.174,0.946,0.084,192,0,0,0,0,0,0,0,0,0,1.71E+09,0, 2024-03-05 16:06:21.252
218,-2269.685539,14026.79253,-4661.478658,-6303.147233,-6146.707373,33449.34087,-8751.780838,7901.475775,0.174,0.946,0.084,192,0,0,0,0,0,0,0,0,0,1.71E+09,0, 2024-03-05 16:06:21.252
219,-3049.292034,14106.36474,-5226.731923,-6675.169668,-6317.362942,32956.79783,-8708.954896,7952.884788,0.174,0.946,0.084,192,0,0,0,0,0,0,0,0,0,1.71E+09,0, 2024-03-05 16:06:21.252
220,-2147.488552,14139.06534,-5521.909061,-6753.847808,-6412.089635,32434.12464,-8718.543794,7940.926604,0.174,0.946,0.084,192,0,0,0,0,0,0,0,0,0,1.71E+09,0, 2024-03-05 16:06:21.252
221,-829.7191059,14072.23363,-5145.349222,-6430.798045,-6286.025797,32590.43039,-8774.49021,7867.389365,0.176,0.952,0.08,192,5,128,29,192,2,128,0,0,0,1.71E+09,0, 2024-03-05 16:06:21.252
222,-915.5498046,14000.52923,-4617.669239,-6164.700528,-6138.705449,33227.9692,-8793.735062,7845.708173,0.176,0.952,0.08,192,0,0,0,0,0,0,0,0,0,1.71E+09,0, 2024-03-05 16:06:21.252
223,-2250.686556,14028.58067,-4662.14921,-6307.371713,-6150.797743,33451.48664,-8750.059754,7897.295999,0.176,0.952,0.08,192,0,0,0,0,0,0,0,0,0,1.71E+09,0, 2024-03-05 16:06:21.252
224,-3041.133647,14107.88466,-5221.725133,-6677.985987,-6318.413474,32962.47518,-8710.787739,7942.15595,0.176,0.952,0.08,192,0,0,0,0,0,0,0,0,0,1.71E+09,0, 2024-03-05 16:06:21.252
225,-2142.72763,14141.38992,-5518.243375,-6757.401735,-6415.800025,32443.69119,-8718.87907,7937.350325,0.176,0.952,0.08,192,0,0,0,0,0,0,0,0,0,1.71E+09,0, 2024-03-05 16:06:21.252
226,-844.5159608,14092.48431,-5160.459001,-6441.482179,-6279.208515,32576.46055,-8757.838161,7886.611865,0.176,0.952,0.08,192,0,0,0,0,0,0,0,0,0,1.71E+09,0, 2024-03-05 16:06:21.252
227,-906.7208656,14004.0161,-4614.674105,-6157.190342,-6116.890146,33224.59408,-8788.683568,7850.290281,0.176,0.952,0.08,192,0,0,0,0,0,0,0,0,0,1.71E+09,0, 2024-03-05 16:06:21.252
228,-2227.373687,14023.46212,-4647.79939,-6298.810994,-6133.877472,33457.67807,-8747.846931,7900.067616,0.176,0.952,0.08,192,0,0,0,0,0,0,0,0,0,1.71E+09,0, 2024-03-05 16:06:21.252
229,-3051.057822,14118.16646,-5223.021534,-6681.852839,-6302.789605,32952.19337,-8697.041416,7961.423154,0.176,0.952,0.08,192,0,0,0,0,0,0,0,0,0,1.71E+09,0, 2024-03-05 16:06:21.252
230,-2163.894732,14148.38602,-5520.836177,-6757.312328,-6399.237382,32428.60376,-8713.179375,7940.524273,0.176,0.952,0.08,192,0,0,0,0,0,0,0,0,0,1.71E+09,0, 2024-03-05 16:06:21.252
231,-847.0640596,14089.28801,-5157.173295,-6439.470522,-6278.314445,32566.06699,-8764.87896,7872.843191,0.174,0.946,0.08,192,5,112,29,144,2,128,0,0,0,1.71E+09,0, 2024-03-05 16:06:21.252
232,-910.185386,14008.86643,-4616.618707,-6161.236007,-6117.337181,33204.87984,-8784.950827,7851.229054,0.174,0.946,0.08,192,0,0,0,0,0,0,0,0,0,1.71E+09,0, 2024-03-05 16:06:21.252
233,-2214.454378,14029.0277,-4636.958794,-6291.70314,-6130.345897,33452.2019,-8749.612719,7898.190069,0.174,0.946,0.08,192,0,0,0,0,0,0,0,0,0,1.71E+09,0, 2024-03-05 16:06:21.252
234,-3021.754685,14107.63879,-5200.736845,-6667.458316,-6314.524271,32968.62191,-8714.028742,7941.373639,0.174,0.946,0.08,192,0,0,0,0,0,0,0,0,0,1.71E+09,0, 2024-03-05 16:06:21.252
235,-2134.166912,14132.24806,-5498.32797,-6748.058706,-6412.894298,32447.40158,-8724.154082,7927.783779,0.174,0.946,0.08,192,0,0,0,0,0,0,0,0,0,1.71E+09,0, 2024-03-05 16:06:21.252
236,-832.5354257,14077.7098,-5155.653376,-6449.998194,-6291.881954,32566.31286,-8762.934358,7872.843191,0.174,0.946,0.08,192,0,0,0,0,0,0,0,0,0,1.71E+09,0, 2024-03-05 16:06:21.252
237,-901.4682056,14006.18422,-4629.806236,-6175.384662,-6128.244833,33195.26859,-8782.738004,7848.166865,0.174,0.946,0.08,192,0,0,0,0,0,0,0,0,0,1.71E+09,0, 2024-03-05 16:06:21.252
238,-2176.657579,14014.63318,-4625.715867,-6286.226962,-6139.599519,33473.77133,-8764.543684,7879.459307,0.174,0.946,0.08,192,0,0,0,0,0,0,0,0,0,1.71E+09,0, 2024-03-05 16:06:21.252
239,-3008.142472,14100.55329,-5198.747539,-6671.794554,-6319.665172,32986.72682,-8716.889765,7936.746828,0.174,0.946,0.08,192,0,0,0,0,0,0,0,0,0,1.71E+09,0, 2024-03-05 16:06:21.252
240,-2134.502189,14129.76702,-5499.959648,-6755.859465,-6413.654257,32461.37142,-8726.501015,7924.609831,0.174,0.946,0.08,192,0,0,0,0,0,0,0,0,0,1.71E+09,0, 2024-03-05 16:06:21.252
241,-812.485911,14071.76424,-5155.45221,-6453.976804,-6296.620524,32577.53343,-8772.187981,7864.640101,0.174,0.946,0.08,192,5,112,29,144,2,128,0,0,0,1.71E+09,0, 2024-03-05 16:06:21.252
242,-858.2175801,13997.06471,-4624.888852,-6174.512944,-6128.714219,33202.93524,-8791.075205,7840.790789,0.174,0.946,0.08,192,0,0,0,0,0,0,0,0,0,1.71E+09,0, 2024-03-05 16:06:21.252
243,-2157.07745,14006.96653,-4632.600204,-6293.62539,-6140.806513,33466.57407,-8763.828428,7875.480697,0.174,0.946,0.08,192,0,0,0,0,0,0,0,0,0,1.71E+09,0, 2024-03-05 16:06:21.252
244,-3008.745969,14092.88664,-5204.514289,-6676.399014,-6316.535928,32979.50721,-8714.632239,7933.103494,0.174,0.946,0.08,192,0,0,0,0,0,0,0,0,0,1.71E+09,0, 2024-03-05 16:06:21.252
245,-2150.059003,14132.82921,-5511.13552,-6758.899302,-6412.424912,32448.94385,-8720.466044,7928.275517,0.174,0.946,0.08,192,0,0,0,0,0,0,0,0,0,1.71E+09,0, 2024-03-05 16:06:21.252
246,-809.9378121,14076.30164,-5161.688347,-6450.601691,-6291.166698,32569.82208,-8770.176324,7862.762554,0.174,0.946,0.08,192,0,0,0,0,0,0,0,0,0,1.71E+09,0, 2024-03-05 16:06:21.252
247,-831.1943211,13998.42817,-4619.792654,-6170.646092,-6131.843463,33206.98091,-8795.858478,7834.599356,0.174,0.946,0.08,192,0,0,0,0,0,0,0,0,0,1.71E+09,0, 2024-03-05 16:06:21.252
248,-2156.116325,14016.22015,-4635.88591,-6303.482509,-6140.962975,33462.39429,-8759.581597,7879.682825,0.174,0.946,0.08,192,0,0,0,0,0,0,0,0,0,1.71E+09,0, 2024-03-05 16:06:21.252
249,-3032.170598,14099.391,-5206.123615,-6688.714825,-6314.278402,32976.55678,-8711.502994,7936.679773,0.174,0.946,0.08,192,0,0,0,0,0,0,0,0,0,1.71E+09,0, 2024-03-05 16:06:21.252
250,-2176.858744,14129.29763,-5511.26963,-6769.158753,-6412.648429,32455.64937,-8722.254184,7924.028686,0.174,0.946,0.08,192,0,0,0,0,0,0,0,0,0,1.71E+09,0, 2024-03-05 16:06:21.252
251,-821.404257,14073.7759,-5165.175219,-6459.140057,-6295.100605,32572.21372,-8767.002376,7861.063821,0.174,0.946,0.08,192,0,0,0,0,0,0,0,0,0,1.71E+09,0, 2024-03-05 16:06:21.252
252,-832.3119083,14006.45244,-4630.543844,-6182.291351,-6131.865815,33200.76712,-8786.515449,7835.225205,0.178,0.952,0.078,192,5,144,29,192,2,112,0,0,0,1.71E+09,0, 2024-03-05 16:06:21.252
253,-2153.076488,14022.5457,-4641.38444,-6302.007294,-6137.990193,33463.0872,-8759.715707,7872.977301,0.178,0.952,0.078,192,0,0,0,0,0,0,0,0,0,1.71E+09,0, 2024-03-05 16:06:21.252
254,-3017.664315,14100.32977,-5193.1149,-6674.029729,-6310.433902,33000.24962,-8719.035532,7926.666191,0.178,0.952,0.078,192,0,0,0,0,0,0,0,0,0,1.71E+09,0, 2024-03-05 16:06:21.252
255,-2180.01034,14133.9915,-5504.787624,-6766.007157,-6413.43074,32468.72514,-8722.701218,7918.418398,0.178,0.952,0.078,192,0,0,0,0,0,0,0,0,0,1.71E+09,0, 2024-03-05 16:06:21.252
0,-844.2700916,14085.62232,-5178.742728,-6471.992311,-6301.4485,32556.45574,-8764.543684,7862.44963,0.178,0.952,0.078,192,0,0,0,0,0,0,0,0,0,1.71E+09,0, 2024-03-05 16:06:21.252
1,-819.8396349,13994.87424,-4625.000611,-6175.161144,-6138.0796,33198.46489,-8799.032426,7824.719885,0.178,0.952,0.078,192,0,0,0,0,0,0,0,0,0,1.71E+09,0, 2024-03-05 16:06:21.252
2,-2125.896767,14013.80617,-4630.588547,-6298.185146,-6148.674327,33463.46718,-8766.220065,7865.154191,0.178,0.952,0.078,192,0,0,0,0,0,0,0,0,0,1.71E+09,0, 2024-03-05 16:06:21.252
3,-3032.260005,14104.04016,-5202.323818,-6687.060796,-6317.228832,32981.47416,-8719.728436,7922.531119,0.178,0.952,0.078,192,0,0,0,0,0,0,0,0,0,1.71E+09,0, 2024-03-05 16:06:21.252
4,-2200.372779,14137.14309,-5510.979058,-6777.630064,-6412.782539,32450.62023,-8726.478663,7913.255145,0.178,0.952,0.078,192,0,0,0,0,0,0,0,0,0,1.71E+09,0, 2024-03-05 16:06:21.252
5,-835.9105391,14072.18892,-5173.266551,-6477.423784,-6294.78768,32549.39259,-8776.41246,7845.730525,0.178,0.952,0.078,192,0,0,0,0,0,0,0,0,0,1.71E+09,0, 2024-03-05 16:06:21.252
6,-814.8998994,13990.96268,-4640.356259,-6197.356426,-6140.694754,33171.82161,-8800.172365,7820.115426,0.178,0.944,0.08,192,5,144,29,128,2,128,0,0,0,1.71E+09,0, 2024-03-05 16:06:21.252
7,-2101.354551,13996.9753,-4624.665335,-6297.827518,-6141.097086,33461.29906,-8777.664158,7854.090077,0.178,0.944,0.08,192,0,0,0,0,0,0,0,0,0,1.71E+09,0, 2024-03-05 16:06:21.252
8,-2991.021036,14080.28025,-5180.284998,-6680.332921,-6317.251184,33003.44592,-8730.881957,7918.351342,0.178,0.944,0.08,192,0,0,0,0,0,0,0,0,0,1.71E+09,0, 2024-03-05 16:06:21.252
9,-2176.322302,14117.25004,-5502.060712,-6780.871067,-6418.348124,32461.7961,-8734.905271,7910.148252,0.178,0.944,0.08,192,0,0,0,0,0,0,0,0,0,1.71E+09,0, 2024-03-05 16:06:21.252
10,-820.8901669,14060.49896,-5181.849621,-6489.806651,-6312.736131,32548.74439,-8787.051891,7843.182426,0.178,0.944,0.08,192,0,0,0,0,0,0,0,0,0,1.71E+09,0, 2024-03-05 16:06:21.252
11,-798.8960503,13987.11818,-4647.933501,-6206.788863,-6149.6131,33167.70889,-8806.743778,7818.282583,0.178,0.944,0.08,192,0,0,0,0,0,0,0,0,0,1.71E+09,0, 2024-03-05 16:06:21.252
12,-2119.951203,14004.6196,-4649.654585,-6326.616565,-6152.630586,33434.20874,-8765.683623,7866.987034,0.178,0.944,0.08,192,0,0,0,0,0,0,0,0,0,1.71E+09,0, 2024-03-05 16:06:21.252
13,-3042.228883,14086.94107,-5208.068217,-6704.115177,-6319.106378,32966.83377,-8720.890727,7918.239584,0.178,0.944,0.08,192,0,0,0,0,0,0,0,0,0,1.71E+09,0, 2024-03-05 16:06:21.252
14,-2207.659448,14117.22769,-5510.643782,-6784.223829,-6418.906917,32454.33062,-8736.604004,7904.560316,0.178,0.944,0.08,192,0,0,0,0,0,0,0,0,0,1.71E+09,0, 2024-03-05 16:06:21.252
15,-854.0601556,14067.24919,-5195.707702,-6498.099148,-6308.332838,32536.0486,-8777.507696,7853.888911,0.178,0.944,0.08,192,0,0,0,0,0,0,0,0,0,1.71E+09,0, 2024-03-05 16:06:21.252
16,-805.3557045,13995.38833,-4647.218245,-6206.140662,-6137.319641,33160.48928,-8799.032426,7826.083341,0.178,0.944,0.084,192,5,144,29,128,2,160,0,0,0,1.71E+09,0, 2024-03-05 16:06:21.252
17,-2100.907517,14007.74884,-4624.59828,-6309.249259,-6132.245795,33450.19024,-8767.449411,7864.014252,0.178,0.944,0.084,192,0,0,0,0,0,0,0,0,0,1.71E+09,0, 2024-03-05 16:06:21.252
18,-3028.549615,14092.3949,-5183.838926,-6690.257095,-6297.179317,32984.26813,-8716.867413,7925.995639,0.178,0.944,0.084,192,0,0,0,0,0,0,0,0,0,1.71E+09,0, 2024-03-05 16:06:21.252
19,-2220.355239,14127.37538,-5505.167604,-6784.983788,-6401.763129,32450.77669,-8727.685657,7914.931526,0.178,0.944,0.084,192,0,0,0,0,0,0,0,0,0,1.71E+09,0, 2024-03-05 16:06:21.252
20,-860.8774377,14069.39495,-5193.159603,-6495.841622,-6297.358131,32523.64338,-8775.719556,7849.195045,0.178,0.944,0.084,192,0,0,0,0,0,0,0,0,0,1.71E+09,0, 2024-03-05 16:06:21.252
21,-787.9213438,13992.4826,-4642.703193,-6199.435139,-6135.844426,33151.7274,-8799.591219,7820.182481,0.178,0.944,0.084,192,0,0,0,0,0,0,0,0,0,1.71E+09,0, 2024-03-05 16:06:21.252
22,-2073.124298,13999.41164,-4615.389361,-6297.760462,-6133.296327,33447.1057,-8772.143277,7855.230016,0.178,0.944,0.084,192,0,0,0,0,0,0,0,0,0,1.71E+09,0, 2024-03-05 16:06:21.252
23,-2985.276638,14073.30651,-5159.877856,-6675.817868,-6306.969381,33002.4401,-8732.625393,7903.509784,0.178,0.944,0.084,192,0,0,0,0,0,0,0,0,0,1.71E+09,0, 2024-03-05 16:06:21.252
24,-2203.054989,14124.08967,-5497.277438,-6786.302541,-6413.654257,32456.31992,-8730.904309,7906.66138,0.178,0.944,0.084,192,0,0,0,0,0,0,0,0,0,1.71E+09,0, 2024-03-05 16:06:21.252
25,-858.2175801,14074.08882,-5194.634818,-6501.988352,-6301.269686,32521.87759,-8772.478553,7847.764533,0.178,0.944,0.084,192,0,0,0,0,0,0,0,0,0,1.71E+09,0, 2024-03-05 16:06:21.252
26,-764.0496807,13986.84996,-4630.923823,-6195.210659,-6130.502359,33166.12192,-8805.1121,7808.89485,0.18,0.944,0.08,192,5,160,29,128,2,128,0,0,0,1.71E+09,0, 2024-03-05 16:06:21.252
27,-2044.9611,14002.42913,-4610.650791,-6296.419358,-6125.741437,33458.39333,-8770.735117,7852.07842,0.18,0.944,0.08,192,0,0,0,0,0,0,0,0,0,1.71E+09,0, 2024-03-05 16:06:21.252
28,-2978.995798,14090.58441,-5165.532847,-6678.298912,-6295.949971,33003.24476,-8725.942221,7911.310543,0.18,0.944,0.08,192,0,0,0,0,0,0,0,0,0,1.71E+09,0, 2024-03-05 16:06:21.252
29,-2225.965527,14141.23346,-5514.823558,-6790.974056,-6405.898202,32439.89139,-8727.32803,7914.059808,0.18,0.944,0.08,192,0,0,0,0,0,0,0,0,0,1.71E+09,0, 2024-03-05 16:06:21.252
30,-874.1320222,14087.23165,-5203.75433,-6498.345017,-6290.697311,32504.33147,-8773.998472,7855.92292,0.18,0.944,0.08,192,0,0,0,0,0,0,0,0,0,1.71E+09,0, 2024-03-05 16:06:21.252
31,-786.0885007,14000.14925,-4643.709021,-6196.819985,-6125.920251,33135.25416,-8800.932324,7824.474016,0.18,0.944,0.08,192,0,0,0,0,0,0,0,0,0,1.71E+09,0, 2024-03-05 16:06:21.252
32,-2055.108792,14004.5749,-4606.53807,-6293.1113,-6124.690905,33438.7685,-8772.545609,7858.515723,0.18,0.944,0.08,192,0,0,0,0,0,0,0,0,0,1.71E+09,0, 2024-03-05 16:06:21.252
33,-2994.306742,14084.30357,-5159.408469,-6676.35431,-6296.419358,32992.67238,-8726.925698,7913.053979,0.18,0.944,0.08,192,0,0,0,0,0,0,0,0,0,1.71E+09,0, 2024-03-05 16:06:21.252
34,-2239.667146,14130.52698,-5503.714741,-6790.102338,-6403.908897,32439.51141,-8729.339687,7909.142424,0.18,0.944,0.08,192,0,0,0,0,0,0,0,0,0,1.71E+09,0, 2024-03-05 16:06:21.252
35,-897.1096155,14082.62719,-5214.661981,-6514.348866,-6301.135576,32487.83588,-8772.590312,7850.893778,0.18,0.944,0.08,192,0,0,0,0,0,0,0,0,0,1.71E+09,0, 2024-03-05 16:06:21.252
36,-789.9553525,13996.52827,-4653.543789,-6205.872441,-6128.870681,33120.72553,-8800.686455,7816.695609,0.174,0.944,0.074,192,5,112,29,128,2,80,0,0,0,1.71E+09,0, 2024-03-05 16:06:21.252
37,-2039.864902,13994.89659,-4603.095901,-6290.250276,-6124.020353,33439.68492,-8779.497001,7843.651813,0.174,0.944,0.074,192,0,0,0,0,0,0,0,0,0,1.71E+09,0, 2024-03-05 16:06:21.252
38,-2962.321396,14070.19962,-5135.380344,-6664.194961,-6297.626352,33017.16989,-8740.068524,7888.064729,0.174,0.944,0.074,192,0,0,0,0,0,0,0,0,0,1.71E+09,0, 2024-03-05 16:06:21.252
39,-2220.846977,14122.79327,-5485.967456,-6788.314198,-6411.284973,32465.12651,-8735.66523,7899.642932,0.174,0.944,0.074,192,0,0,0,0,0,0,0,0,0,1.71E+09,0, 2024-03-05 16:06:21.253
40,-881.0387112,14079.31913,-5207.889403,-6516.740503,-6302.320218,32504.55499,-8772.031518,7850.066763,0.174,0.944,0.074,192,0,0,0,0,0,0,0,0,0,1.71E+09,0, 2024-03-05 16:06:21.253
41,-768.3635674,14004.55254,-4651.666242,-6209.225203,-6125.584975,33127.92279,-8791.231667,7825.211623,0.174,0.944,0.074,192,0,0,0,0,0,0,0,0,0,1.71E+09,0, 2024-03-05 16:06:21.253
42,-2040.110772,14009.02289,-4608.907355,-6298.028683,-6117.203071,33435.90748,-8765.974196,7856.034679,0.174,0.944,0.074,192,0,0,0,0,0,0,0,0,0,1.71E+09,0, 2024-03-05 16:06:21.253
43,-2997.99478,14087.18694,-5148.098486,-6673.470935,-6286.897515,33006.91044,-8723.304716,7907.93543,0.174,0.944,0.074,192,0,0,0,0,0,0,0,0,0,1.71E+09,0, 2024-03-05 16:06:21.253
44,-2247.847885,14125.6543,-5486.056863,-6779.418204,-6397.203374,32473.82134,-8731.083123,7899.106491,0.174,0.944,0.074,192,0,0,0,0,0,0,0,0,0,1.71E+09,0, 2024-03-05 16:06:21.253
45,-879.5858478,14074.53586,-5205.721284,-6507.755102,-6304.689503,32515.93203,-8773.730251,7849.731487,0.174,0.944,0.074,192,0,0,0,0,0,0,0,0,0,1.71E+09,0, 2024-03-05 16:06:21.253
46,-757.813544,13999.23283,-4658.863504,-6209.31461,-6130.323545,33124.05594,-8789.130603,7831.984202,0.178,0.948,0.076,192,5,144,29,160,2,96,0,0,0,1.71E+09,0, 2024-03-05 16:06:21.253
47,-2011.187614,13995.45538,-4595.943343,-6289.557372,-6113.358571,33447.48568,-8769.975158,7858.850999,0.178,0.948,0.076,192,0,0,0,0,0,0,0,0,0,1.71E+09,0, 2024-03-05 16:06:21.253
48,-2987.891792,14079.63205,-5141.683536,-6673.53799,-6288.283323,33013.83948,-8721.449521,7913.903345,0.178,0.948,0.076,192,0,0,0,0,0,0,0,0,0,1.71E+09,0, 2024-03-05 16:06:21.253
49,-2264.097603,14127.82241,-5495.399892,-6787.643646,-6398.991513,32466.15469,-8724.087027,7907.153119,0.178,0.948,0.076,192,0,0,0,0,0,0,0,0,0,1.71E+09,0, 2024-03-05 16:06:21.253
50,-906.4526446,14081.06256,-5230.352906,-6524.00482,-6301.4485,32489.33345,-8766.331824,7850.983185,0.178,0.948,0.076,192,0,0,0,0,0,0,0,0,0,1.71E+09,0, 2024-03-05 16:06:21.253
51,-738.7922095,13989.46512,-4660.830457,-6208.733464,-6127.507225,33120.3232,-8802.943981,7810.414769,0.178,0.948,0.076,192,0,0,0,0,0,0,0,0,0,1.71E+09,0, 2024-03-05 16:06:21.253
52,-1979.850469,13993.22021,-4595.093977,-6289.02093,-6116.599574,33449.67615,-8778.357062,7845.015269,0.178,0.948,0.076,192,0,0,0,0,0,0,0,0,0,1.71E+09,0, 2024-03-05 16:06:21.253
53,-2977.162954,14081.24138,-5141.370611,-6672.822734,-6282.427166,33013.95124,-8726.299849,7908.516575,0.178,0.948,0.076,192,0,0,0,0,0,0,0,0,0,1.71E+09,0, 2024-03-05 16:06:21.253
54,-2258.107335,14130.39286,-5488.157927,-6786.861335,-6395.549344,32469.17218,-8729.518501,7907.264877,0.178,0.948,0.076,192,0,0,0,0,0,0,0,0,0,1.71E+09,0, 2024-03-05 16:06:21.253
55,-913.940479,14087.254,-5237.103133,-6537.237053,-6307.483471,32468.8369,-8764.096649,7856.727583,0.178,0.948,0.076,192,0,0,0,0,0,0,0,0,0,1.71E+09,0, 2024-03-05 16:06:21.253
56,-751.3315381,13999.99279,-4676.36492,-6224.402037,-6134.793894,33084.33689,-8793.355083,7821.165958,0.184,0.942,0.08,192,5,192,29,112,2,128,0,0,0,1.71E+09,0, 2024-03-05 16:06:21.253
57,-1984.521983,13997.64585,-4594.713997,-6290.652608,-6113.291516,33428.33023,-8774.043175,7847.161036,0.184,0.942,0.08,192,0,0,0,0,0,0,0,0,0,1.71E+09,0, 2024-03-05 16:06:21.253
58,-2961.695547,14067.49506,-5118.124797,-6661.646862,-6289.2668,33029.70922,-8736.671059,7896.91602,0.184,0.942,0.08,192,0,0,0,0,0,0,0,0,0,1.71E+09,0, 2024-03-05 16:06:21.253
59,-2263.024719,14117.74178,-5477.898476,-6790.325855,-6401.584315,32472.90492,-8735.732285,7900.961685,0.184,0.942,0.08,192,0,0,0,0,0,0,0,0,0,1.71E+09,0, 2024-03-05 16:06:21.253
60,-885.1961357,14070.669,-5218.327668,-6530.218605,-6313.071407,32484.8631,-8782.402728,7840.120237,0.184,0.942,0.08,192,0,0,0,0,0,0,0,0,0,1.71E+09,0, 2024-03-05 16:06:21.253
61,-701.1965753,13993.37667,-4663.087983,-6220.356371,-6144.539254,33098.95493,-8807.682551,7808.224298,0.184,0.942,0.08,192,0,0,0,0,0,0,0,0,0,1.71E+09,0, 2024-03-05 16:06:21.253
62,-1968.316968,14005.55837,-4605.331076,-6303.348399,-6124.065056,33416.12618,-8770.042213,7849.418563,0.184,0.942,0.08,192,0,0,0,0,0,0,0,0,0,1.71E+09,0, 2024-03-05 16:06:21.253
63,-2996.117234,14085.37645,-5137.034373,-6679.30474,-6282.829497,32996.49453,-8721.248355,7911.802281,0.184,0.942,0.08,192,0,0,0,0,0,0,0,0,0,1.71E+09,0, 2024-03-05 16:06:21.253
64,-2303.257859,14124.87198,-5491.063653,-6799.892402,-6399.483252,32444.16057,-8728.400913,7904.001523,0.184,0.942,0.08,192,0,0,0,0,0,0,0,0,0,1.71E+09,0, 2024-03-05 16:06:21.253
65,-922.2329762,14073.57473,-5231.828121,-6538.935785,-6307.930506,32449.05561,-8770.958635,7845.775228,0.184,0.942,0.08,192,0,0,0,0,0,0,0,0,0,1.71E+09,0, 2024-03-05 16:06:21.253
66,-702.2918108,13984.99477,-4656.583626,-6215.550746,-6138.280766,33077.58666,-8804.441548,7805.586792,0.184,0.944,0.078,192,5,192,29,128,2,112,0,0,0,1.71E+09,0, 2024-03-05 16:06:21.253
67,-1949.429744,13990.94033,-4584.678064,-6290.987884,-6117.918327,33413.35457,-8772.836181,7844.657641,0.184,0.944,0.078,192,0,0,0,0,0,0,0,0,0,1.71E+09,0, 2024-03-05 16:06:21.253
68,-2978.280542,14078.04508,-5115.554347,-6667.324205,-6280.080233,32997.96975,-8722.522404,7910.282363,0.184,0.944,0.078,192,0,0,0,0,0,0,0,0,0,1.71E+09,0, 2024-03-05 16:06:21.253
69,-2288.505708,14121.38511,-5473.450479,-6791.711663,-6401.740778,32446.3734,-8732.446579,7901.27461,0.184,0.944,0.078,192,0,0,0,0,0,0,0,0,0,1.71E+09,0, 2024-03-05 16:06:21.253
70,-895.1203102,14070.26667,-5216.293659,-6534.443085,-6313.965477,32452.98951,-8778.692338,7843.49535,0.184,0.944,0.078,192,0,0,0,0,0,0,0,0,0,1.71E+09,0, 2024-03-05 16:06:21.253
71,-669.2559325,13988.10166,-4646.055954,-6213.382627,-6135.710315,33071.39523,-8806.117929,7808.939553,0.184,0.944,0.078,192,0,0,0,0,0,0,0,0,0,1.71E+09,0, 2024-03-05 16:06:21.253
72,-1918.629041,13994.78483,-4578.486631,-6288.283323,-6112.553908,33403.29628,-8775.428984,7848.479789,0.184,0.944,0.078,192,0,0,0,0,0,0,0,0,0,1.71E+09,0, 2024-03-05 16:06:21.253
73,-2969.339844,14082.00134,-5120.047047,-6671.61574,-6274.514648,32980.80361,-8714.587535,7918.19488,0.184,0.944,0.078,192,0,0,0,0,0,0,0,0,0,1.71E+09,0, 2024-03-05 16:06:21.253
74,-2286.248182,14120.46869,-5472.846982,-6787.82246,-6390.564905,32437.29859,-8728.445617,7900.201726,0.184,0.944,0.078,192,0,0,0,0,0,0,0,0,0,1.71E+09,0, 2024-03-05 16:06:21.253
75,-889.4206154,14072.07716,-5218.528833,-6535.560672,-6312.043227,32441.18779,-8779.497001,7834.174673,0.184,0.944,0.078,192,0,0,0,0,0,0,0,0,0,1.71E+09,0, 2024-03-05 16:06:21.733
76,-646.8594845,13988.61575,-4649.699289,-6209.985162,-6142.885225,33060.26406,-8811.929382,7795.528507,0.186,0.946,0.076,192,5,208,29,144,2,96,0,0,0,1.71E+09,0, 2024-03-05 16:06:21.733
77,-1872.204467,13990.67211,-4565.097936,-6274.604055,-6116.353704,33410.47119,-8782.268617,7837.527435,0.186,0.946,0.076,192,0,0,0,0,0,0,0,0,0,1.71E+09,0, 2024-03-05 16:06:21.733
78,-2938.807361,14083.05187,-5110.458149,-6665.401955,-6274.849924,32986.25743,-8720.510747,7911.578764,0.186,0.946,0.076,192,0,0,0,0,0,0,0,0,0,1.71E+09,0, 2024-03-05 16:06:21.733
79,-2292.551374,14122.92738,-5481.988845,-6801.099396,-6395.258772,32422.41233,-8731.127826,7898.234772,0.186,0.946,0.076,192,0,0,0,0,0,0,0,0,0,1.71E+09,0, 2024-03-05 16:06:21.733
80,-897.7354643,14068.92557,-5228.274194,-6546.580082,-6313.496091,32421.27239,-8779.74287,7834.509949,0.186,0.946,0.076,192,0,0,0,0,0,0,0,0,0,1.71E+09,0, 2024-03-05 16:06:21.733
81,-649.5640456,13977.21636,-4657.79062,-6226.458398,-6145.63449,33040.2816,-8812.577583,7798.00955,0.186,0.946,0.076,192,0,0,0,0,0,0,0,0,0,1.71E+09,0, 2024-03-05 16:06:21.733
82,-1876.674816,13978.401,-4573.882171,-6289.02093,-6120.555832,33390.66754,-8783.810888,7833.638231,0.186,0.946,0.076,192,0,0,0,0,0,0,0,0,0,1.71E+09,0, 2024-03-05 16:06:21.733
83,-2928.994945,14065.30459,-5104.557288,-6667.659481,-6284.170602,32991.44304,-8733.251242,7897.363054,0.186,0.946,0.076,192,0,0,0,0,0,0,0,0,0,1.71E+09,0, 2024-03-05 16:06:21.733
84,-2287.075196,14110.81274,-5475.439784,-6800.607658,-6400.757301,32434.52697,-8736.671059,7893.742072,0.186,0.946,0.076,192,0,0,0,0,0,0,0,0,0,1.71E+09,0, 2024-03-05 16:06:21.733
85,-918.3437727,14066.46688,-5242.601662,-6556.16898,-6319.486358,32414.4104,-8779.139373,7837.572138,0.186,0.946,0.076,192,0,0,0,0,0,0,0,0,0,1.71E+09,0, 2024-03-05 16:06:21.733
86,-669.7700226,13982.06669,-4673.213324,-6230.45936,-6148.339051,33027.47405,-8808.688379,7796.489632,0.186,0.944,0.08,192,5,208,29,128,2,128,0,0,0,1.71E+09,0, 2024-03-05 16:06:21.733
87,-1878.954694,13981.39614,-4569.300064,-6284.327064,-6123.72978,33393.30505,-8786.671911,7824.183443,0.186,0.944,0.08,192,0,0,0,0,0,0,0,0,0,1.71E+09,0, 2024-03-05 16:06:21.733
88,-2938.382678,14057.36972,-5092.643808,-6662.295063,-6290.42909,33001.43427,-8739.88971,7884.041415,0.186,0.944,0.08,192,0,0,0,0,0,0,0,0,0,1.71E+09,0, 2024-03-05 16:06:21.733
89,-2303.727246,14104.15192,-5467.102583,-6802.105224,-6408.111025,32444.62996,-8739.956765,7886.500107,0.186,0.944,0.08,192,0,0,0,0,0,0,0,0,0,1.71E+09,0, 2024-03-05 16:06:21.733
90,-944.5847207,14071.71954,-5252.324671,-6572.843382,-6325.230756,32400.73113,-8772.366795,7841.014307,0.186,0.944,0.08,192,0,0,0,0,0,0,0,0,0,1.71E+09,0, 2024-03-05 16:06:21.733
91,-688.18786,14000.08219,-4684.500955,-6242.261081,-6138.839559,32999.22144,-8796.238458,7809.721864,0.186,0.944,0.08,192,0,0,0,0,0,0,0,0,0,1.71E+09,0, 2024-03-05 16:06:21.733
92,-1901.887584,13994.29309,-4578.173706,-6288.417433,-6109.737588,33363.08549,-8773.886713,7835.560481,0.186,0.944,0.08,192,0,0,0,0,0,0,0,0,0,1.71E+09,0, 2024-03-05 16:06:21.733
93,-2982.505021,14073.28416,-5103.864384,-6667.994758,-6273.620578,32970.07477,-8725.696352,7895.329046,0.186,0.944,0.08,192,0,0,0,0,0,0,0,0,0,1.71E+09,0, 2024-03-05 16:06:21.733
94,-2344.116848,14112.15384,-5468.846019,-6796.964323,-6396.085786,32430.21309,-8741.633146,7881.80624,0.186,0.944,0.08,192,0,0,0,0,0,0,0,0,0,1.71E+09,0, 2024-03-05 16:06:21.733
95,-959.8733139,14071.51837,-5244.948595,-6558.493562,-6317.698219,32400.08293,-8777.775917,7838.041525,0.186,0.944,0.08,192,0,0,0,0,0,0,0,0,0,1.71E+09,0, 2024-03-05 16:06:21.733
96,-655.0849265,13981.88787,-4656.091887,-6217.5177,-6137.900786,33027.51875,-8812.331714,7798.38953,0.184,0.942,0.08,192,5,192,29,112,2,128,0,0,0,1.71E+09,0, 2024-03-05 16:06:21.733
97,-1872.249171,13981.66436,-4564.159163,-6279.163811,-6113.671495,33389.57231,-8787.342463,7829.100827,0.184,0.942,0.08,192,0,0,0,0,0,0,0,0,0,1.71E+09,0, 2024-03-05 16:06:21.733
98,-2946.764582,14065.93043,-5087.011169,-6656.662423,-6277.956817,33008.02803,-8741.476684,7888.400005,0.184,0.942,0.08,192,0,0,0,0,0,0,0,0,0,1.71E+09,0, 2024-03-05 16:06:21.733
99,-2337.99247,14112.73499,-5467.348452,-6798.685407,-6398.745644,32456.94577,-8748.428076,7881.336854,0.184,0.942,0.08,192,0,0,0,0,0,0,0,0,0,1.71E+09,0, 2024-03-05 16:06:21.733
100,-925.2057582,14054.97808,-5226.150778,-6551.698631,-6324.962535,32445.70284,-8802.385187,7813.946344,0.184,0.942,0.08,192,0,0,0,0,0,0,0,0,0,1.71E+09,0, 2024-03-05 16:06:21.733
101,-624.9324232,13973.99771,-4658.215303,-6228.358296,-6151.267129,33051.94921,-8821.317115,7786.900733,0.184,0.942,0.08,192,0,0,0,0,0,0,0,0,0,1.71E+09,0, 2024-03-05 16:06:21.733
102,-1847.304624,13988.45929,-4566.595503,-6285.69052,-6112.06217,33405.97849,-8784.34733,7833.191196,0.184,0.942,0.08,192,0,0,0,0,0,0,0,0,0,1.71E+09,0, 2024-03-05 16:06:21.733
103,-2932.861797,14069.70788,-5083.546648,-6657.601196,-6269.306692,33025.14947,-8738.906233,7889.227019,0.184,0.942,0.08,192,0,0,0,0,0,0,0,0,0,1.71E+09,0, 2024-03-05 16:06:21.733
104,-2341.278176,14110.27629,-5467.661377,-6807.55905,-6399.08092,32463.31602,-8746.438771,7882.476793,0.184,0.942,0.08,192,0,0,0,0,0,0,0,0,0,1.71E+09,0, 2024-03-05 16:06:21.733
105,-975.698349,14077.82156,-5266.607436,-6584.421585,-6324.113169,32404.62034,-8779.675815,7836.208682,0.184,0.942,0.08,192,0,0,0,0,0,0,0,0,0,1.71E+09,0, 2024-03-05 16:06:21.733
106,-674.3968337,13995.94712,-4692.614638,-6249.435991,-6140.582995,33002.17187,-8809.671856,7798.702454,0.184,0.944,0.082,192,5,192,29,128,2,144,0,0,0,1.71E+09,0, 2024-03-05 16:06:21.733
107,-1853.741926,13983.38544,-4562.46043,-6279.208515,-6105.53546,33388.76765,-8796.797251,7825.323382,0.184,0.944,0.082,192,0,0,0,0,0,0,0,0,0,1.71E+09,0, 2024-03-05 16:06:21.733
108,-2956.062908,14069.14909,-5085.155974,-6658.517618,-6267.406794,33010.8667,-8737.386315,7896.714854,0.184,0.944,0.082,192,0,0,0,0,0,0,0,0,0,1.71E+09,0, 2024-03-05 16:06:21.733
109,-2385.691093,14125.56489,-5478.881953,-6805.748559,-6383.255885,32443.87,-8734.972326,7895.776081,0.184,0.944,0.082,192,0,0,0,0,0,0,0,0,0,1.71E+09,0, 2024-03-05 16:06:21.733
110,-992.7750817,14081.12962,-5265.333386,-6570.339986,-6314.613678,32404.24036,-8780.63694,7835.135798,0.184,0.944,0.082,192,0,0,0,0,0,0,0,0,0,1.71E+09,0, 2024-03-05 16:06:21.733
111,-658.6612056,13987.92285,-4678.622446,-6229.989973,-6136.559681,33019.71799,-8815.61742,7793.338036,0.184,0.944,0.082,192,0,0,0,0,0,0,0,0,0,1.71E+09,0, 2024-03-05 16:06:21.733
112,-1824.863473,13974.48945,-4543.349688,-6266.065689,-6106.317771,33416.305,-8800.932324,7814.505138,0.184,0.944,0.082,192,0,0,0,0,0,0,0,0,0,1.71E+09,0, 2024-03-05 16:06:21.733
113,-2919.294288,14053.01113,-5052.678889,-6641.999679,-6261.818857,33052.77622,-8751.244396,7872.351452,0.184,0.944,0.082,192,0,0,0,0,0,0,0,0,0,1.71E+09,0, 2024-03-05 16:06:21.733
114,-2366.513296,14116.89241,-5463.593359,-6807.849623,-6386.943923,32473.64252,-8739.956765,7883.259104,0.184,0.944,0.082,192,0,0,0,0,0,0,0,0,0,1.71E+09,0, 2024-03-05 16:06:21.733
115,-994.0714829,14079.87792,-5267.523857,-6579.99594,-6308.444596,32410.72236,-8778.759394,7826.217452,0.184,0.944,0.082,192,0,0,0,0,0,0,0,0,0,1.71E+09,0, 2024-03-05 16:06:21.733
116,-643.7525921,13985.55356,-4677.683673,-6233.968584,-6130.52471,33022.98135,-8816.667952,7780.463431,0.178,0.94,0.084,192,5,144,29,96,2,160,0,0,0,1.71E+09,0, 2024-03-05 16:06:21.733
117,-1839.861493,13983.98894,-4557.788915,-6278.068576,-6093.689036,33398.53536,-8790.516411,7811.510004,0.178,0.94,0.084,192,0,0,0,0,0,0,0,0,0,1.71E+09,0, 2024-03-05 16:06:21.733
118,-2934.024088,14056.36389,-5056.881017,-6646.000641,-6255.046279,33044.30491,-8746.818751,7868.529304,0.178,0.94,0.084,192,0,0,0,0,0,0,0,0,0,1.71E+09,0, 2024-03-05 16:06:21.733
119,-2379.320846,14110.61157,-5454.429144,-6802.954591,-6375.857458,32476.39179,-8745.365887,7874.005481,0.178,0.94,0.084,192,0,0,0,0,0,0,0,0,0,1.71E+09,0, 2024-03-05 16:06:21.733
120,-1000.374675,14081.91193,-5261.377127,-6581.515858,-6300.93441,32413.78455,-8783.58737,7824.474016,0.178,0.94,0.084,192,0,0,0,0,0,0,0,0,0,1.71E+09,0, 2024-03-05 16:06:21.733
121,-638.0305455,13995.0754,-4673.347434,-6233.901529,-6115.683152,33025.44004,-8818.143167,7780.217562,0.178,0.94,0.084,192,0,0,0,0,0,0,0,0,0,1.71E+09,0, 2024-03-05 16:06:21.733
122,-1825.511673,13986.51469,-4551.038689,-6274.827573,-6081.552038,33409.17479,-8795.567905,7810.727693,0.178,0.94,0.084,192,0,0,0,0,0,0,0,0,0,1.71E+09,0, 2024-03-05 16:06:21.733
123,-2933.532349,14055.17924,-5055.204636,-6644.033688,-6238.885968,33051.83745,-8751.579672,7865.869447,0.178,0.94,0.084,192,0,0,0,0,0,0,0,0,0,1.71E+09,0, 2024-03-05 16:06:21.733
124,-2362.735851,14096.26175,-5434.089057,-6787.57659,-6372.281179,32505.67257,-8763.359042,7854.805333,0.178,0.94,0.084,192,0,0,0,0,0,0,0,0,0,1.71E+09,0, 2024-03-05 16:06:21.733
125,-966.1988576,14064.34346,-5244.546264,-6573.893913,-6314.658381,32436.73979,-8803.368664,7805.765606,0.178,0.94,0.084,192,0,0,0,0,0,0,0,0,0,1.71E+09,0, 2024-03-05 16:06:21.733
126,-598.8926409,13982.13374,-4671.179315,-6240.137665,-6130.100027,33032.90552,-8831.598917,7764.95132,0.178,0.94,0.084,192,0,0,0,0,0,0,0,0,0,1.71E+09,0, 2024-03-05 16:06:21.733
127,-1779.020045,13973.28245,-4542.701488,-6275.766346,-6086.089443,33421.78117,-8810.185946,7788.420652,0.182,0.938,0.086,192,5,176,29,80,2,176,0,0,0,1.71E+09,0, 2024-03-05 16:06:21.733
128,-2891.220497,14045.07626,-5036.831503,-6641.619699,-6243.91511,33077.05022,-8767.829391,7843.763571,0.182,0.938,0.086,192,0,0,0,0,0,0,0,0,0,1.71E+09,0, 2024-03-05 16:06:21.733
129,-2369.486078,14104.21897,-5448.617691,-6806.888498,-6374.382242,32502.7445,-8758.396954,7856.057031,0.182,0.938,0.086,192,0,0,0,0,0,0,0,0,0,1.71E+09,0, 2024-03-05 16:06:21.733
130,-999.659419,14066.15395,-5274.877581,-6598.257315,-6309.316314,32412.62226,-8794.070338,7804.804481,0.182,0.938,0.086,192,0,0,0,0,0,0,0,0,0,1.71E+09,0, 2024-03-05 16:06:21.733
131,-622.0713999,13976.4117,-4695.922696,-6257.057936,-6128.60246,33006.95515,-8825.206319,7765.733631,0.182,0.938,0.086,192,0,0,0,0,0,0,0,0,0,1.71E+09,0, 2024-03-05 16:06:21.733
132,-1806.490339,13973.93065,-4557.788915,-6286.539887,-6079.495678,33397.61894,-8801.759339,7798.098957,0.182,0.938,0.086,192,0,0,0,0,0,0,0,0,0,1.71E+09,0, 2024-03-05 16:06:21.733
133,-2927.720896,14044.58452,-5045.280462,-6647.162932,-6233.119218,33061.71692,-8755.871207,7855.140609,0.182,0.938,0.086,192,0,0,0,0,0,0,0,0,0,1.71E+09,0, 2024-03-05 16:06:21.733
134,-2395.481157,14092.61842,-5444.929653,-6807.402588,-6366.156801,32499.6376,-8757.56994,7852.011365,0.182,0.938,0.086,192,0,0,0,0,0,0,0,0,0,1.71E+09,0, 2024-03-05 16:06:21.733
135,-1018.323126,14058.10732,-5278.230343,-6604.940487,-6311.149157,32402.67574,-8793.042158,7800.289428,0.182,0.938,0.086,192,0,0,0,0,0,0,0,0,0,1.71E+09,0, 2024-03-05 16:06:21.733
136,-619.5456528,13975.8529,-4692.726397,-6253.816933,-6128.110722,32997.05332,-8828.447321,7759.765716,0.182,0.938,0.086,192,0,0,0,0,0,0,0,0,0,1.71E+09,0, 2024-03-05 16:06:21.733
137,-1775.108489,13968.99092,-4541.226273,-6276.012215,-6083.206067,33401.46344,-8805.045045,7791.661655,0.174,0.942,0.09,192,5,112,29,112,2,208,0,0,0,1.71E+09,0, 2024-03-05 16:06:21.733
138,-2928.637317,14049.25603,-5043.917006,-6650.47099,-6236.092,33049.19994,-8750.90912,7854.492409,0.174,0.942,0.09,192,0,0,0,0,0,0,0,0,0,1.71E+09,0, 2024-03-05 16:06:21.733
139,-2415.977706,14103.19079,-5445.354336,-6811.336495,-6358.490152,32480.90684,-8750.663251,7855.587644,0.174,0.942,0.09,192,0,0,0,0,0,0,0,0,0,1.71E+09,0, 2024-03-05 16:06:21.733
140,-1031.018916,14064.54463,-5274.005863,-6603.040588,-6302.655495,32387.67772,-8793.265676,7801.563478,0.174,0.942,0.09,192,0,0,0,0,0,0,0,0,0,1.71E+09,0, 2024-03-05 16:06:21.733
141,-603.6312108,13973.2154,-4682.042263,-6250.531226,-6126.076713,32989.0961,-8835.018734,7753.663689,0.174,0.942,0.09,192,0,0,0,0,0,0,0,0,0,1.71E+09,0, 2024-03-05 16:06:21.733
142,-1775.264952,13974.02006,-4547.484761,-6284.237657,-6083.854268,33380.60926,-8804.106272,7788.510059,0.174,0.942,0.09,192,0,0,0,0,0,0,0,0,0,1.71E+09,0, 2024-03-05 16:06:21.733
143,-2928.905538,14050.57479,-5044.274633,-6653.019089,-6238.461284,33042.2262,-8758.061678,7847.630423,0.174,0.942,0.09,192,0,0,0,0,0,0,0,0,0,1.71E+09,0, 2024-03-05 16:06:21.733
144,-2428.695849,14105.64948,-5449.712926,-6811.560012,-6370.135411,32481.17506,-8761.012108,7849.463266,0.174,0.942,0.09,192,0,0,0,0,0,0,0,0,0,1.71E+09,0, 2024-03-05 16:06:21.733
145,-1030.840103,14069.59612,-5276.598665,-6598.100853,-6313.36198,32395.52318,-8799.166536,7800.222373,0.174,0.942,0.09,192,0,0,0,0,0,0,0,0,0,1.71E+09,0, 2024-03-05 16:06:21.733
146,-597.0374461,13978.3563,-4689.239525,-6249.100715,-6132.17874,32994.77345,-8834.795217,7756.792934,0.174,0.942,0.09,192,0,0,0,0,0,0,0,0,0,1.71E+09,0, 2024-03-05 16:06:21.733
147,-1760.803373,13969.70617,-4548.401183,-6280.527268,-6083.139012,33394.04266,-8808.800138,7781.08928,0.176,0.942,0.088,192,5,128,29,112,2,192,0,0,0,1.71E+09,0, 2024-03-05 16:06:21.733
148,-2922.177663,14047.602,-5045.034593,-6653.019089,-6240.696459,33055.41373,-8756.362946,7847.228092,0.176,0.942,0.088,192,0,0,0,0,0,0,0,0,0,1.71E+09,0, 2024-03-05 16:06:21.733
149,-2452.746326,14113.09261,-5463.906284,-6818.824329,-6369.800135,32481.53269,-8751.847893,7852.525455,0.176,0.942,0.088,192,0,0,0,0,0,0,0,0,0,1.71E+09,0, 2024-03-05 16:06:21.733
150,-1043.468838,14071.2725,-5281.247828,-6598.056149,-6309.092797,32399.90412,-8798.473632,7791.952228,0.176,0.942,0.088,192,0,0,0,0,0,0,0,0,0,1.71E+09,0, 2024-03-05 16:06:21.733
151,-578.6643122,13982.04434,-4681.036434,-6237.410752,-6124.959126,33005.54699,-8836.181025,7745.527654,0.176,0.942,0.088,192,0,0,0,0,0,0,0,0,0,1.71E+09,0, 2024-03-05 16:06:21.733
152,-1726.024059,13968.7227,-4533.179645,-6267.853828,-6078.825126,33411.11939,-8813.18108,7772.819134,0.176,0.942,0.088,192,0,0,0,0,0,0,0,0,0,1.71E+09,0, 2024-03-05 16:06:21.733
153,-2906.196166,14046.32795,-5033.501093,-6644.614833,-6231.375781,33068.15422,-8753.703088,7843.741219,0.176,0.942,0.088,192,0,0,0,0,0,0,0,0,0,1.71E+09,0, 2024-03-05 16:06:21.733
154,-2432.205073,14093.6466,-5440.079324,-6809.146024,-6363.027556,32506.72311,-8760.475667,7840.388458,0.176,0.942,0.088,192,0,0,0,0,0,0,0,0,0,1.71E+09,0, 2024-03-05 16:06:21.733
155,-1045.078164,14060.52131,-5286.992226,-6613.411798,-6313.36198,32391.87984,-8795.970237,7791.684007,0.176,0.942,0.088,192,0,0,0,0,0,0,0,0,0,1.71E+09,0, 2024-03-05 16:06:21.733
156,-600.6137253,13974.98119,-4707.724417,-6265.506895,-6129.943565,32970.18653,-8825.161615,7754.110724,0.176,0.942,0.088,192,0,0,0,0,0,0,0,0,0,1.71E+09,0, 2024-03-05 16:06:21.733
157,-1718.022134,13955.57987,-4533.090238,-6269.910189,-6081.350873,33405.55381,-8817.271449,7771.254512,0.178,0.942,0.084,192,5,144,29,112,2,160,0,0,0,1.71E+09,0, 2024-03-05 16:06:21.733
158,-2897.724855,14033.5204,-5024.672154,-6644.100743,-6237.298994,33071.55169,-8763.359042,7838.063876,0.178,0.942,0.084,192,0,0,0,0,0,0,0,0,0,1.71E+09,0, 2024-03-05 16:06:21.733
159,-2449.661785,14095.18887,-5445.086115,-6818.243184,-6366.134449,32491.38981,-8758.173437,7843.763571,0.178,0.942,0.084,192,0,0,0,0,0,0,0,0,0,1.71E+09,0, 2024-03-05 16:06:21.733
160,-1090.00517,14072.07716,-5307.01939,-6628.543929,-6311.395027,32356.40763,-8787.007187,7801.764643,0.178,0.942,0.084,192,0,0,0,0,0,0,0,0,0,1.71E+09,0, 2024-03-05 16:06:21.733
161,-602.7147892,13974.75767,-4698.53785,-6256.454439,-6118.879452,32964.37507,-8828.469673,7750.802666,0.178,0.942,0.084,192,0,0,0,0,0,0,0,0,0,1.71E+09,0, 2024-03-05 16:06:21.733
162,-1707.606221,13949.90253,-4518.941584,-6267.965587,-6073.572466,33404.168,-8817.003228,7768.706413,0.178,0.942,0.084,192,0,0,0,0,0,0,0,0,0,1.71E+09,0, 2024-03-05 16:06:21.733
163,-2893.120395,14028.15599,-5005.695523,-6640.837388,-6229.386476,33086.01327,-8761.995585,7837.773304,0.178,0.942,0.084,192,0,0,0,0,0,0,0,0,0,1.71E+09,0, 2024-03-05 16:06:21.733
164,-2452.969844,14087.00813,-5425.528339,-6817.147948,-6358.870132,32511.97577,-8758.709879,7840.343754,0.178,0.942,0.084,192,0,0,0,0,0,0,0,0,0,1.71E+09,0, 2024-03-05 16:06:21.733
165,-1069.575676,14059.26961,-5285.025273,-6625.884071,-6307.103492,32384.97315,-8792.058681,7793.628608,0.178,0.942,0.084,192,0,0,0,0,0,0,0,0,0,1.71E+09,0, 2024-03-05 16:06:21.733
166,-566.437908,13964.45351,-4689.172469,-6261.058898,-6125.272051,32981.3177,-8837.902109,7741.951375,0.178,0.942,0.084,192,0,0,0,0,0,0,0,0,0,1.71E+09,0, 2024-03-05 16:06:21.734
167,-1697.793805,13956.94333,-4533.2467,-6284.505878,-6080.769727,33393.50622,-8813.628115,7773.690852,0.182,0.946,0.082,192,5,176,29,144,2,144,0,0,0,1.71E+09,0, 2024-03-05 16:06:21.734
168,-2899.356532,14037.99075,-5014.591517,-6652.125019,-6223.887947,33075.06091,-8758.508713,7840.276699,0.182,0.946,0.082,192,0,0,0,0,0,0,0,0,0,1.71E+09,0, 2024-03-05 16:06:21.734
169,-2481.200097,14099.72627,-5440.66047,-6826.535681,-6357.484324,32499.30233,-8753.881902,7846.803408,0.182,0.946,0.082,192,0,0,0,0,0,0,0,0,0,1.71E+09,0, 2024-03-05 16:06:21.734
170,-1096.934211,14067.56211,-5301.364398,-6631.203786,-6307.528175,32369.97513,-8788.571809,7795.752024,0.182,0.946,0.082,192,0,0,0,0,0,0,0,0,0,1.71E+09,0, 2024-03-05 16:06:21.734
171,-588.5437833,13976.74697,-4705.913926,-6268.591436,-6121.67342,32953.758,-8824.111083,7747.695774,0.182,0.946,0.082,192,0,0,0,0,0,0,0,0,0,1.71E+09,0, 2024-03-05 16:06:21.734
172,-1705.035771,13963.38063,-4532.889072,-6276.615712,-6067.73866,33377.59177,-8803.748644,7771.545085,0.182,0.946,0.082,192,0,0,0,0,0,0,0,0,0,1.71E+09,0, 2024-03-05 16:06:21.734
173,-2895.221459,14033.25218,-5002.856851,-6634.869472,-6222.457435,33078.7266,-8758.508713,7834.577004,0.182,0.946,0.082,192,0,0,0,0,0,0,0,0,0,1.71E+09,0, 2024-03-05 16:06:21.734
174,-2482.675312,14096.10529,-5427.539996,-6813.728132,-6355.182094,32509.80765,-8753.188998,7839.025001,0.182,0.946,0.082,192,0,0,0,0,0,0,0,0,0,1.71E+09,0, 2024-03-05 16:06:21.734
175,-1092.128586,14058.88963,-5292.535459,-6630.063847,-6307.572878,32375.11604,-8791.209315,7787.37012,0.182,0.946,0.082,192,0,0,0,0,0,0,0,0,0,1.71E+09,0, 2024-03-05 16:06:21.734
176,-581.5029837,13972.72366,-4708.216156,-6277.062747,-6123.953298,32943.65501,-8828.447321,7741.929023,0.182,0.946,0.082,192,0,0,0,0,0,0,0,0,0,1.71E+09,0, 2024-03-05 16:06:21.734
177,-1668.37891,13950.46132,-4514.851214,-6273.218247,-6071.381995,33393.39446,-8821.987667,7755.407125,0.182,0.948,0.082,192,5,176,29,160,2,144,0,0,0,1.71E+09,0, 2024-03-05 16:06:21.734
178,-2866.879447,14027.46308,-4980.840383,-6633.662478,-6218.657639,33101.72654,-8767.784687,7823.691705,0.182,0.948,0.082,192,0,0,0,0,0,0,0,0,0,1.71E+09,0, 2024-03-05 16:06:21.734
179,-2488.062082,14094.58537,-5422.510853,-6826.468626,-6354.288024,32517.5637,-8753.144294,7840.67903,0.182,0.948,0.082,192,0,0,0,0,0,0,0,0,0,1.71E+09,0, 2024-03-05 16:06:21.734
180,-1126.505569,14071.00428,-5306.885279,-6648.146409,-6306.030608,32360.87797,-8787.81185,7792.265152,0.182,0.948,0.082,192,0,0,0,0,0,0,0,0,0,1.71E+09,0, 2024-03-05 16:06:21.734
181,-566.8849429,13969.77323,-4700.214231,-6269.820782,-6121.248737,32956.17198,-8837.857406,7735.625832,0.182,0.948,0.082,192,0,0,0,0,0,0,0,0,0,1.71E+09,0, 2024-03-05 16:06:21.734
182,-1633.219616,13953.83644,-4503.630639,-6263.6517,-6075.025329,33407.07373,-8828.357914,7752.680213,0.182,0.948,0.082,192,0,0,0,0,0,0,0,0,0,1.71E+09,0, 2024-03-05 16:06:21.734
183,-2845.689994,14031.19582,-4973.24079,-6627.5381,-6226.078418,33112.32127,-8772.366795,7819.824853,0.182,0.948,0.082,192,0,0,0,0,0,0,0,0,0,1.71E+09,0, 2024-03-05 16:06:21.734
184,-2481.960056,14092.28314,-5419.336905,-6825.418094,-6361.79821,32523.08458,-8761.459143,7829.972545,0.182,0.948,0.082,192,0,0,0,0,0,0,0,0,0,1.71E+09,0, 2024-03-05 16:06:21.734
185,-1145.661014,14079.69911,-5326.443055,-6660.998662,-6319.240489,32341.25314,-8781.083975,7797.540164,0.182,0.948,0.082,192,0,0,0,0,0,0,0,0,0,1.71E+09,0, 2024-03-05 16:06:21.734
186,-593.1258909,13985.3971,-4726.052848,-6280.326102,-6124.355629,32923.7396,-8823.552289,7745.639413,0.182,0.948,0.082,192,0,0,0,0,0,0,0,0,0,1.71E+09,0, 2024-03-05 16:06:21.734
187,-1666.054328,13960.98899,-4524.797741,-6269.261988,-6063.715346,33380.09517,-8810.163595,7763.520809,0.178,0.942,0.082,192,5,144,29,112,2,144,0,0,0,1.71E+09,0, 2024-03-05 16:06:21.734
188,-2867.214723,14025.40672,-4970.93856,-6619.446769,-6212.488557,33114.51174,-8766.15301,7821.724751,0.178,0.942,0.082,192,0,0,0,0,0,0,0,0,0,1.71E+09,0, 2024-03-05 16:06:21.734
189,-2511.933745,14096.97701,-5420.633307,-6820.388951,-6354.265672,32526.97379,-8749.50096,7835.135798,0.178,0.942,0.082,192,0,0,0,0,0,0,0,0,0,1.71E+09,0, 2024-03-05 16:06:21.734
190,-1139.089601,14064.34346,-5312.741436,-6644.771295,-6312.71378,32371.56211,-8787.387167,7784.196172,0.178,0.942,0.082,192,0,0,0,0,0,0,0,0,0,1.71E+09,0, 2024-03-05 16:06:21.734
191,-566.7508324,13969.86264,-4712.954725,-6275.028738,-6127.283708,32953.26626,-8833.208243,7734.508244,0.178,0.942,0.082,192,0,0,0,0,0,0,0,0,0,1.71E+09,0, 2024-03-05 16:06:21.734
192,-1645.289558,13953.76938,-4518.405142,-6274.715814,-6068.990358,33396.21078,-8816.064455,7760.570378,0.178,0.942,0.082,192,0,0,0,0,0,0,0,0,0,1.71E+09,0, 2024-03-05 16:06:21.734
193,-2877.496526,14029.36298,-4980.907438,-6631.360248,-6213.315572,33113.10358,-8760.408611,7826.843301,0.178,0.942,0.082,192,0,0,0,0,0,0,0,0,0,1.71E+09,0, 2024-03-05 16:06:21.734
194,-2512.358429,14080.23555,-5415.626516,-6820.277193,-6355.00328,32546.88919,-8762.152047,7826.664487,0.178,0.942,0.082,192,0,0,0,0,0,0,0,0,0,1.71E+09,0, 2024-03-05 16:06:21.734
195,-1131.26649,14056.25213,-5310.841538,-6650.739211,-6318.949916,32387.11892,-8796.573734,7782.363329,0.178,0.942,0.082,192,0,0,0,0,0,0,0,0,0,1.71E+09,0, 2024-03-05 16:06:22.214
196,-561.0064341,13974.33299,-4721.560147,-6281.980131,-6131.709353,32957.24487,-8832.135359,7737.346916,0.178,0.942,0.082,192,0,0,0,0,0,0,0,0,0,1.71E+09,0, 2024-03-05 16:06:22.214
197,-1616.791083,13949.90253,-4512.526633,-6265.529247,-6071.359643,33414.96389,-8820.020714,7752.613157,0.178,0.94,0.082,192,5,144,29,96,2,144,0,0,0,1.71E+09,0, 2024-03-05 16:06:22.214
198,-2827.763895,14013.89557,-4961.751993,-6621.793702,-6220.870462,33149.60398,-8774.87019,7807.732559,0.178,0.94,0.082,192,0,0,0,0,0,0,0,0,0,1.71E+09,0, 2024-03-05 16:06:22.214
199,-2506.010533,14085.06353,-5424.187234,-6834.71642,-6359.764202,32554.86876,-8758.754582,7823.088208,0.178,0.94,0.082,192,0,0,0,0,0,0,0,0,0,1.71E+09,0, 2024-03-05 16:06:22.214
200,-1146.622139,14063.96348,-5323.984364,-6667.324205,-6313.674905,32380.88279,-8792.081033,7779.122326,0.178,0.94,0.082,192,0,0,0,0,0,0,0,0,0,1.71E+09,0, 2024-03-05 16:06:22.214
201,-562.3475388,13977.39517,-4725.784627,-6290.876125,-6124.355629,32953.42272,-8827.821473,7731.781332,0.178,0.94,0.082,192,0,0,0,0,0,0,0,0,0,1.71E+09,0, 2024-03-05 16:06:22.214
202,-1604.922307,13957.16685,-4509.732665,-6266.848,-6061.167247,33416.21559,-8813.829281,7747.315794,0.178,0.94,0.082,192,0,0,0,0,0,0,0,0,0,1.71E+09,0, 2024-03-05 16:06:22.214
203,-2814.12933,14018.41063,-4952.520722,-6615.602269,-6211.996819,33162.7021,-8768.499943,7809.096016,0.178,0.94,0.082,192,0,0,0,0,0,0,0,0,0,1.71E+09,0, 2024-03-05 16:06:22.214
204,-2503.373027,14083.4542,-5413.614859,-6824.702838,-6356.746716,32574.35949,-8762.420268,7818.975487,0.178,0.94,0.082,192,0,0,0,0,0,0,0,0,0,1.71E+09,0, 2024-03-05 16:06:22.214
205,-1140.698927,14063.31528,-5320.09516,-6662.652691,-6320.134559,32394.91968,-8795.254981,7774.584922,0.178,0.94,0.082,192,0,0,0,0,0,0,0,0,0,1.71E+09,0, 2024-03-05 16:06:22.214
206,-544.6673089,13975.40587,-4727.662173,-6288.305675,-6133.743362,32963.74923,-8832.984726,7728.070942,0.178,0.94,0.082,192,0,0,0,0,0,0,0,0,0,1.71E+09,0, 2024-03-05 16:06:22.214
207,-1606.218708,13963.60415,-4525.244775,-6275.408718,-6076.567599,33414.33804,-8813.04697,7757.463486,0.178,0.942,0.082,192,5,144,29,112,2,144,0,0,0,1.71E+09,0, 2024-03-05 16:06:22.214
208,-2847.522837,14032.51458,-4969.239827,-6622.531309,-6211.415674,33150.4757,-8761.481495,7816.44974,0.178,0.942,0.082,192,0,0,0,0,0,0,0,0,0,1.71E+09,0, 2024-03-05 16:06:22.214
209,-2530.798618,14087.14224,-5414.732446,-6826.178053,-6353.528065,32579.58979,-8756.340594,7824.317554,0.178,0.942,0.082,192,0,0,0,0,0,0,0,0,0,1.71E+09,0, 2024-03-05 16:06:22.214
210,-1183.457814,14073.70884,-5337.417762,-6672.688624,-6320.782759,32386.94011,-8783.408556,7791.885172,0.178,0.942,0.082,192,0,0,0,0,0,0,0,0,0,1.71E+09,0, 2024-03-05 16:06:22.214
211,-548.9811956,13974.5565,-4726.186958,-6282.494221,-6132.558719,32972.22054,-8834.974031,7729.45675,0.178,0.942,0.082,192,0,0,0,0,0,0,0,0,0,1.71E+09,0, 2024-03-05 16:06:22.214
212,-1603.089464,13957.59153,-4518.248679,-6273.374709,-6070.823201,33425.42451,-8812.599935,7756.792934,0.178,0.942,0.082,192,0,0,0,0,0,0,0,0,0,1.71E+09,0, 2024-03-05 16:06:22.214
213,-2852.462572,14024.82558,-4961.573179,-6624.20769,-6210.096921,33162.16566,-8761.995585,7820.026019,0.178,0.942,0.082,192,0,0,0,0,0,0,0,0,0,1.71E+09,0, 2024-03-05 16:06:22.214
214,-2563.11924,14090.495,-5421.214452,-6832.324783,-6356.03146,32570.20206,-8754.127771,7827.804426,0.178,0.942,0.082,192,0,0,0,0,0,0,0,0,0,1.71E+09,0, 2024-03-05 16:06:22.214
215,-1182.474337,14066.48923,-5324.610212,-6661.535104,-6317.608812,32391.00813,-8794.651484,7775.121364,0.178,0.942,0.082,192,0,0,0,0,0,0,0,0,0,1.71E+09,0, 2024-03-05 16:06:22.214
216,-518.0910847,13969.92969,-4712.731208,-6280.259047,-6138.481932,32971.92996,-8844.272357,7716.89507,0.178,0.942,0.082,192,0,0,0,0,0,0,0,0,0,1.71E+09,0, 2024-03-05 16:06:22.214
217,-1569.405385,13956.38453,-4507.184566,-6272.033605,-6075.897047,33424.88807,-8815.729179,7749.305099,0.18,0.942,0.078,192,5,160,29,112,2,112,0,0,0,1.71E+09,0, 2024-03-05 16:06:22.214
218,-2824.63465,14018.88001,-4944.384687,-6618.239774,-6218.1659,33178.34832,-8772.232684,7804.849184,0.18,0.942,0.078,192,0,0,0,0,0,0,0,0,0,1.71E+09,0, 2024-03-05 16:06:22.214
219,-2549.082345,14082.96246,-5404.808272,-6830.938975,-6361.619396,32597.13591,-8764.119001,7818.193176,0.18,0.942,0.078,192,0,0,0,0,0,0,0,0,0,1.71E+09,0, 2024-03-05 16:06:22.214
220,-1194.521927,14063.13647,-5331.62866,-6679.930589,-6327.555338,32394.07031,-8795.322036,7774.495515,0.18,0.942,0.078,192,0,0,0,0,0,0,0,0,0,1.71E+09,0, 2024-03-05 16:06:22.214
221,-525.1765877,13964.98996,-4720.375505,-6291.792547,-6139.979498,32970.63356,-8845.009964,7711.865927,0.18,0.942,0.078,192,0,0,0,0,0,0,0,0,0,1.71E+09,0, 2024-03-05 16:06:22.214
222,-1556.329615,13949.07551,-4504.904688,-6275.162849,-6075.29355,33437.82973,-8822.904089,7737.65984,0.18,0.942,0.078,192,0,0,0,0,0,0,0,0,0,1.71E+09,0, 2024-03-05 16:06:22.215
223,-2821.55011,14016.42132,-4944.049411,-6625.638202,-6207.884098,33191.17823,-8768.946978,7802.681065,0.18,0.942,0.078,192,0,0,0,0,0,0,0,0,0,1.71E+09,0, 2024-03-05 16:06:22.215
224,-2566.539057,14076.65927,-5412.161995,-6841.444295,-6355.249149,32602.90266,-8760.788591,7812.515832,0.18,0.942,0.078,192,0,0,0,0,0,0,0,0,0,1.71E+09,0, 2024-03-05 16:06:22.215
225,-1198.701703,14058.88963,-5330.98046,-6684.847973,-6328.136483,32405.24619,-8794.584429,7769.980463,0.18,0.942,0.078,192,0,0,0,0,0,0,0,0,0,1.71E+09,0, 2024-03-05 16:06:22.215
226,-530.1610267,13971.80724,-4733.741848,-6300.532079,-6144.628661,32971.54998,-8837.030391,7722.773578,0.18,0.942,0.078,192,0,0,0,0,0,0,0,0,0,1.71E+09,0, 2024-03-05 16:06:22.215
227,-1565.270312,13958.61971,-4521.780255,-6278.00152,-6072.454878,33431.52653,-8811.482347,7751.964957,0.178,0.946,0.076,192,5,144,29,144,2,96,0,0,0,1.71E+09,0, 2024-03-05 16:06:22.215
228,-2807.535566,14015.05786,-4935.153417,-6608.539117,-6205.939496,33212.07711,-8770.846876,7805.318571,0.178,0.946,0.076,192,0,0,0,0,0,0,0,0,0,1.71E+09,0, 2024-03-05 16:06:22.215
229,-2559.520609,14077.55334,-5400.94142,-6825.261632,-6351.471704,32625.09795,-8759.022803,7822.238841,0.178,0.946,0.076,192,0,0,0,0,0,0,0,0,0,1.71E+09,0, 2024-03-05 16:06:22.215
230,-1206.189538,14053.12288,-5342.223387,-6685.764394,-6329.611698,32407.01197,-8794.517373,7777.960036,0.178,0.946,0.076,192,0,0,0,0,0,0,0,0,0,1.71E+09,0, 2024-03-05 16:06:22.215
231,-539.146428,13966.8228,-4757.233531,-6311.43973,-6141.655879,32949.53352,-8833.185891,7726.305154,0.178,0.946,0.076,192,0,0,0,0,0,0,0,0,0,1.71E+09,0, 2024-03-05 16:06:22.215
232,-1566.499658,13943.53228,-4531.860892,-6284.66234,-6066.285797,33412.01346,-8811.996438,7749.796838,0.178,0.946,0.076,192,0,0,0,0,0,0,0,0,0,1.71E+09,0, 2024-03-05 16:06:22.215
233,-2808.072008,13995.05305,-4928.090266,-6607.041551,-6203.816081,33209.90899,-8777.932379,7797.49546,0.178,0.946,0.076,192,0,0,0,0,0,0,0,0,0,1.71E+09,0, 2024-03-05 16:06:22.215
234,-2564.974435,14071.04898,-5392.760681,-6827.16153,-6354.6233,32630.12709,-8765.236588,7813.722827,0.178,0.946,0.076,192,0,0,0,0,0,0,0,0,0,1.71E+09,0, 2024-03-05 16:06:22.215
235,-1218.482997,14062.04123,-5347.00666,-6691.464089,-6330.572823,32401.44639,-8789.845859,7775.367233,0.178,0.946,0.076,192,0,0,0,0,0,0,0,0,0,1.71E+09,0, 2024-03-05 16:06:22.215
236,-529.7586953,13973.39421,-4753.031403,-6305.270649,-6138.370173,32949.66763,-8832.068304,7723.667648,0.178,0.946,0.076,192,0,0,0,0,0,0,0,0,0,1.71E+09,0, 2024-03-05 16:06:22.215
237,-1502.573669,13937.00557,-4490.06313,-6257.192046,-6062.798925,33455.93464,-8831.50951,7726.662782,0.18,0.944,0.078,192,5,160,29,128,2,112,0,0,0,1.71E+09,0, 2024-03-05 16:06:22.215
238,-2779.484127,14005.51367,-4911.706437,-6607.086254,-6201.290333,33228.68445,-8778.625283,7794.947361,0.18,0.944,0.078,192,0,0,0,0,0,0,0,0,0,1.71E+09,0, 2024-03-05 16:06:22.215
239,-2575.815031,14081.08492,-5393.297123,-6835.36462,-6342.620414,32630.79764,-8755.491228,7823.356429,0.18,0.944,0.078,192,0,0,0,0,0,0,0,0,0,1.71E+09,0, 2024-03-05 16:06:22.215
240,-1220.673468,14058.73317,-5343.519788,-6693.833374,-6324.359038,32407.39195,-8786.537801,7776.35071,0.18,0.944,0.078,192,0,0,0,0,0,0,0,0,0,1.71E+09,0, 2024-03-05 16:06:22.215
241,-495.851099,13960.58666,-4745.834141,-6306.321181,-6148.003775,32964.41978,-8841.36663,7712.000038,0.18,0.944,0.078,192,0,0,0,0,0,0,0,0,0,1.71E+09,0, 2024-03-05 16:06:22.215
242,-1497.343361,13947.84617,-4509.039761,-6273.732337,-6070.577332,33445.13875,-8817.40556,7742.331355,0.18,0.944,0.078,192,0,0,0,0,0,0,0,0,0,1.71E+09,0, 2024-03-05 16:06:22.215
243,-2782.702778,14013.94028,-4923.061123,-6612.584783,-6203.525508,33228.0586,-8766.421231,7807.419635,0.18,0.944,0.078,192,0,0,0,0,0,0,0,0,0,1.71E+09,0, 2024-03-05 16:06:22.215
244,-2567.142554,14076.23459,-5386.144565,-6826.490978,-6353.416306,32656.25628,-8763.090821,7813.164033,0.18,0.944,0.078,192,0,0,0,0,0,0,0,0,0,1.71E+09,0, 2024-03-05 16:06:22.215
245,-1221.679297,14059.98487,-5343.944471,-6695.666217,-6341.256957,32425.00513,-8790.292894,7778.13885,0.18,0.944,0.078,192,0,0,0,0,0,0,0,0,0,1.71E+09,0, 2024-03-05 16:06:22.215
246,-522.3155644,13979.6527,-4759.960444,-6316.401817,-6148.45081,32957.93777,-8828.134397,7730.462579,0.18,0.944,0.078,192,0,0,0,0,0,0,0,0,0,1.71E+09,0, 2024-03-05 16:06:22.215
247,-1502.70778,13951.66832,-4512.347819,-6272.435936,-6069.862076,33451.75486,-8820.780673,7740.386753,0.184,0.942,0.08,192,5,192,29,112,2,128,0,0,0,1.71E+09,0, 2024-03-05 16:06:22.215
248,-2775.930199,14008.84408,-4917.629649,-6605.767501,-6197.579944,33255.5736,-8776.770088,7795.752024,0.184,0.942,0.08,192,0,0,0,0,0,0,0,0,0,1.71E+09,0, 2024-03-05 16:06:22.215
249,-2590.27661,14073.44062,-5398.393321,-6837.443332,-6342.665117,32669.17559,-8759.358079,7811.599411,0.184,0.942,0.08,192,0,0,0,0,0,0,0,0,0,1.71E+09,0, 2024-03-05 16:06:22.215
250,-1232.385782,14049.36779,-5345.576149,-6699.9354,-6326.258937,32446.66397,-8798.652446,7764.414878,0.184,0.942,0.08,192,0,0,0,0,0,0,0,0,0,1.71E+09,0, 2024-03-05 16:06:22.215
251,-496.4098926,13959.44672,-4747.599929,-6315.597155,-6147.668498,32995.10872,-8847.13338,7708.244945,0.184,0.942,0.08,192,0,0,0,0,0,0,0,0,0,1.71E+09,0, 2024-03-05 16:06:22.215
252,-1487.687407,13948.8967,-4509.643258,-6281.309579,-6071.359643,33463.57894,-8820.043066,7739.44798,0.184,0.942,0.08,192,0,0,0,0,0,0,0,0,0,1.71E+09,0, 2024-03-05 16:06:22.215
253,-2768.397661,14009.24641,-4906.967867,-6609.34378,-6200.686836,33262.0109,-8777.239475,7792.958056,0.184,0.942,0.08,192,0,0,0,0,0,0,0,0,0,1.71E+09,0, 2024-03-05 16:06:22.215
254,-2579.324255,14074.40175,-5376.063928,-6833.621184,-6345.459085,32685.64882,-8767.18119,7806.547917,0.184,0.942,0.08,192,0,0,0,0,0,0,0,0,0,1.71E+09,0, 2024-03-05 16:06:22.215
255,-1252.614111,14061.34833,-5351.275844,-6712.698247,-6325.946012,32435.17517,-8790.695225,7775.255474,0.184,0.942,0.08,192,0,0,0,0,0,0,0,0,0,1.71E+09,0, 2024-03-05 16:06:22.215
0,-532.7761808,13976.61286,-4766.420098,-6331.668059,-6133.653955,32960.8882,-8826.815644,7725.142863,0.184,0.942,0.08,192,0,0,0,0,0,0,0,0,0,1.71E+09,0, 2024-03-05 16:06:22.215
1,-1484.692274,13945.14161,-4496.768653,-6276.012215,-6052.628881,33463.26601,-8818.769016,7734.396486,0.184,0.942,0.08,192,0,0,0,0,0,0,0,0,0,1.71E+09,0, 2024-03-05 16:06:22.215
2,-2763.234408,14008.70997,-4893.132137,-6608.561469,-6187.454604,33264.04491,-8771.852705,7791.34873,0.182,0.944,0.082,192,5,176,29,128,2,144,0,0,0,1.71E+09,0, 2024-03-05 16:06:22.215
3,-2607.040418,14078.9615,-5382.501231,-6844.059449,-6340.117018,32671.41076,-8759.961576,7805.206812,0.182,0.944,0.082,192,0,0,0,0,0,0,0,0,0,1.71E+09,0, 2024-03-05 16:06:22.215
4,-1285.068844,14068.81381,-5364.016338,-6722.085979,-6327.823559,32410.99059,-8784.928475,7768.639358,0.182,0.944,0.082,192,0,0,0,0,0,0,0,0,0,1.71E+09,0, 2024-03-05 16:06:22.215
5,-517.1299597,13973.84125,-4759.334595,-6322.392085,-6135.017411,32954.87558,-8837.455074,7704.825128,0.182,0.944,0.082,192,0,0,0,0,0,0,0,0,0,1.71E+09,0, 2024-03-05 16:06:22.215
6,-1446.269625,13933.63046,-4483.044682,-6268.367919,-6053.232378,33468.69748,-8835.73399,7711.485948,0.182,0.944,0.082,192,0,0,0,0,0,0,0,0,0,1.71E+09,0, 2024-03-05 16:06:22.215
7,-2736.836998,13999.70222,-4881.308065,-6607.309771,-6188.43808,33271.77862,-8783.766184,7779.16703,0.182,0.944,0.082,192,0,0,0,0,0,0,0,0,0,1.71E+09,0, 2024-03-05 16:06:22.215
8,-2603.35238,14075.83226,-5375.013396,-6846.652251,-6336.80896,32671.79074,-8763.046117,7801.831699,0.182,0.944,0.082,192,0,0,0,0,0,0,0,0,0,1.71E+09,0, 2024-03-05 16:06:22.215
9,-1260.347815,14051.60297,-5342.022221,-6716.162767,-6330.170492,32429.34137,-8802.206373,7753.171951,0.182,0.944,0.082,192,0,0,0,0,0,0,0,0,0,1.71E+09,0, 2024-03-05 16:06:22.215
10,-487.1786221,13964.83349,-4746.750563,-6326.795379,-6152.004737,32959.65886,-8844.965261,7699.34895,0.182,0.944,0.082,192,0,0,0,0,0,0,0,0,0,1.71E+09,0, 2024-03-05 16:06:22.215
11,-1437.843017,13940.89478,-4485.570429,-6276.213381,-6069.370338,33449.81026,-8828.916708,7719.085541,0.182,0.944,0.082,192,0,0,0,0,0,0,0,0,0,1.71E+09,0, 2024-03-05 16:06:22.215
12,-2744.593053,14007.36886,-4883.118556,-6607.980324,-6196.708226,33249.76215,-8777.395937,7789.091204,0.178,0.946,0.074,192,5,144,29,144,2,80,0,0,0,1.71E+09,0, 2024-03-05 16:06:22.215
13,-2609.052075,14069.73023,-5367.905541,-6837.778609,-6345.90612,32666.89571,-8768.701109,7799.41771,0.178,0.946,0.074,192,0,0,0,0,0,0,0,0,0,1.71E+09,0, 2024-03-05 16:06:22.215
14,-1274.652931,14053.3464,-5351.029974,-6718.934383,-6343.60389,32414.43275,-8800.328827,7759.028108,0.178,0.946,0.074,192,0,0,0,0,0,0,0,0,0,1.71E+09,0, 2024-03-05 16:06:22.215
15,-513.0172387,13973.52832,-4771.739813,-6337.434809,-6152.183551,32927.20412,-8843.177121,7706.345046,0.178,0.946,0.074,192,0,0,0,0,0,0,0,0,0,1.71E+09,0, 2024-03-05 16:06:22.215
16,-1456.46202,13948.33791,-4509.687961,-6283.50005,-6061.614282,33417.71316,-8823.395827,7730.328468,0.178,0.946,0.074,192,0,0,0,0,0,0,0,0,0,1.71E+09,0, 2024-03-05 16:06:22.215
17,-2771.661016,14020.62345,-4901.558745,-6607.198013,-6180.883191,33225.06347,-8767.516466,7802.055216,0.178,0.946,0.074,192,0,0,0,0,0,0,0,0,0,1.71E+09,0, 2024-03-05 16:06:22.215
18,-2640.389221,14090.29384,-5373.001739,-6828.994373,-6320.760408,32654.11051,-8756.765277,7814.326324,0.178,0.946,0.074,192,0,0,0,0,0,0,0,0,0,1.71E+09,0, 2024-03-05 16:06:22.215
19,-1305.252469,14071.51837,-5352.25932,-6710.597183,-6315.127768,32400.39586,-8790.896391,7771.455678,0.178,0.946,0.074,192,0,0,0,0,0,0,0,0,0,1.71E+09,0, 2024-03-05 16:06:22.215
20,-512.7713695,13978.64687,-4763.670834,-6328.136483,-6134.592728,32925.97478,-8840.047877,7706.613267,0.178,0.946,0.074,192,0,0,0,0,0,0,0,0,0,1.71E+09,0, 2024-03-05 16:06:22.215
21,-1440.972262,13951.10952,-4493.505298,-6276.414547,-6055.020518,33422.1835,-8822.27824,7723.220613,0.178,0.946,0.074,192,0,0,0,0,0,0,0,0,0,1.71E+09,0, 2024-03-05 16:06:22.215
22,-2725.370553,13997.98113,-4863.784297,-6589.0931,-6187.834583,33265.90011,-8785.50962,7781.22339,0.174,0.946,0.076,192,5,112,29,144,2,96,0,0,0,1.71E+09,0, 2024-03-05 16:06:22.215
23,-2629.950956,14071.9207,-5365.648015,-6840.013783,-6347.426039,32672.19307,-8763.426097,7808.805443,0.174,0.946,0.076,192,0,0,0,0,0,0,0,0,0,1.71E+09,0, 2024-03-05 16:06:22.215
24,-1313.030876,14066.28806,-5363.748117,-6729.52911,-6336.697201,32399.77001,-8788.616513,7770.494553,0.174,0.946,0.076,192,0,0,0,0,0,0,0,0,0,1.71E+09,0, 2024-03-05 16:06:22.215
25,-506.7140468,13977.84221,-4772.2092,-6341.502826,-6145.075696,32920.18568,-8836.695115,7707.842613,0.174,0.946,0.076,192,0,0,0,0,0,0,0,0,0,1.71E+09,0, 2024-03-05 16:06:22.215
26,-1412.585546,13939.57602,-4487.492679,-6279.074404,-6055.624015,33432.75588,-8827.441493,7715.777482,0.174,0.946,0.076,192,0,0,0,0,0,0,0,0,0,1.71E+09,0, 2024-03-05 16:06:22.215
27,-2723.783579,13999.97044,-4863.940759,-6604.404045,-6181.821964,33267.04005,-8779.184077,7778.496477,0.174,0.946,0.076,192,0,0,0,0,0,0,0,0,0,1.71E+09,0, 2024-03-05 16:06:22.215
28,-2636.2765,14075.58639,-5358.428402,-6848.529798,-6331.332783,32682.96661,-8760.609777,7798.031902,0.174,0.946,0.076,192,0,0,0,0,0,0,0,0,0,1.71E+09,0, 2024-03-05 16:06:22.215
29,-1319.468179,14062.53297,-5366.206809,-6744.147151,-6336.071352,32401.28993,-8789.59999,7754.848332,0.174,0.946,0.076,192,0,0,0,0,0,0,0,0,0,1.71E+09,0, 2024-03-05 16:06:22.215
30,-487.2009739,13968.02979,-4772.142145,-6346.710783,-6147.757905,32922.24204,-8842.037182,7692.375206,0.174,0.946,0.076,192,0,0,0,0,0,0,0,0,0,1.71E+09,0, 2024-03-05 16:06:22.215
31,-1392.64779,13936.42443,-4489.102005,-6285.131727,-6062.776573,33431.683,-8829.743723,7712.1565,0.174,0.946,0.076,192,0,0,0,0,0,0,0,0,0,1.71E+09,0, 2024-03-05 16:06:22.215
32,-2706.259812,13997.19882,-4854.21775,-6599.397254,-6176.502249,33277.47831,-8785.263751,7770.852181,0.176,0.938,0.08,192,5,128,29,80,2,128,0,0,0,1.71E+09,0, 2024-03-05 16:06:22.215
33,-2618.931546,14068.0762,-5342.335146,-6842.114847,-6328.427056,32705.67598,-8770.176324,7788.487707,0.176,0.938,0.08,192,0,0,0,0,0,0,0,0,0,1.71E+09,0, 2024-03-05 16:06:22.215
34,-1293.316638,14064.74579,-5352.438134,-6741.084962,-6330.259899,32423.64167,-8787.275408,7764.012547,0.176,0.938,0.08,192,0,0,0,0,0,0,0,0,0,1.71E+09,0, 2024-03-05 16:06:22.215
35,-456.0202904,13974.69061,-4763.49202,-6349.281233,-6144.651013,32933.86494,-8837.231557,7703.215802,0.176,0.938,0.08,192,0,0,0,0,0,0,0,0,0,1.71E+09,0, 2024-03-05 16:06:22.215
36,-1368.239685,13948.11439,-4490.778385,-6292.373692,-6058.730907,33430.38659,-8821.786502,7722.035971,0.176,0.938,0.08,192,0,0,0,0,0,0,0,0,0,1.71E+09,0, 2024-03-05 16:06:22.215
37,-2710.059608,14009.44758,-4870.154544,-6613.478853,-6175.854048,33263.48612,-8772.791478,7780.955169,0.176,0.938,0.08,192,0,0,0,0,0,0,0,0,0,1.71E+09,0, 2024-03-05 16:06:22.215
38,-2650.11223,14069.99845,-5363.010509,-6855.928225,-6330.639879,32682.92191,-8767.002376,7786.654864,0.176,0.938,0.08,192,0,0,0,0,0,0,0,0,0,1.71E+09,0, 2024-03-05 16:06:22.215
39,-1318.350591,14056.74387,-5363.681062,-6751.478523,-6332.003335,32403.32394,-8794.405615,7750.377983,0.176,0.938,0.08,192,0,0,0,0,0,0,0,0,0,1.71E+09,0, 2024-03-05 16:06:22.215
40,-461.6082265,13968.29801,-4771.203371,-6357.752545,-6144.539254,32918.75516,-8841.791313,7696.219706,0.176,0.938,0.08,192,0,0,0,0,0,0,0,0,0,1.71E+09,0, 2024-03-05 16:06:22.215
41,-1355.454487,13935.88798,-4491.404234,-6298.162794,-6058.149762,33425.15629,-8828.335563,7710.88245,0.176,0.938,0.08,192,0,0,0,0,0,0,0,0,0,1.71E+09,0, 2024-03-05 16:06:22.215
42,-2707.198585,14001.64682,-4873.484954,-6622.441902,-6179.631493,33259.3734,-8775.205466,7773.512038,0.18,0.942,0.082,192,5,160,29,112,2,144,0,0,0,1.71E+09,0, 2024-03-05 16:06:22.215
43,-2663.165648,14073.44062,-5369.716033,-6864.600702,-6335.825483,32675.92581,-8762.084992,7792.063986,0.18,0.942,0.082,192,0,0,0,0,0,0,0,0,0,1.71E+09,0, 2024-03-05 16:06:22.215
44,-1343.295138,14065.68456,-5379.349635,-6756.127686,-6336.138408,32390.89637,-8788.392995,7758.826942,0.18,0.942,0.082,192,0,0,0,0,0,0,0,0,0,1.71E+09,0, 2024-03-05 16:06:22.215
45,-490.7101978,13977.19401,-4794.091558,-6364.592178,-6150.350708,32894.79409,-8834.258775,7698.18666,0.18,0.942,0.082,192,0,0,0,0,0,0,0,0,0,1.71E+09,0, 2024-03-05 16:06:22.215
46,-1355.119211,13933.36224,-4491.113662,-6289.244448,-6062.396593,33420.90945,-8835.510473,7701.606476,0.18,0.942,0.082,192,0,0,0,0,0,0,0,0,0,1.71E+09,0, 2024-03-05 16:06:22.215
47,-2677.269599,13985.64297,-4841.834884,-6597.609114,-6179.095051,33290.75525,-8795.210277,7756.032974,0.18,0.942,0.082,192,0,0,0,0,0,0,0,0,0,1.71E+09,0, 2024-03-05 16:06:22.215
48,-2650.805134,14063.29293,-5348.548931,-6857.492847,-6334.171454,32699.88688,-8771.673891,7783.078585,0.18,0.942,0.082,192,0,0,0,0,0,0,0,0,0,1.71E+09,0, 2024-03-05 16:06:22.215
49,-1354.761583,14056.20743,-5376.578018,-6766.610654,-6338.708858,32393.08684,-8791.343426,7752.859027,0.18,0.942,0.082,192,0,0,0,0,0,0,0,0,0,1.71E+09,0, 2024-03-05 16:06:22.215
50,-495.6052298,13968.18626,-4800.059474,-6373.532876,-6152.027089,32879.37139,-8837.186854,7692.911648,0.18,0.942,0.082,192,0,0,0,0,0,0,0,0,0,1.71E+09,0, 2024-03-05 16:06:22.215
51,-1368.776127,13938.07846,-4503.273011,-6299.883878,-6057.680375,33388.67824,-8824.446359,7706.255639,0.18,0.942,0.082,192,0,0,0,0,0,0,0,0,0,1.71E+09,0, 2024-03-05 16:06:22.215
52,-2697.52028,13992.25908,-4843.757134,-6603.621734,-6169.997891,33258.97107,-8786.761318,7755.742402,0.178,0.944,0.078,192,5,144,29,128,2,112,0,0,0,1.71E+09,0, 2024-03-05 16:06:22.215
53,-2682.052872,14065.75162,-5347.185474,-6861.963196,-6330.706934,32679.88207,-8771.517428,7773.444983,0.178,0.944,0.078,192,0,0,0,0,0,0,0,0,0,1.71E+09,0, 2024-03-05 16:06:22.215
54,-1368.016168,14050.86536,-5372.398242,-6766.81182,-6339.088838,32382.49211,-8801.379359,7734.061209,0.178,0.944,0.078,192,0,0,0,0,0,0,0,0,0,1.71E+09,0, 2024-03-05 16:06:22.215
55,-488.4973751,13962.64302,-4796.371436,-6379.232571,-6153.345842,32869.2237,-8847.602766,7678.248904,0.178,0.944,0.078,192,0,0,0,0,0,0,0,0,0,1.71E+09,0, 2024-03-05 16:06:22.215
56,-1346.111458,13934.09985,-4495.628714,-6300.93441,-6053.947634,33386.21955,-8835.510473,7690.408253,0.178,0.944,0.078,192,0,0,0,0,0,0,0,0,0,1.71E+09,0, 2024-03-05 16:06:22.215
57,-2667.635997,13986.89467,-4833.654145,-6601.00658,-6166.086336,33267.35297,-8792.103385,7748.92512,0.178,0.944,0.078,192,0,0,0,0,0,0,0,0,0,1.71E+09,0, 2024-03-05 16:06:22.215
58,-2672.28516,14064.07524,-5346.49257,-6864.801868,-6324.314335,32679.77031,-8771.875056,7775.166068,0.178,0.944,0.078,192,0,0,0,0,0,0,0,0,0,1.71E+09,0, 2024-03-05 16:06:22.215
59,-1362.852915,14059.42608,-5372.107669,-6766.521247,-6333.813826,32382.00037,-8796.39492,7743.694811,0.178,0.944,0.078,192,0,0,0,0,0,0,0,0,0,1.71E+09,0, 2024-03-05 16:06:22.695
60,-481.590686,13981.08321,-4797.06434,-6371.387109,-6148.339051,32870.54245,-8837.052743,7692.799889,0.178,0.944,0.078,192,0,0,0,0,0,0,0,0,0,1.71E+09,0, 2024-03-05 16:06:22.695
61,-1336.030821,13945.38748,-4494.578182,-6289.087986,-6046.616262,33392.00865,-8823.909917,7707.462634,0.178,0.944,0.078,192,0,0,0,0,0,0,0,0,0,1.71E+09,0, 2024-03-05 16:06:22.695
62,-2663.433869,13992.79553,-4824.556985,-6585.852097,-6159.269054,33282.99919,-8783.252094,7758.782239,0.182,0.944,0.078,192,5,176,29,128,2,112,0,0,0,1.71E+09,0, 2024-03-05 16:06:22.695
63,-2676.174364,14072.68066,-5331.651012,-6848.462742,-6319.598117,32703.70903,-8767.56117,7779.748175,0.182,0.944,0.078,192,0,0,0,0,0,0,0,0,0,1.71E+09,0, 2024-03-05 16:06:22.695
64,-1362.942322,14063.24822,-5359.702451,-6756.619424,-6334.774951,32404.68739,-8798.83126,7743.180721,0.182,0.944,0.078,192,0,0,0,0,0,0,0,0,0,1.71E+09,0, 2024-03-05 16:06:22.695
65,-471.532401,13981.82082,-4794.113909,-6374.114022,-6152.8094,32877.89618,-8843.534749,7688.083671,0.182,0.944,0.078,192,0,0,0,0,0,0,0,0,0,1.71E+09,0, 2024-03-05 16:06:22.695
66,-1288.958048,13943.1523,-4476.674435,-6282.784794,-6055.355794,33415.94737,-8836.069266,7700.533593,0.182,0.944,0.078,192,0,0,0,0,0,0,0,0,0,1.71E+09,0, 2024-03-05 16:06:22.695
67,-2627.849892,14004.77606,-4818.119683,-6587.640236,-6169.327339,33300.3665,-8787.923609,7760.995062,0.182,0.944,0.078,192,0,0,0,0,0,0,0,0,0,1.71E+09,0, 2024-03-05 16:06:22.695
68,-2654.135544,14075.96637,-5330.242852,-6852.396649,-6331.690411,32718.32707,-8774.289045,7775.031957,0.182,0.944,0.078,192,0,0,0,0,0,0,0,0,0,1.71E+09,0, 2024-03-05 16:06:22.695
69,-1374.587581,14067.02567,-5379.863725,-6779.105279,-6346.397858,32393.95856,-8797.624266,7743.381887,0.182,0.944,0.078,192,0,0,0,0,0,0,0,0,0,1.71E+09,0, 2024-03-05 16:06:22.695
70,-471.9123807,13977.95397,-4807.927288,-6390.274333,-6159.157295,32864.06045,-8840.450208,7683.926247,0.182,0.944,0.078,192,0,0,0,0,0,0,0,0,0,1.71E+09,0, 2024-03-05 16:06:22.695
71,-1269.355568,13927.50608,-4473.992225,-6290.272628,-6059.647329,33414.58391,-8840.33845,7682.920418,0.182,0.944,0.078,192,0,0,0,0,0,0,0,0,0,1.71E+09,0, 2024-03-05 16:06:22.695
72,-2584.085176,13969.68382,-4787.050758,-6582.097004,-6172.747156,33329.08849,-8803.301609,7732.965974,0.182,0.942,0.082,192,5,176,29,112,2,144,0,0,0,1.71E+09,0, 2024-03-05 16:06:22.695
73,-2642.132657,14057.70499,-5317.859986,-6865.427716,-6339.379411,32727.04425,-8772.255036,7768.840524,0.182,0.942,0.082,192,0,0,0,0,0,0,0,0,0,1.71E+09,0, 2024-03-05 16:06:22.695
74,-1379.639075,14060.67777,-5382.836507,-6789.990579,-6347.31428,32383.34148,-8791.343426,7742.39841,0.182,0.942,0.082,192,0,0,0,0,0,0,0,0,0,1.71E+09,0, 2024-03-05 16:06:22.695
75,-465.2515608,13977.52928,-4811.972953,-6395.169365,-6157.860894,32857.0867,-8836.739819,7685.826145,0.182,0.942,0.082,192,0,0,0,0,0,0,0,0,0,1.71E+09,0, 2024-03-05 16:06:22.695
76,-1282.856021,13941.18535,-4489.660798,-6300.777948,-6050.550169,33392.83566,-8824.736932,7695.839726,0.182,0.942,0.082,192,0,0,0,0,0,0,0,0,0,1.71E+09,0, 2024-03-05 16:06:22.695
77,-2612.337781,13987.9452,-4803.211069,-6589.048396,-6165.594598,33307.98844,-8789.532934,7743.448942,0.182,0.942,0.082,192,0,0,0,0,0,0,0,0,0,1.71E+09,0, 2024-03-05 16:06:22.695
78,-2689.96539,14071.49602,-5334.512035,-6869.406327,-6331.5563,32709.56519,-8764.990719,7775.45664,0.182,0.942,0.082,192,0,0,0,0,0,0,0,0,0,1.71E+09,0, 2024-03-05 16:06:22.695
79,-1410.797407,14062.80119,-5389.16205,-6789.923524,-6344.11798,32381.84391,-8793.332731,7739.224462,0.182,0.942,0.082,192,0,0,0,0,0,0,0,0,0,1.71E+09,0, 2024-03-05 16:06:22.695
80,-478.3943866,13973.37186,-4814.543404,-6394.297647,-6163.426478,32860.10419,-8843.579452,7678.405366,0.182,0.942,0.082,192,0,0,0,0,0,0,0,0,0,1.71E+09,0, 2024-03-05 16:06:22.695
81,-1275.099966,13941.38651,-4486.35274,-6297.805166,-6060.004957,33396.43429,-8829.877833,7695.392692,0.182,0.942,0.082,192,0,0,0,0,0,0,0,0,0,1.71E+09,0, 2024-03-05 16:06:22.695
82,-2613.678886,13994.24839,-4802.808738,-6584.73451,-6161.884208,33302.40051,-8785.174344,7748.634547,0.184,0.942,0.08,192,5,192,29,112,2,128,0,0,0,1.71E+09,0, 2024-03-05 16:06:22.695
83,-2701.185966,14070.33373,-5333.439151,-6863.706632,-6322.056809,32711.26392,-8763.515504,7780.57519,0.184,0.942,0.08,192,0,0,0,0,0,0,0,0,0,1.71E+09,0, 2024-03-05 16:06:22.695
84,-1422.487369,14062.57767,-5389.251457,-6784.357939,-6333.746771,32386.82835,-8791.768109,7746.578186,0.184,0.942,0.08,192,0,0,0,0,0,0,0,0,0,1.71E+09,0, 2024-03-05 16:06:22.695
85,-473.2981888,13980.88205,-4808.150805,-6383.792327,-6149.188417,32866.65325,-8841.858368,7689.491831,0.184,0.942,0.08,192,0,0,0,0,0,0,0,0,0,1.71E+09,0, 2024-03-05 16:06:22.695
86,-1252.278835,13939.10664,-4469.074842,-6283.611808,-6051.086611,33410.27002,-8833.498816,7696.957314,0.184,0.942,0.08,192,0,0,0,0,0,0,0,0,0,1.71E+09,0, 2024-03-05 16:06:22.695
87,-2615.847005,13994.67307,-4797.891354,-6588.087271,-6164.655824,33306.8485,-8781.843934,7756.390602,0.184,0.942,0.08,192,0,0,0,0,0,0,0,0,0,1.71E+09,0, 2024-03-05 16:06:22.695
88,-2724.767056,14070.51254,-5329.929928,-6865.204199,-6322.816768,32711.37568,-8763.739021,7778.809402,0.184,0.942,0.08,192,0,0,0,0,0,0,0,0,0,1.71E+09,0, 2024-03-05 16:06:22.695
89,-1449.868256,14066.95861,-5385.585771,-6785.564933,-6337.658326,32376.47949,-8788.862382,7744.432419,0.184,0.942,0.08,192,0,0,0,0,0,0,0,0,0,1.71E+09,0, 2024-03-05 16:06:22.695
90,-493.7723868,13986.67115,-4809.402503,-6386.251019,-6152.42942,32841.1052,-8834.906976,7686.78727,0.184,0.942,0.08,192,0,0,0,0,0,0,0,0,0,1.71E+09,0, 2024-03-05 16:06:22.695
91,-1263.454707,13944.26989,-4472.338196,-6284.908209,-6052.74064,33386.33131,-8830.168406,7692.598723,0.184,0.942,0.08,192,0,0,0,0,0,0,0,0,0,1.71E+09,0, 2024-03-05 16:06:22.695
92,-2594.612848,13985.97824,-4772.812697,-6570.764669,-6160.811324,33317.26442,-8791.946923,7742.510169,0.176,0.944,0.072,192,5,128,29,128,2,64,0,0,0,1.71E+09,0, 2024-03-05 16:06:22.695
93,-2700.85069,14055.2016,-5307.399369,-6860.555036,-6334.909062,32729.14532,-8773.551437,7764.81721,0.176,0.944,0.072,192,0,0,0,0,0,0,0,0,0,1.71E+09,0, 2024-03-05 16:06:22.695
94,-1442.067497,14051.4465,-5384.691701,-6799.333608,-6355.316204,32383.40853,-8791.499888,7739.224462,0.176,0.944,0.072,192,0,0,0,0,0,0,0,0,0,1.71E+09,0, 2024-03-05 16:06:22.695
95,-490.1737559,13969.90734,-4827.909747,-6410.726179,-6175.094089,32833.28209,-8837.611537,7679.299436,0.176,0.944,0.072,192,0,0,0,0,0,0,0,0,0,1.71E+09,0, 2024-03-05 16:06:22.695
96,-1250.893027,13932.69169,-4483.737586,-6299.213326,-6068.923303,33388.29826,-8834.169368,7683.702729,0.176,0.944,0.072,192,0,0,0,0,0,0,0,0,0,1.71E+09,0, 2024-03-05 16:06:22.695
97,-2599.217307,13982.35726,-4782.870982,-6581.4041,-6174.110612,33323.74642,-8788.638865,7743.761867,0.176,0.944,0.072,192,0,0,0,0,0,0,0,0,0,1.71E+09,0, 2024-03-05 16:06:22.695
98,-2725.437608,14062.95765,-5313.903727,-6863.192542,-6335.423152,32743.89747,-8765.90714,7775.993082,0.176,0.944,0.072,192,0,0,0,0,0,0,0,0,0,1.71E+09,0, 2024-03-05 16:06:22.695
99,-1458.294863,14057.10149,-5385.071681,-6797.903096,-6359.250111,32406.65435,-8798.183059,7738.330393,0.176,0.944,0.072,192,0,0,0,0,0,0,0,0,0,1.71E+09,0, 2024-03-05 16:06:22.695
100,-482.5965145,13976.00937,-4828.84852,-6410.927345,-6178.737423,32853.55513,-8844.920557,7678.181848,0.176,0.944,0.072,192,0,0,0,0,0,0,0,0,0,1.71E+09,0, 2024-03-05 16:06:22.695
101,-1232.6093,13931.77526,-4481.189487,-6301.336742,-6071.538457,33403.69861,-8841.076057,7681.311093,0.176,0.944,0.072,192,0,0,0,0,0,0,0,0,0,1.71E+09,0, 2024-03-05 16:06:22.695
102,-2584.912191,13976.36699,-4774.891409,-6581.940541,-6174.602351,33342.27602,-8800.865269,7734.061209,0.176,0.948,0.082,192,5,128,29,160,2,144,0,0,0,1.71E+09,0, 2024-03-05 16:06:22.695
103,-2740.256815,14057.88381,-5316.183605,-6872.066185,-6332.495073,32744.50096,-8770.265731,7769.444021,0.176,0.948,0.082,192,0,0,0,0,0,0,0,0,0,1.71E+09,0, 2024-03-05 16:06:22.695
104,-1479.059634,14058.04027,-5396.247553,-6807.760216,-6361.619396,32388.77295,-8795.970237,7738.240986,0.176,0.948,0.082,192,0,0,0,0,0,0,0,0,0,1.71E+09,0, 2024-03-05 16:06:22.695
105,-489.7714245,13974.80237,-4832.983593,-6409.988571,-6178.893885,32835.00318,-8843.981784,7674.896142,0.176,0.948,0.082,192,0,0,0,0,0,0,0,0,0,1.71E+09,0, 2024-03-05 16:06:22.695
106,-1209.67641,13921.35935,-4472.3829,-6291.457271,-6071.44905,33400.68113,-8846.820455,7671.141049,0.176,0.948,0.082,192,0,0,0,0,0,0,0,0,0,1.71E+09,0, 2024-03-05 16:06:22.695
107,-2574.228057,13972.81307,-4770.845744,-6579.884181,-6173.328301,33341.33724,-8803.145147,7728.897956,0.176,0.948,0.082,192,0,0,0,0,0,0,0,0,0,1.71E+09,0, 2024-03-05 16:06:22.695
108,-2760.485144,14061.25892,-5323.55968,-6880.693958,-6334.998469,32738.91303,-8770.668062,7768.102916,0.176,0.948,0.082,192,0,0,0,0,0,0,0,0,0,1.71E+09,0, 2024-03-05 16:06:22.695
109,-1497.768044,14059.85076,-5398.102748,-6810.308315,-6354.578597,32384.9061,-8794.517373,7737.52573,0.176,0.948,0.082,192,0,0,0,0,0,0,0,0,0,1.71E+09,0, 2024-03-05 16:06:22.695
110,-488.586782,13970.77906,-4832.447151,-6410.681475,-6176.211676,32832.29862,-8850.754362,7667.028328,0.176,0.948,0.082,192,0,0,0,0,0,0,0,0,0,1.71E+09,0, 2024-03-05 16:06:22.695
111,-1207.642401,13935.70917,-4478.082595,-6296.128785,-6062.061317,33387.11362,-8840.293746,7679.902933,0.176,0.948,0.082,192,0,0,0,0,0,0,0,0,0,1.71E+09,0, 2024-03-05 16:06:22.695
112,-2564.572104,13975.96466,-4762.173267,-6573.446879,-6156.676251,33340.82315,-8801.938153,7733.480064,0.176,0.946,0.084,192,5,128,29,144,2,160,0,0,0,1.71E+09,0, 2024-03-05 16:06:22.695
113,-2727.337507,14052.49704,-5294.122433,-6861.62792,-6323.017934,32764.08109,-8781.061623,7756.904692,0.176,0.946,0.084,192,0,0,0,0,0,0,0,0,0,1.71E+09,0, 2024-03-05 16:06:22.695
114,-1479.439614,14057.48147,-5386.010454,-6807.760216,-6349.37064,32399.0324,-8794.785594,7734.105913,0.176,0.946,0.084,192,0,0,0,0,0,0,0,0,0,1.71E+09,0, 2024-03-05 16:06:22.695
115,-477.567372,13973.66243,-4840.292614,-6421.969106,-6168.097993,32821.1898,-8837.700944,7677.108965,0.176,0.946,0.084,192,0,0,0,0,0,0,0,0,0,1.71E+09,0, 2024-03-05 16:06:22.695
116,-1202.814424,13929.09305,-4490.420758,-6308.601059,-6057.47921,33366.28179,-8834.929327,7681.646369,0.176,0.946,0.084,192,0,0,0,0,0,0,0,0,0,1.71E+09,0, 2024-03-05 16:06:22.695
117,-2556.056089,13965.43699,-4763.313206,-6575.63735,-6156.27392,33332.73182,-8802.251077,7726.975706,0.176,0.946,0.084,192,0,0,0,0,0,0,0,0,0,1.71E+09,0, 2024-03-05 16:06:22.695
118,-2736.546425,14045.59035,-5294.815337,-6865.874751,-6332.740943,32762.2259,-8782.894466,7756.658823,0.176,0.946,0.084,192,0,0,0,0,0,0,0,0,0,1.71E+09,0, 2024-03-05 16:06:22.695
119,-1513.034286,14061.32597,-5400.337923,-6822.735885,-6364.502771,32380.61456,-8791.812812,7739.291518,0.176,0.946,0.084,192,0,0,0,0,0,0,0,0,0,1.71E+09,0, 2024-03-05 16:06:22.695
120,-473.8793342,13966.01814,-4834.659974,-6421.678534,-6180.23499,32819.69223,-8849.18974,7662.915607,0.176,0.946,0.084,192,0,0,0,0,0,0,0,0,0,1.71E+09,0, 2024-03-05 16:06:22.695
121,-1162.246008,13917.4478,-4469.477173,-6301.336742,-6072.834858,33387.29243,-8849.904996,7659.473438,0.176,0.946,0.084,192,0,0,0,0,0,0,0,0,0,1.71E+09,0, 2024-03-05 16:06:22.695
122,-2523.646059,13968.63329,-4746.080011,-6576.15144,-6164.186438,33350.9932,-8803.391016,7721.052494,0.182,0.948,0.082,192,5,176,29,160,2,144,0,0,0,1.71E+09,0, 2024-03-05 16:06:22.695
123,-2724.141207,14043.15401,-5283.818279,-6868.668719,-6325.744847,32778.34151,-8780.458126,7748.746306,0.182,0.948,0.082,192,0,0,0,0,0,0,0,0,0,1.71E+09,0, 2024-03-05 16:06:22.695
124,-1511.559071,14051.11123,-5409.815062,-6836.3928,-6363.362832,32387.81183,-8797.043121,7726.796892,0.182,0.948,0.082,192,0,0,0,0,0,0,0,0,0,1.71E+09,0, 2024-03-05 16:06:22.695
125,-486.9774564,13969.61677,-4863.56078,-6445.483142,-6175.027034,32804.38129,-8842.819493,7662.714441,0.182,0.948,0.082,192,0,0,0,0,0,0,0,0,0,1.71E+09,0, 2024-03-05 16:06:22.695
126,-1168.683311,13923.70628,-4488.096176,-6315.351285,-6060.161419,33368.89695,-8840.763133,7662.356813,0.182,0.948,0.082,192,0,0,0,0,0,0,0,0,0,1.71E+09,0, 2024-03-05 16:06:22.695
127,-2521.34383,13962.06188,-4742.011993,-6572.016367,-6149.523693,33349.67445,-8804.955638,7711.977686,0.182,0.948,0.082,192,0,0,0,0,0,0,0,0,0,1.71E+09,0, 2024-03-05 16:06:22.695
128,-2744.749516,14040.00241,-5289.696788,-6875.351891,-6324.224928,32769.2667,-8780.301664,7746.265262,0.182,0.948,0.082,192,0,0,0,0,0,0,0,0,0,1.71E+09,0, 2024-03-05 16:06:22.695
129,-1524.23251,14043.08695,-5407.021094,-6839.052658,-6361.731155,32380.77103,-8800.820565,7721.879509,0.182,0.948,0.082,192,0,0,0,0,0,0,0,0,0,1.71E+09,0, 2024-03-05 16:06:22.695
130,-489.8831832,13969.01327,-4867.695852,-6453.440363,-6185.286484,32790.29969,-8846.976918,7665.26254,0.182,0.948,0.082,192,0,0,0,0,0,0,0,0,0,1.71E+09,0, 2024-03-05 16:06:22.695
131,-1149.9749,13924.64506,-4486.553906,-6315.351285,-6065.592893,33360.60445,-8846.194607,7666.827162,0.182,0.948,0.082,192,0,0,0,0,0,0,0,0,0,1.71E+09,0, 2024-03-05 16:06:22.695
132,-2534.710173,13977.57399,-4757.099421,-6584.533344,-6155.290443,33323.79113,-8798.071301,7729.769675,0.182,0.944,0.082,192,5,176,29,128,2,144,0,0,0,1.71E+09,0, 2024-03-05 16:06:22.695
133,-2764.821382,14053.21229,-5286.768709,-6875.374243,-6312.512614,32751.47471,-8773.32792,7753.373117,0.182,0.944,0.082,192,0,0,0,0,0,0,0,0,0,1.71E+09,0, 2024-03-05 16:06:22.695
134,-1523.85253,14046.97615,-5386.949228,-6829.396704,-6356.366736,32380.94984,-8804.486251,7719.286706,0.182,0.944,0.082,192,0,0,0,0,0,0,0,0,0,1.71E+09,0, 2024-03-05 16:06:22.695
135,-488.8102995,13970.91317,-4860.163314,-6452.143961,-6185.35354,32781.29194,-8850.374383,7664.502581,0.182,0.944,0.082,192,0,0,0,0,0,0,0,0,0,1.71E+09,0, 2024-03-05 16:06:22.695
136,-1137.144999,13921.87344,-4475.19922,-6310.992695,-6064.184733,33358.81631,-8854.4424,7664.077898,0.182,0.944,0.082,192,0,0,0,0,0,0,0,0,0,1.71E+09,0, 2024-03-05 16:06:22.695
137,-2489.358483,13966.93456,-4724.756446,-6568.015405,-6153.636414,33358.39163,-8813.896336,7714.056398,0.182,0.944,0.082,192,0,0,0,0,0,0,0,0,0,1.71E+09,0, 2024-03-05 16:06:22.695
138,-2733.283071,14048.71959,-5272.843572,-6873.988435,-6327.354172,32783.57181,-8789.108251,7743.247776,0.182,0.944,0.082,192,0,0,0,0,0,0,0,0,0,1.71E+09,0, 2024-03-05 16:06:22.695
139,-1527.115885,14054.06166,-5398.281562,-6842.137199,-6364.10044,32384.01203,-8808.621324,7719.8455,0.182,0.944,0.082,192,0,0,0,0,0,0,0,0,0,1.71E+09,0, 2024-03-05 16:06:22.695
140,-483.8929157,13969.30384,-4867.137059,-6460.414107,-6186.784051,32773.8488,-8855.068249,7660.143991,0.182,0.944,0.082,192,0,0,0,0,0,0,0,0,0,1.71E+09,0, 2024-03-05 16:06:22.695
141,-1121.811702,13914.72088,-4481.949446,-6318.257012,-6071.404346,33349.47328,-8858.353956,7658.109982,0.182,0.944,0.082,192,0,0,0,0,0,0,0,0,0,1.71E+09,0, 2024-03-05 16:06:22.695
142,-2472.818193,13955.2893,-4724.175301,-6570.317634,-6154.798705,33351.55199,-8818.612554,7711.396541,0.182,0.944,0.082,192,0,0,0,0,0,0,0,0,0,1.71E+09,0, 2024-03-05 16:06:22.695
143,-2743.073135,14043.91397,-5276.062223,-6882.25858,-6319.441655,32773.2006,-8780.368719,7755.138904,0.184,0.948,0.088,192,5,192,29,160,2,192,0,0,0,1.71E+09,0, 2024-03-05 16:06:22.695
144,-1541.465705,14048.07139,-5396.85105,-6846.719306,-6349.929434,32379.69814,-8798.406577,7727.132169,0.184,0.948,0.088,192,0,0,0,0,0,0,0,0,0,1.71E+09,0, 2024-03-05 16:06:22.695
145,-465.8550579,13960.29609,-4857.212884,-6460.548217,-6178.17863,32786.03051,-8854.330642,7658.691127,0.184,0.948,0.088,192,0,0,0,0,0,0,0,0,0,1.71E+09,0, 2024-03-05 16:06:22.695
146,-1095.168423,13916.06199,-4471.555885,-6318.413474,-6056.160457,33358.48103,-8848.653298,7664.927264,0.184,0.948,0.088,192,0,0,0,0,0,0,0,0,0,1.71E+09,0, 2024-03-05 16:06:22.695
147,-2445.660823,13954.66345,-4705.802167,-6562.718041,-6135.12917,33365.52183,-8807.03435,7714.704599,0.184,0.948,0.088,192,0,0,0,0,0,0,0,0,0,1.71E+09,0, 2024-03-05 16:06:22.695
148,-2719.670858,14033.16278,-5248.502523,-6867.439373,-6303.482509,32798.21221,-8781.575713,7748.411029,0.184,0.948,0.088,192,0,0,0,0,0,0,0,0,0,1.71E+09,0, 2024-03-05 16:06:22.695
149,-1503.199518,14034.1239,-5370.252475,-6836.415152,-6353.013975,32409.06834,-8806.90024,7718.996134,0.184,0.948,0.088,192,0,0,0,0,0,0,0,0,0,1.71E+09,0, 2024-03-05 16:06:22.695
150,-446.5655025,13959.782,-4860.431535,-6467.812534,-6191.656732,32777.96153,-8852.721316,7657.640595,0.184,0.948,0.088,192,0,0,0,0,0,0,0,0,0,1.71E+09,0, 2024-03-05 16:06:22.695
151,-1068.078109,13913.91622,-4471.421775,-6325.007239,-6067.291625,33347.12635,-8852.676612,7660.233398,0.184,0.948,0.088,192,0,0,0,0,0,0,0,0,0,1.71E+09,0, 2024-03-05 16:06:22.695
152,-2449.102992,13960.11728,-4715.972211,-6583.169887,-6144.896882,33343.01363,-8807.861365,7717.02918,0.184,0.948,0.088,192,0,0,0,0,0,0,0,0,0,1.71E+09,0, 2024-03-05 16:06:22.695
