Sample Index, EXG Channel 0, EXG Channel 1, EXG Channel 2, EXG Channel 3, EXG Channel 4, EXG Channel 5, EXG Channel 6, EXG Channel 7, Accel Channel 0, Accel Channel 1, Accel Channel 2, Other, Other.1, Other.2, Other.3, Other.4, Other.5, Other.6, Analog Channel 0, Analog Channel 1, Analog Channel 2, Timestamp, Other.7, Timestamp (Formatted)
0,-81936.64484,-45956.66182,-32534.10399,-32908.09338,-34443.79234,-44314.94854,-38260.73268,-68012.75975,0.102,0.78,0.568,192,0,0,0,0,0,0,0,0,0,1709547760,0, 2024-03-04 15:52:40.434
1,-81899.13862,-45946.69294,-32595.81716,-32886.65806,-34491.82624,-44300.01757,-38340.70722,-68044.99096,0.102,0.78,0.568,192,0,0,0,0,0,0,0,0,0,1709547760,0, 2024-03-04 15:52:40.434
2,-81890.91318,-45966.45188,-32698.43402,-32882.07595,-34550.81249,-44289.51225,-38395.15607,-68024.38265,0.102,0.78,0.568,192,0,0,0,0,0,0,0,0,0,1709547760,0, 2024-03-04 15:52:40.434
3,-81922.49619,-45988.37894,-32704.15607,-32905.1653,-34542.69881,-44304.13029,-38362.72369,-67996.39827,0.102,0.78,0.568,192,0,0,0,0,0,0,0,0,0,1709547760,0, 2024-03-04 15:52:40.434
4,-81951.26289,-45987.17195,-32597.29238,-32929.28284,-34474.01189,-44329.11954,-38293.99208,-68005.62954,0.102,0.78,0.568,192,0,0,0,0,0,0,0,0,0,1709547760,0, 2024-03-04 15:52:40.434
5,-81939.72939,-45970.25168,-32536.96502,-32919.76099,-34446.96628,-44327.35375,-38295.69081,-68002.5897,0.102,0.78,0.568,192,0,0,0,0,0,0,0,0,0,1709547760,0, 2024-03-04 15:52:40.434
6,-81903.3631,-45962.13799,-32591.95031,-32895.55405,-34491.22274,-44311.46166,-38367.23874,-68019.44292,0.102,0.78,0.568,192,0,0,0,0,0,0,0,0,0,1709547760,0, 2024-03-04 15:52:40.434
7,-81888.27567,-45972.12922,-32689.85095,-32885.87575,-34547.37032,-44299.30232,-38419.92181,-68009.69756,0.102,0.78,0.568,192,0,0,0,0,0,0,0,0,0,1709547760,0, 2024-03-04 15:52:40.434
8,-81921.24449,-45993.69866,-32694.83539,-32907.84751,-34539.4578,-44314.54621,-38388.38349,-67994.61013,0.102,0.78,0.568,192,0,0,0,0,0,0,0,0,0,1709547760,0, 2024-03-04 15:52:40.434
9,-81958.63896,-45997.76667,-32589.64808,-32932.21091,-34471.91083,-44340.80951,-38312.99106,-68010.9269,0.102,0.78,0.568,192,0,0,0,0,0,0,0,0,0,1709547760,0, 2024-03-04 15:52:40.434
10,-81942.59041,-45972.21863,-32528.94074,-32919.47042,-34445.80399,-44334.70748,-38309.79476,-68027.10957,0.098,0.784,0.576,192,3,16,24,128,18,0,0,0,0,1709547760,0, 2024-03-04 15:52:40.434
11,-81898.24455,-45953.30905,-32584.03779,-32889.16145,-34491.04392,-44310.58995,-38379.82278,-68045.61681,0.098,0.784,0.576,192,0,0,0,0,0,0,0,0,0,1709547760,0, 2024-03-04 15:52:40.434
12,-81899.11627,-45980.57818,-32694.72363,-32893.85532,-34563.01654,-44312.19927,-38440.32895,-68065.19694,0.098,0.784,0.576,192,0,0,0,0,0,0,0,0,0,1709547760,0, 2024-03-04 15:52:40.434
13,-81932.77799,-46004.89688,-32701.71973,-32916.6988,-34556.95922,-44324.93977,-38399.42526,-68026.2155,0.098,0.784,0.576,192,0,0,0,0,0,0,0,0,0,1709547760,0, 2024-03-04 15:52:40.434
14,-81962.03643,-46003.64518,-32595.25837,-32937.57533,-34485.88067,-44345.07869,-38314.62274,-68023.48858,0.098,0.784,0.576,192,0,0,0,0,0,0,0,0,0,1709547760,0, 2024-03-04 15:52:40.434
15,-81955.75559,-45984.42268,-32533.88048,-32931.36155,-34460.39968,-44347.89501,-38310.15239,-68060.99481,0.098,0.784,0.576,192,0,0,0,0,0,0,0,0,0,1709547760,0, 2024-03-04 15:52:40.434
16,-81907.11819,-45960.19339,-32586.20591,-32896.8281,-34505.68432,-44319.03891,-38378.59343,-68069.39907,0.098,0.784,0.576,192,0,0,0,0,0,0,0,0,0,1709547760,0, 2024-03-04 15:52:40.434
17,-81887.15808,-45967.413,-32683.74892,-32881.89714,-34565.6764,-44300.64342,-38429.19778,-68067.00743,0.098,0.784,0.576,192,0,0,0,0,0,0,0,0,0,1709547760,0, 2024-03-04 15:52:40.434
18,-81928.33,-45994.43626,-32690.02976,-32902.79602,-34560.98253,-44313.54038,-38392.76444,-68052.09882,0.098,0.784,0.576,192,0,0,0,0,0,0,0,0,0,1709547760,0, 2024-03-04 15:52:40.434
19,-81956.38143,-45989.04949,-32580.77444,-32915.38005,-34486.37241,-44323.41985,-38311.09116,-68022.03572,0.098,0.784,0.576,192,0,0,0,0,0,0,0,0,0,1709547760,0, 2024-03-04 15:52:40.434
20,-81933.20268,-45959.18756,-32510.70172,-32897.65512,-34451.66015,-44310.07586,-38300.76466,-68017.16304,0.096,0.782,0.568,192,3,0,24,112,17,192,0,0,0,1709547760,0, 2024-03-04 15:52:40.434
21,-81897.84222,-45949.35279,-32569.4421,-32873.91756,-34501.83982,-44293.64732,-38377.20762,-68054.87043,0.096,0.782,0.568,192,0,0,0,0,0,0,0,0,0,1709547760,0, 2024-03-04 15:52:40.434
22,-81893.97536,-45972.01746,-32678.85389,-32873.87286,-34573.74538,-44291.94859,-38446.051,-68077.82567,0.096,0.782,0.568,192,0,0,0,0,0,0,0,0,0,1709547760,0, 2024-03-04 15:52:40.434
23,-81927.01124,-45998.1243,-32691.05794,-32896.89516,-34569.34209,-44304.97966,-38415.9879,-68058.20084,0.096,0.782,0.568,192,0,0,0,0,0,0,0,0,0,1709547760,0, 2024-03-04 15:52:40.434
24,-81960.87414,-45999.24189,-32586.31767,-32916.78821,-34496.72127,-44321.65406,-38334.58285,-68040.14063,0.096,0.782,0.568,192,0,0,0,0,0,0,0,0,0,1709547760,0, 2024-03-04 15:52:40.434
25,-81947.35133,-45975.28082,-32513.27217,-32901.00788,-34456.91281,-44310.81346,-38318.13196,-68030.30587,0.096,0.782,0.568,192,0,0,0,0,0,0,0,0,0,1709547760,0, 2024-03-04 15:52:40.434
26,-81902.35727,-45957.7347,-32562.69187,-32869.06724,-34497.48123,-44284.66192,-38387.66824,-68044.43217,0.096,0.782,0.568,192,0,0,0,0,0,0,0,0,0,1709547760,0, 2024-03-04 15:52:40.434
27,-81889.39326,-45973.00094,-32669.13088,-32863.34519,-34565.05055,-44277.48701,-38451.12484,-68057.39618,0.096,0.782,0.568,192,0,0,0,0,0,0,0,0,0,1709547760,0, 2024-03-04 15:52:40.434
28,-81925.58073,-45998.50428,-32675.23291,-32880.44427,-34557.24979,-44283.7008,-38410.06469,-68002.14267,0.096,0.782,0.568,192,0,0,0,0,0,0,0,0,0,1709547760,0, 2024-03-04 15:52:40.434
29,-81952.91691,-45992.91634,-32560.14378,-32890.59197,-34472.82725,-44292.06035,-38319.29425,-67958.84734,0.096,0.782,0.568,192,0,0,0,0,0,0,0,0,0,1709547760,0, 2024-03-04 15:52:40.434
30,-81943.708,-45973.1574,-32493.71439,-32882.83591,-34441.95949,-44293.02148,-38313.25928,-67968.68211,0.102,0.784,0.568,192,3,48,24,128,17,192,0,0,0,1709547760,0, 2024-03-04 15:52:40.434
31,-81902.84901,-45958.62877,-32547.31387,-32860.21595,-34487.60176,-44280.52685,-38386.34949,-68002.70146,0.102,0.784,0.568,192,0,0,0,0,0,0,0,0,0,1709547760,0, 2024-03-04 15:52:40.434
32,-81889.885,-45977.98538,-32658.5138,-32862.89815,-34559.95435,-44285.62305,-38451.16954,-68031.24464,0.102,0.784,0.568,192,0,0,0,0,0,0,0,0,0,1709547760,0, 2024-03-04 15:52:40.434
33,-81928.46411,-46007.95907,-32674.83058,-32892.76009,-34563.66474,-44310.12056,-38421.75465,-68024.38265,0.102,0.784,0.568,192,0,0,0,0,0,0,0,0,0,1709547760,0, 2024-03-04 15:52:40.434
34,-81967.22203,-46014.28461,-32572.23607,-32918.21872,-34493.3238,-44335.15451,-38345.55755,-68007.88707,0.102,0.784,0.568,192,0,0,0,0,0,0,0,0,0,1709547760,0, 2024-03-04 15:52:40.434
35,-81958.50485,-45996.2244,-32510.65701,-32912.51903,-34464.19948,-44337.79202,-38341.78011,-68019.64408,0.102,0.784,0.568,192,0,0,0,0,0,0,0,0,0,1709547760,0, 2024-03-04 15:52:40.434
36,-81916.48357,-45983.998,-32567.4528,-32891.97777,-34514.15563,-44326.88437,-38422.15698,-68067.27565,0.102,0.784,0.568,192,0,0,0,0,0,0,0,0,0,1709547760,0, 2024-03-04 15:52:40.434
37,-81899.40684,-45996.26911,-32669.9579,-32887.06039,-34579.62389,-44323.73277,-38485.07714,-68105.02775,0.102,0.784,0.568,192,0,0,0,0,0,0,0,0,0,1709547760,0, 2024-03-04 15:52:40.434
38,-81934.58848,-46017.3021,-32681.60316,-32908.2722,-34575.15354,-44337.79202,-38450.52134,-68101.8985,0.102,0.784,0.568,192,0,0,0,0,0,0,0,0,0,1709547760,0, 2024-03-04 15:52:40.434
39,-81967.66907,-46015.29044,-32570.82791,-32922.13028,-34497.21301,-44347.62679,-38366.54584,-68054.89278,0.102,0.784,0.568,192,0,0,0,0,0,0,0,0,0,1709547760,0, 2024-03-04 15:52:40.434
40,-81943.41742,-45986.56845,-32493.66969,-32903.01954,-34454.36471,-44332.87464,-38349.71498,-68033.09983,0.112,0.784,0.568,192,3,128,24,128,17,192,0,0,0,1709547760,0, 2024-03-04 15:52:40.434
41,-81903.27369,-45977.18072,-32549.90668,-32881.29364,-34504.49967,-44319.88827,-38428.25901,-68080.82081,0.112,0.784,0.568,192,0,0,0,0,0,0,0,0,0,1709547760,0, 2024-03-04 15:52:40.434
42,-81895.13766,-45996.60438,-32658.04442,-32878.34321,-34574.7065,-44315.48498,-38497.10238,-68118.28233,0.112,0.784,0.568,192,0,0,0,0,0,0,0,0,0,1709547760,0, 2024-03-04 15:52:40.434
43,-81928.12883,-46013.5023,-32665.15227,-32891.039,-34569.16327,-44317.27312,-38465.65348,-68077.95979,0.112,0.784,0.568,192,0,0,0,0,0,0,0,0,0,1709547760,0, 2024-03-04 15:52:40.434
44,-81958.97424,-46009.21077,-32558.62386,-32905.43352,-34497.70474,-44328.51605,-38387.84705,-68058.64788,0.112,0.784,0.568,192,0,0,0,0,0,0,0,0,0,1709547760,0, 2024-03-04 15:52:40.434
45,-81941.87515,-45988.69187,-32486.91946,-32894.28,-34459.81854,-44322.65989,-38374.19014,-68058.93845,0.112,0.784,0.568,192,0,0,0,0,0,0,0,0,0,1709547760,0, 2024-03-04 15:52:40.434
46,-81906.67116,-45984.26622,-32542.37414,-32876.3539,-34507.09248,-44311.59578,-38449.71668,-68101.02679,0.112,0.784,0.568,192,0,0,0,0,0,0,0,0,0,1709547760,0, 2024-03-04 15:52:40.434
47,-81900.2115,-46001.70058,-32649.05902,-32871.43652,-34575.37706,-44303.72796,-38516.36958,-68125.97133,0.112,0.784,0.568,192,0,0,0,0,0,0,0,0,0,1709547760,0, 2024-03-04 15:52:40.434
48,-81939.14824,-46029.26028,-32666.31456,-32890.90489,-34576.0029,-44313.31686,-38485.21125,-68090.00738,0.112,0.784,0.568,192,0,0,0,0,0,0,0,0,0,1709547760,0, 2024-03-04 15:52:40.434
49,-81971.11123,-46029.10382,-32559.94261,-32905.09825,-34496.90008,-44323.30809,-38391.7139,-68038.88894,0.112,0.784,0.568,192,0,0,0,0,0,0,0,0,0,1709547760,0, 2024-03-04 15:52:40.434
50,-81960.4718,-46012.00473,-32497.22362,-32898.01275,-34466.14408,-44321.18467,-38378.30286,-68034.61975,0.11,0.794,0.568,192,3,112,24,208,17,192,0,0,0,1709547760,0, 2024-03-04 15:52:40.434
51,-81924.77607,-45998.59369,-32550.7784,-32868.86607,-34514.84853,-44297.33536,-38450.32018,-68048.61194,0.11,0.794,0.568,192,0,0,0,0,0,0,0,0,0,1709547760,0, 2024-03-04 15:52:40.434
52,-81914.42721,-46012.34001,-32659.65374,-32860.39476,-34585.5024,-44284.12548,-38511.29574,-68047.3379,0.11,0.794,0.568,192,0,0,0,0,0,0,0,0,0,1709547760,0, 2024-03-04 15:52:40.434
53,-81940.39994,-46032.09895,-32675.70229,-32878.94671,-34586.1953,-44290.38397,-38479.80213,-68014.39142,0.11,0.794,0.568,192,0,0,0,0,0,0,0,0,0,1709547760,0, 2024-03-04 15:52:40.434
54,-81978.24144,-46036.25638,-32581.5791,-32909.18862,-34523.92334,-44316.28964,-38404.85673,-68014.81611,0.11,0.794,0.568,192,0,0,0,0,0,0,0,0,0,1709547760,0, 2024-03-04 15:52:40.434
55,-81970.75361,-46015.73748,-32517.69781,-32907.95927,-34495.49192,-44321.587,-38395.60311,-68040.45356,0.11,0.794,0.568,192,0,0,0,0,0,0,0,0,0,1709547760,0, 2024-03-04 15:52:40.434
56,-81924.95488,-45996.55968,-32559.89791,-32876.71153,-34532.79698,-44297.24596,-38458.2327,-68046.10855,0.11,0.794,0.568,192,0,0,0,0,0,0,0,0,0,1709547760,0, 2024-03-04 15:52:40.434
57,-81910.4039,-46011.89298,-32663.23002,-32869.2237,-34597.34882,-44291.41215,-38518.31418,-68071.43308,0.11,0.794,0.568,192,0,0,0,0,0,0,0,0,0,1709547760,0, 2024-03-04 15:52:40.434
58,-81951.37464,-46044.30301,-32683.99479,-32897.52101,-34599.53929,-44311.75224,-38492.36381,-68060.36896,0.11,0.794,0.568,192,0,0,0,0,0,0,0,0,0,1709547760,0, 2024-03-04 15:52:40.434
59,-81994.40175,-46054.09307,-32587.3682,-32926.39946,-34531.50058,-44335.82507,-38414.75855,-68023.24271,0.11,0.794,0.568,192,0,0,0,0,0,0,0,0,0,1709547760,0, 2024-03-04 15:52:40.434
60,-81990.04316,-46038.53626,-32521.60937,-32927.76292,-34500.49871,-44344.16227,-38410.22115,-68034.28448,0.104,0.79,0.566,192,3,64,24,176,17,176,0,0,0,1709547760,0, 2024-03-04 15:52:40.434
61,-81942.09867,-46019.22435,-32565.44114,-32897.40925,-34538.13905,-44320.53647,-38476.09174,-68042.04053,0.104,0.79,0.566,192,0,0,0,0,0,0,0,0,0,1709547760,0, 2024-03-04 15:52:40.434
62,-81925.35721,-46029.95319,-32669.44381,-32883.90879,-34602.33326,-44307.19248,-38537.44728,-68048.6343,0.104,0.79,0.566,192,0,0,0,0,0,0,0,0,0,1709547760,0, 2024-03-04 15:52:40.434
63,-81964.24925,-46058.47401,-32696.48942,-32909.25567,-34612.05627,-44328.44899,-38522.20339,-68060.68189,0.104,0.79,0.566,192,0,0,0,0,0,0,0,0,0,1709547760,0, 2024-03-04 15:52:40.434
64,-82000.74965,-46064.15135,-32599.66166,-32934.6249,-34548.51026,-44353.14767,-38447.70502,-68056.85974,0.104,0.79,0.566,192,0,0,0,0,0,0,0,0,0,1709547760,0, 2024-03-04 15:52:40.434
65,-81986.10926,-46041.03965,-32526.30323,-32922.37615,-34513.44037,-44346.57626,-38433.93635,-68056.85974,0.104,0.79,0.566,192,0,0,0,0,0,0,0,0,0,1709547760,0, 2024-03-04 15:52:40.434
66,-81943.708,-46022.21948,-32567.09517,-32891.95542,-34551.05836,-44325.76678,-38502.15387,-68097.91989,0.104,0.79,0.566,192,0,0,0,0,0,0,0,0,0,1709547760,0, 2024-03-04 15:52:40.434
67,-81931.68276,-46041.6655,-32672.68481,-32885.42871,-34615.81136,-44318.23424,-38560.64839,-68108.02288,0.104,0.79,0.566,192,0,0,0,0,0,0,0,0,0,1709547760,0, 2024-03-04 15:52:40.434
68,-81963.48929,-46066.09596,-32690.38739,-32901.67843,-34615.20786,-44325.47621,-38527.05372,-68072.4389,0.104,0.79,0.566,192,0,0,0,0,0,0,0,0,0,1709547760,0, 2024-03-04 15:52:40.434
69,-82001.82253,-46066.31947,-32582.45082,-32917.05643,-34538.04964,-44337.34498,-38436.41739,-68050.15422,0.104,0.79,0.566,192,0,0,0,0,0,0,0,0,0,1709547760,0, 2024-03-04 15:52:40.434
70,-81993.97707,-46045.17472,-32511.41697,-32907.04285,-34501.90687,-44334.48396,-38423.36397,-68076.21635,0.1,0.792,0.564,192,3,32,24,192,17,160,0,0,0,1709547760,0, 2024-03-04 15:52:40.434
71,-81951.53111,-46027.36038,-32555.49461,-32877.5162,-34541.91649,-44312.6016,-38490.9333,-68101.33971,0.1,0.792,0.564,192,0,0,0,0,0,0,0,0,0,1709547760,0, 2024-03-04 15:52:40.434
72,-81932.71094,-46038.71507,-32657.32916,-32864.90981,-34604.7249,-44298.18473,-38546.85736,-68095.21533,0.1,0.792,0.564,192,0,0,0,0,0,0,0,0,0,1709547760,0, 2024-03-04 15:52:40.434
73,-81962.17054,-46056.48471,-32670.78491,-32874.78928,-34600.36631,-44297.84945,-38512.83801,-68055.6751,0.1,0.792,0.564,192,0,0,0,0,0,0,0,0,0,1709547760,0, 2024-03-04 15:52:40.434
74,-81997.86627,-46058.27285,-32568.86096,-32894.10119,-34531.74645,-44314.59091,-38433.73518,-68045.99679,0.1,0.792,0.564,192,0,0,0,0,0,0,0,0,0,1709547760,0, 2024-03-04 15:52:40.434
75,-81990.28903,-46039.25151,-32499.70466,-32890.30139,-34499.80581,-44315.7085,-38426.82849,-68058.82669,0.1,0.792,0.564,192,0,0,0,0,0,0,0,0,0,1709547760,0, 2024-03-04 15:52:40.434
76,-81953.31925,-46027.56155,-32546.91154,-32866.69795,-34542.96703,-44295.48017,-38498.73406,-68068.12502,0.1,0.792,0.564,192,0,0,0,0,0,0,0,0,0,1709547760,0, 2024-03-04 15:52:40.434
77,-81938.27652,-46041.062,-32653.90934,-32854.69506,-34610.37989,-44276.92822,-38562.7718,-68056.92679,0.1,0.792,0.564,192,0,0,0,0,0,0,0,0,0,1709547760,0, 2024-03-04 15:52:40.434
78,-81974.15107,-46066.40888,-32674.96469,-32873.58229,-34614.38085,-44285.10896,-38541.42589,-68029.76942,0.1,0.792,0.564,192,0,0,0,0,0,0,0,0,0,1709547760,0, 2024-03-04 15:52:40.434
79,-82005.46587,-46062.34086,-32568.61509,-32891.44133,-34539.39075,-44298.54236,-38458.54562,-68005.54013,0.1,0.792,0.564,192,0,0,0,0,0,0,0,0,0,1709547760,0, 2024-03-04 15:52:40.434
80,-82000.32496,-46041.59844,-32492.37329,-32884.42288,-34497.21301,-44297.26831,-38439.21136,-68010.72574,0.104,0.79,0.564,192,3,64,24,176,17,160,0,0,0,1709547760,0, 2024-03-04 15:52:40.435
81,-81962.72933,-46029.37204,-32539.40136,-32859.76891,-34537.26733,-44281.73384,-38508.45707,-68042.19699,0.104,0.79,0.564,192,0,0,0,0,0,0,0,0,0,1709547760,0, 2024-03-04 15:52:40.435
82,-81945.38438,-46043.94538,-32647.71791,-32854.87388,-34607.18359,-44276.99527,-38574.68528,-68061.35244,0.104,0.79,0.564,192,0,0,0,0,0,0,0,0,0,1709547760,0, 2024-03-04 15:52:40.435
83,-81972.69821,-46067.57117,-32676.26109,-32878.61143,-34616.3031,-44292.48503,-38554.88164,-68033.81509,0.104,0.79,0.564,192,0,0,0,0,0,0,0,0,0,1709547760,0, 2024-03-04 15:52:40.435
84,-82011.03145,-46072.06387,-32579.56744,-32906.52876,-34550.45486,-44319.17302,-38479.28804,-68021.40987,0.104,0.79,0.564,192,0,0,0,0,0,0,0,0,0,1709547760,0, 2024-03-04 15:52:40.435
85,-82001.82253,-46049.66742,-32502.92331,-32900.91847,-34512.63571,-44321.87758,-38463.48536,-68043.15812,0.104,0.79,0.564,192,0,0,0,0,0,0,0,0,0,1709547760,0, 2024-03-04 15:52:40.435
86,-81966.73029,-46040.48086,-32551.00191,-32885.04873,-34557.92034,-44315.99907,-38536.4638,-68084.46414,0.104,0.79,0.564,192,0,0,0,0,0,0,0,0,0,1709547760,0, 2024-03-04 15:52:40.435
87,-81946.23374,-46054.02601,-32655.13869,-32875.48219,-34624.10386,-44305.22553,-38598.55695,-68072.21539,0.104,0.79,0.564,192,0,0,0,0,0,0,0,0,0,1709547760,0, 2024-03-04 15:52:40.435
88,-81972.96643,-46069.67224,-32672.84127,-32886.16632,-34624.32738,-44307.23718,-38568.80678,-68041.10176,0.104,0.79,0.564,192,0,0,0,0,0,0,0,0,0,1709547760,0, 2024-03-04 15:52:40.435
89,-82008.75157,-46067.10178,-32569.01742,-32902.23722,-34552.35476,-44321.87758,-38482.77491,-68032.58574,0.104,0.79,0.564,192,0,0,0,0,0,0,0,0,0,1709547760,0, 2024-03-04 15:52:40.435
90,-82002.51544,-46050.82971,-32502.36452,-32906.34995,-34520.1459,-44334.931,-38472.58252,-68081.55842,0.108,0.79,0.566,192,3,96,24,176,17,176,0,0,0,1709547761,0, 2024-03-04 15:52:40.915
91,-81964.69628,-46037.19515,-32548.38676,-32884.75816,-34564.17883,-44322.1458,-38543.05757,-68125.85957,0.108,0.79,0.566,192,0,0,0,0,0,0,0,0,0,1709547761,0, 2024-03-04 15:52:40.915
92,-81947.46309,-46047.52166,-32651.45065,-32868.6202,-34629.22241,-44302.99035,-38604.16724,-68106.74883,0.108,0.79,0.566,192,0,0,0,0,0,0,0,0,0,1709547761,0, 2024-03-04 15:52:40.915
93,-81976.05097,-46065.64892,-32669.77908,-32878.09734,-34627.76955,-44299.90581,-38571.15371,-68051.24945,0.108,0.79,0.566,192,0,0,0,0,0,0,0,0,0,1709547761,0, 2024-03-04 15:52:40.915
94,-82011.50084,-46067.05708,-32568.7492,-32897.90099,-34553.80762,-44317.54134,-38485.92651,-68041.19117,0.108,0.79,0.566,192,0,0,0,0,0,0,0,0,0,1709547761,0, 2024-03-04 15:52:40.915
95,-82010.53971,-46052.23787,-32498.38591,-32899.66677,-34519.5871,-44329.11954,-38471.08495,-68082.94422,0.108,0.79,0.566,192,0,0,0,0,0,0,0,0,0,1709547761,0, 2024-03-04 15:52:40.915
96,-81971.04418,-46036.32343,-32535.02042,-32873.64934,-34554.7464,-44310.63465,-38535.1674,-68102.32319,0.108,0.79,0.566,192,0,0,0,0,0,0,0,0,0,1709547761,0, 2024-03-04 15:52:40.915
97,-81951.84403,-46054.00366,-32643.60519,-32867.43556,-34625.10969,-44301.64925,-38602.93789,-68104.31249,0.108,0.79,0.566,192,0,0,0,0,0,0,0,0,0,1709547761,0, 2024-03-04 15:52:40.915
98,-81978.24144,-46074.45551,-32665.53225,-32879.93018,-34627.63543,-44303.05741,-38579.04387,-68065.21929,0.108,0.79,0.566,192,0,0,0,0,0,0,0,0,0,1709547761,0, 2024-03-04 15:52:40.916
99,-82021.64853,-46078.97056,-32570.42558,-32899.66677,-34560.84842,-44315.73085,-38500.47749,-68036.05026,0.108,0.79,0.566,192,0,0,0,0,0,0,0,0,0,1709547761,0, 2024-03-04 15:52:40.916
100,-82007.63398,-46050.13681,-32486.07009,-32882.25477,-34512.63571,-44302.43156,-38473.67775,-68022.12513,0.102,0.79,0.572,192,3,48,24,176,17,224,0,0,0,1709547761,0, 2024-03-04 15:52:40.916
101,-81962.10348,-46026.9804,-32517.65311,-32851.43171,-34543.10114,-44280.07982,-38532.28403,-68049.23779,0.102,0.79,0.572,192,0,0,0,0,0,0,0,0,0,1709547761,0, 2024-03-04 15:52:40.916
102,-81953.16278,-46047.27579,-32632.11639,-32850.62705,-34620.46052,-44278.49284,-38607.38589,-68075.79167,0.102,0.79,0.572,192,0,0,0,0,0,0,0,0,0,1709547761,0, 2024-03-04 15:52:40.916
103,-81986.35512,-46075.86367,-32661.41953,-32870.78832,-34629.20006,-44288.75229,-38589.01275,-68051.09299,0.102,0.79,0.572,192,0,0,0,0,0,0,0,0,0,1709547761,0, 2024-03-04 15:52:40.916
104,-82023.34726,-46079.61876,-32564.12239,-32892.82714,-34563.01654,-44305.4714,-38506.11013,-68019.95701,0.102,0.79,0.572,192,0,0,0,0,0,0,0,0,0,1709547761,0, 2024-03-04 15:52:40.916
105,-82016.68644,-46057.22231,-32483.72316,-32886.12162,-34519.5424,-44305.60551,-38481.52321,-68024.22619,0.102,0.79,0.572,192,0,0,0,0,0,0,0,0,0,1709547761,0, 2024-03-04 15:52:40.916
106,-81975.62629,-46038.89388,-32520.87176,-32860.66298,-34556.37807,-44290.31691,-38543.81753,-68051.07064,0.102,0.79,0.572,192,0,0,0,0,0,0,0,0,0,1709547761,0, 2024-03-04 15:52:40.916
107,-81957.32021,-46054.76362,-32630.57412,-32856.79613,-34626.13787,-44287.96998,-38613.15264,-68072.84124,0.102,0.79,0.572,192,0,0,0,0,0,0,0,0,0,1709547761,0, 2024-03-04 15:52:40.916
108,-81990.5796,-46086.5478,-32660.81603,-32883.23824,-34635.74912,-44307.88539,-38595.62887,-68070.24843,0.102,0.79,0.572,192,0,0,0,0,0,0,0,0,0,1709547761,0, 2024-03-04 15:52:40.916
109,-82034.05375,-46100.60705,-32568.43627,-32916.63175,-34573.47716,-44338.44022,-38517.82245,-68068.08031,0.102,0.79,0.572,192,0,0,0,0,0,0,0,0,0,1709547761,0, 2024-03-04 15:52:40.916
110,-82032.93616,-46089.72175,-32494.11672,-32922.62202,-34535.94858,-44352.99121,-38500.14222,-68093.18132,0.102,0.786,0.576,192,3,48,24,144,18,0,0,0,0,1709547761,0, 2024-03-04 15:52:40.916
111,-81988.32208,-46067.8841,-32528.98544,-32893.20712,-34571.17493,-44332.69582,-38561.92244,-68114.99663,0.102,0.786,0.576,192,0,0,0,0,0,0,0,0,0,1709547761,0, 2024-03-04 15:52:40.916
112,-81968.63019,-46073.13676,-32637.61492,-32876.3092,-34639.70538,-44314.03212,-38628.06125,-68109.60986,0.102,0.786,0.576,192,0,0,0,0,0,0,0,0,0,1709547761,0, 2024-03-04 15:52:40.916
113,-81997.28513,-46100.51764,-32673.51182,-32899.53266,-34653.94344,-44328.76191,-38610.49278,-68091.46024,0.102,0.786,0.576,192,0,0,0,0,0,0,0,0,0,1709547761,0, 2024-03-04 15:52:40.916
114,-82032.1762,-46106.15028,-32579.43333,-32923.31492,-34588.25166,-44349.63844,-38531.72523,-68082.09486,0.102,0.786,0.576,192,0,0,0,0,0,0,0,0,0,1709547761,0, 2024-03-04 15:52:40.916
115,-82034.29962,-46089.94527,-32506.25372,-32926.10889,-34553.38294,-44360.14376,-38517.66598,-68134.53205,0.102,0.786,0.576,192,0,0,0,0,0,0,0,0,0,1709547761,0, 2024-03-04 15:52:40.916
116,-82001.82253,-46073.47203,-32545.0787,-32900.24792,-34587.80463,-44341.07773,-38580.02735,-68150.51355,0.102,0.786,0.576,192,0,0,0,0,0,0,0,0,0,1709547761,0, 2024-03-04 15:52:40.916
117,-81977.36972,-46077.31653,-32642.28644,-32878.63378,-34645.13685,-44314.83678,-38634.23033,-68104.78188,0.102,0.786,0.576,192,0,0,0,0,0,0,0,0,0,1709547761,0, 2024-03-04 15:52:40.916
118,-81998.02273,-46099.73533,-32669.46616,-32894.61528,-34652.73644,-44322.23521,-38614.29258,-68090.365,0.102,0.786,0.576,192,0,0,0,0,0,0,0,0,0,1709547761,0, 2024-03-04 15:52:40.916
119,-82029.20342,-46094.30386,-32563.76476,-32902.01371,-34576.22642,-44323.37514,-38523.87977,-68048.85781,0.102,0.786,0.576,192,0,0,0,0,0,0,0,0,0,1709547761,0, 2024-03-04 15:52:40.916
120,-82025.1801,-46068.75581,-32477.35291,-32892.246,-34526.94083,-44320.13414,-38494.62134,-68047.13673,0.1,0.786,0.574,192,3,32,24,144,17,240,0,0,0,1709547761,0, 2024-03-04 15:52:40.916
121,-81989.50672,-46056.03767,-32517.74252,-32873.35877,-34566.14579,-44311.3052,-38561.76598,-68086.78872,0.1,0.786,0.574,192,0,0,0,0,0,0,0,0,0,1709547761,0, 2024-03-04 15:52:40.916
122,-81973.50287,-46072.84618,-32629.99298,-32868.19552,-34636.50908,-44305.44905,-38634.36444,-68113.45436,0.1,0.786,0.574,192,0,0,0,0,0,0,0,0,0,1709547761,0, 2024-03-04 15:52:40.916
123,-82011.6573,-46108.3184,-32669.22029,-32897.4316,-34653.63051,-44327.57727,-38623.21092,-68126.01604,0.1,0.786,0.574,192,0,0,0,0,0,0,0,0,0,1709547761,0, 2024-03-04 15:52:40.916
124,-82052.78451,-46114.6663,-32574.80652,-32920.43154,-34587.87168,-44345.2128,-38546.87971,-68099.14924,0.1,0.786,0.574,192,0,0,0,0,0,0,0,0,0,1709547761,0, 2024-03-04 15:52:40.916
125,-82038.72526,-46087.26306,-32485.80187,-32906.70757,-34535.65801,-44331.71235,-38516.05666,-68064.23581,0.1,0.786,0.574,192,0,0,0,0,0,0,0,0,0,1709547761,0, 2024-03-04 15:52:40.916
126,-81992.4348,-46066.16301,-32511.8193,-32872.93409,-34560.84842,-44301.80571,-38567.28686,-68052.54585,0.1,0.786,0.574,192,0,0,0,0,0,0,0,0,0,1709547761,0, 2024-03-04 15:52:40.916
127,-81971.29005,-46070.18633,-32613.56445,-32851.02938,-34622.13691,-44278.04581,-38626.76485,-68053.64109,0.1,0.786,0.574,192,0,0,0,0,0,0,0,0,0,1709547761,0, 2024-03-04 15:52:40.916
128,-82010.85264,-46097.32134,-32648.54493,-32867.88259,-34631.43523,-44287.61235,-38604.94955,-68043.15812,0.1,0.786,0.574,192,0,0,0,0,0,0,0,0,0,1709547761,0, 2024-03-04 15:52:40.916
129,-82047.5095,-46097.79073,-32553.77353,-32888.51325,-34563.21771,-44305.96314,-38521.26462,-68030.23881,0.1,0.786,0.574,192,0,0,0,0,0,0,0,0,0,1709547761,0, 2024-03-04 15:52:40.916
130,-82035.39485,-46077.13772,-32472.59199,-32885.80869,-34523.02927,-44312.17692,-38499.56107,-68038.06192,0.108,0.786,0.576,192,3,96,24,144,18,0,0,0,0,1709547761,0, 2024-03-04 15:52:40.916
131,-81996.36871,-46061.84912,-32506.52194,-32861.5794,-34556.55689,-44298.40825,-38565.63283,-68065.80044,0.108,0.786,0.576,192,0,0,0,0,0,0,0,0,0,1709547761,0, 2024-03-04 15:52:40.916
132,-81978.44261,-46071.99682,-32613.85502,-32850.22472,-34624.17091,-44289.91458,-38638.38776,-68093.78482,0.108,0.786,0.576,192,0,0,0,0,0,0,0,0,0,1709547761,0, 2024-03-04 15:52:40.916
133,-82006.69521,-46097.79073,-32649.93073,-32874.29754,-34637.80548,-44309.22649,-38627.30129,-68099.75274,0.108,0.786,0.576,192,0,0,0,0,0,0,0,0,0,1709547761,0, 2024-03-04 15:52:40.916
134,-82039.19465,-46102.79752,-32559.31676,-32901.90195,-34572.98542,-44336.11564,-38552.91469,-68093.11427,0.108,0.786,0.576,192,0,0,0,0,0,0,0,0,0,1709547761,0, 2024-03-04 15:52:40.916
135,-82034.61254,-46086.10077,-32476.25768,-32901.63373,-34528.08076,-44341.94944,-38525.60085,-68093.62836,0.108,0.786,0.576,192,0,0,0,0,0,0,0,0,0,1709547761,0, 2024-03-04 15:52:40.916
136,-82004.21417,-46076.28835,-32509.7853,-32879.68431,-34562.27893,-44327.39846,-38584.96709,-68109.38634,0.108,0.786,0.576,192,0,0,0,0,0,0,0,0,0,1709547761,0, 2024-03-04 15:52:40.916
137,-81983.15882,-46086.65956,-32619.53236,-32868.28493,-34632.10578,-44316.75903,-38654.63747,-68127.93829,0.108,0.786,0.576,192,0,0,0,0,0,0,0,0,0,1709547761,0, 2024-03-04 15:52:40.916
138,-82005.68938,-46104.27274,-32652.45648,-32881.33834,-34642.96873,-44321.74347,-38639.25947,-68109.5428,0.108,0.786,0.576,192,0,0,0,0,0,0,0,0,0,1709547761,0, 2024-03-04 15:52:40.916
139,-82050.21406,-46112.67699,-32569.57621,-32911.42379,-34586.39647,-44348.36439,-38567.75624,-68107.39703,0.108,0.786,0.576,192,0,0,0,0,0,0,0,0,0,1709547761,0, 2024-03-04 15:52:40.916
140,-82048.89531,-46094.2368,-32487.67942,-32909.41213,-34541.38005,-44350.64427,-38541.31413,-68118.86348,0.108,0.786,0.576,192,0,0,0,0,0,0,0,0,0,1709547761,0, 2024-03-04 15:52:40.916
141,-82012.77489,-46081.38455,-32523.77749,-32887.61918,-34578.68511,-44335.82507,-38606.58122,-68146.0432,0.106,0.782,0.574,192,3,80,24,112,17,240,0,0,0,1709547761,0, 2024-03-04 15:52:40.916
142,-81991.04899,-46090.79463,-32632.40697,-32872.24118,-34649.6072,-44319.19537,-38679.3138,-68144.54563,0.106,0.782,0.574,192,0,0,0,0,0,0,0,0,0,1709547761,0, 2024-03-04 15:52:40.916
143,-82017.75933,-46109.10071,-32665.30873,-32881.49481,-34660.17957,-44318.3013,-38662.05825,-68116.40479,0.106,0.782,0.574,192,0,0,0,0,0,0,0,0,0,1709547761,0, 2024-03-04 15:52:40.916
144,-82052.18101,-46108.13959,-32567.25163,-32896.69399,-34591.2915,-44327.95725,-38577.00987,-68095.21533,0.106,0.782,0.574,192,0,0,0,0,0,0,0,0,0,1709547761,0, 2024-03-04 15:52:40.916
145,-82052.76216,-46094.75089,-32485.93598,-32900.53849,-34548.33145,-44336.8756,-38554.4346,-68117.65648,0.106,0.782,0.574,192,0,0,0,0,0,0,0,0,0,1709547761,0, 2024-03-04 15:52:40.916
146,-82015.99354,-46080.42342,-32514.76973,-32874.65517,-34574.97472,-44316.26729,-38610.53748,-68119.26581,0.106,0.782,0.574,192,0,0,0,0,0,0,0,0,0,1709547761,0, 2024-03-04 15:52:40.916
147,-81996.45811,-46092.2922,-32625.36617,-32863.54636,-34646.07562,-44304.93496,-38680.34198,-68136.09667,0.106,0.782,0.574,192,0,0,0,0,0,0,0,0,0,1709547761,0, 2024-03-04 15:52:40.916
148,-82026.07417,-46116.0521,-32664.43702,-32880.24311,-34659.75489,-44312.31103,-38664.44989,-68113.52141,0.106,0.782,0.574,192,0,0,0,0,0,0,0,0,0,1709547761,0, 2024-03-04 15:52:40.916
149,-82062.86515,-46119.38251,-32571.54317,-32899.64442,-34588.20696,-44324.26921,-38575.62406,-68065.97925,0.106,0.782,0.574,192,0,0,0,0,0,0,0,0,0,1709547761,0, 2024-03-04 15:52:40.916
150,-82057.25486,-46097.47781,-32488.7076,-32895.03996,-34542.07296,-44323.37514,-38547.50556,-68074.04823,0.106,0.782,0.574,192,0,0,0,0,0,0,0,0,0,1709547761,0, 2024-03-04 15:52:40.916
151,-82011.81376,-46073.49438,-32511.86401,-32864.1722,-34567.77746,-44299.90581,-38603.40728,-68097.3164,0.108,0.788,0.58,192,3,96,24,160,18,32,0,0,0,1709547761,0, 2024-03-04 15:52:40.916
152,-81991.51838,-46084.87142,-32617.65481,-32851.45406,-34634.05039,-44284.77368,-38671.55774,-68092.66723,0.108,0.788,0.58,192,0,0,0,0,0,0,0,0,0,1709547761,0, 2024-03-04 15:52:40.916
153,-82011.50084,-46104.22803,-32647.71791,-32859.27717,-34638.99012,-44281.62209,-38649.45187,-68043.5381,0.108,0.788,0.58,192,0,0,0,0,0,0,0,0,0,1709547761,0, 2024-03-04 15:52:40.916
154,-82054.23737,-46113.23579,-32556.47809,-32883.61822,-34571.4655,-44303.03506,-38562.83886,-68021.70044,0.108,0.788,0.58,192,0,0,0,0,0,0,0,0,0,1709547761,0, 2024-03-04 15:52:40.916
155,-82058.35009,-46102.70811,-32474.82717,-32892.06718,-34527.03023,-44320.87175,-38535.05564,-68066.24747,0.108,0.788,0.58,192,0,0,0,0,0,0,0,0,0,1709547761,0, 2024-03-04 15:52:40.916
156,-82021.71558,-46090.63817,-32507.79599,-32876.66683,-34562.81538,-44316.37905,-38599.13809,-68115.26485,0.108,0.788,0.58,192,0,0,0,0,0,0,0,0,0,1709547761,0, 2024-03-04 15:52:40.916
157,-82000.50378,-46100.24942,-32614.19029,-32865.22274,-34632.39636,-44305.69491,-38671.69186,-68124.47377,0.108,0.788,0.58,192,0,0,0,0,0,0,0,0,0,1709547761,0, 2024-03-04 15:52:40.916
158,-82026.23064,-46124.2552,-32654.44579,-32882.90297,-34646.12033,-44315.55203,-38658.99606,-68096.08705,0.108,0.788,0.58,192,0,0,0,0,0,0,0,0,0,1709547761,0, 2024-03-04 15:52:40.916
159,-82069.81654,-46131.31835,-32565.08351,-32905.67939,-34578.23808,-44334.08163,-38574.88645,-68053.10465,0.108,0.788,0.58,192,0,0,0,0,0,0,0,0,0,1709547761,0, 2024-03-04 15:52:40.916
160,-82073.32576,-46116.72266,-32480.3704,-32905.7241,-34532.23819,-44341.63652,-38547.43851,-68061.03951,0.108,0.788,0.58,192,0,0,0,0,0,0,0,0,0,1709547761,0, 2024-03-04 15:52:40.916
161,-82034.83606,-46101.8364,-32513.31687,-32885.56282,-34566.70458,-44333.58989,-38613.21969,-68115.13074,0.102,0.784,0.572,192,3,48,24,128,17,224,0,0,0,1709547761,0, 2024-03-04 15:52:40.916
162,-82012.77489,-46112.56523,-32626.48375,-32876.46566,-34642.16407,-44325.07388,-38692.52368,-68145.93144,0.102,0.784,0.572,192,0,0,0,0,0,0,0,0,0,1709547761,0, 2024-03-04 15:52:40.916
163,-82034.09845,-46130.02195,-32664.34761,-32886.09927,-34653.13878,-44325.58797,-38680.11846,-68112.24736,0.102,0.784,0.572,192,0,0,0,0,0,0,0,0,0,1709547761,0, 2024-03-04 15:52:40.916
164,-82072.78932,-46137.86741,-32577.30992,-32913.16723,-34594.24193,-44348.14088,-38600.61331,-68094.32126,0.102,0.784,0.572,192,0,0,0,0,0,0,0,0,0,1709547761,0, 2024-03-04 15:52:40.916
165,-82072.36464,-46118.64491,-32494.20613,-32913.21193,-34554.61229,-44353.88528,-38577.34514,-68116.40479,0.102,0.784,0.572,192,0,0,0,0,0,0,0,0,0,1709547761,0, 2024-03-04 15:52:40.916
166,-82036.82536,-46095.57791,-32522.03405,-32885.04873,-34585.61416,-44334.81924,-38639.43829,-68153.70985,0.102,0.784,0.572,192,0,0,0,0,0,0,0,0,0,1709547761,0, 2024-03-04 15:52:40.916
167,-82017.17818,-46103.84805,-32636.0056,-32875.10221,-34660.4478,-44325.63267,-38720.9551,-68189.00325,0.102,0.784,0.572,192,0,0,0,0,0,0,0,0,0,1709547761,0, 2024-03-04 15:52:40.916
168,-82042.61447,-46128.90436,-32683.61481,-32892.20129,-34682.01723,-44332.69582,-38720.39631,-68165.98095,0.102,0.784,0.572,192,0,0,0,0,0,0,0,0,0,1709547761,0, 2024-03-04 15:52:40.916
169,-82086.06626,-46136.5263,-32595.86186,-32913.92719,-34616.23604,-44346.5539,-38639.77356,-68118.03646,0.102,0.784,0.572,192,0,0,0,0,0,0,0,0,0,1709547761,0, 2024-03-04 15:52:40.916
170,-82080.45597,-46115.04628,-32499.45879,-32906.75228,-34559.9767,-44342.19531,-38599.45102,-68098.74691,0.102,0.784,0.572,192,0,0,0,0,0,0,0,0,0,1709547761,0, 2024-03-04 15:52:40.916
171,-82038.47939,-46095.75672,-32522.32462,-32880.1984,-34587.93874,-44320.17884,-38658.95136,-68123.28912,0.1,0.794,0.568,192,3,32,24,208,17,192,0,0,0,1709547761,0, 2024-03-04 15:52:40.916
172,-82016.95466,-46112.34172,-32639.11249,-32874.3199,-34663.66645,-44313.29451,-38744.49149,-68151.69819,0.1,0.794,0.568,192,0,0,0,0,0,0,0,0,0,1709547761,0, 2024-03-04 15:52:40.916
173,-82043.665,-46134.42524,-32676.23874,-32884.48994,-34673.9706,-44312.42279,-38733.8297,-68112.26971,0.1,0.794,0.568,192,0,0,0,0,0,0,0,0,0,1709547761,0, 2024-03-04 15:52:40.916
174,-82089.8437,-46139.90142,-32587.21174,-32904.13712,-34607.83179,-44324.24686,-38650.16713,-68069.93551,0.1,0.794,0.568,192,0,0,0,0,0,0,0,0,0,1709547761,0, 2024-03-04 15:52:40.916
175,-82085.61922,-46121.95297,-32499.12351,-32904.18183,-34558.38973,-44327.48787,-38618.36059,-68068.16972,0.1,0.794,0.568,192,0,0,0,0,0,0,0,0,0,1709547761,0, 2024-03-04 15:52:40.916
176,-82038.09941,-46099.55652,-32518.88246,-32873.87286,-34582.08258,-44306.05254,-38673.5694,-68082.72071,0.1,0.794,0.568,192,0,0,0,0,0,0,0,0,0,1709547761,0, 2024-03-04 15:52:40.916
177,-82019.18984,-46108.16194,-32622.75101,-32855.92441,-34648.82489,-44291.88154,-38742.41277,-68097.67402,0.1,0.794,0.568,192,0,0,0,0,0,0,0,0,0,1709547761,0, 2024-03-04 15:52:40.916
178,-82046.2578,-46134.11231,-32663.09591,-32869.13429,-34660.55955,-44298.89998,-38723.74907,-68056.68092,0.1,0.794,0.568,192,0,0,0,0,0,0,0,0,0,1709547761,0, 2024-03-04 15:52:40.916
179,-82077.25967,-46141.17547,-32574.80652,-32894.10119,-34595.51598,-44323.17398,-38635.6832,-68048.56724,0.1,0.794,0.568,192,0,0,0,0,0,0,0,0,0,1709547761,0, 2024-03-04 15:52:40.916
180,-82078.80194,-46124.2552,-32486.91946,-32898.88446,-34549.67255,-44337.21087,-38598.71341,-68091.28142,0.1,0.794,0.568,192,0,0,0,0,0,0,0,0,0,1709547761,0, 2024-03-04 15:52:40.916
181,-82050.147,-46108.63133,-32511.03699,-32879.5502,-34580.96499,-44327.86785,-38655.41979,-68127.4689,0.096,0.786,0.568,192,3,0,24,144,17,192,0,0,0,1709547761,0, 2024-03-04 15:52:40.916
182,-82021.15679,-46115.42626,-32613.72091,-32862.38406,-34643.61693,-44308.64534,-38721.20097,-68114.0802,0.096,0.786,0.568,192,0,0,0,0,0,0,0,0,0,1709547761,0, 2024-03-04 15:52:40.916
183,-82044.91669,-46141.73426,-32661.6654,-32881.56186,-34662.54886,-44321.4976,-38712.72966,-68096.35527,0.096,0.786,0.568,192,0,0,0,0,0,0,0,0,0,1709547761,0, 2024-03-04 15:52:40.916
184,-82083.33934,-46143.61181,-32573.80069,-32900.82906,-34597.79586,-44338.01554,-38626.7425,-68063.72172,0.096,0.786,0.568,192,0,0,0,0,0,0,0,0,0,1709547761,0, 2024-03-04 15:52:40.916
185,-82084.59104,-46125.41749,-32482.22559,-32900.33733,-34547.32562,-44343.29055,-38591.31498,-68072.52831,0.096,0.786,0.568,192,0,0,0,0,0,0,0,0,0,1709547761,0, 2024-03-04 15:52:40.916
186,-82049.76702,-46108.3184,-32508.75712,-32879.77372,-34583.53544,-44332.60641,-38655.50919,-68114.70605,0.096,0.786,0.568,192,0,0,0,0,0,0,0,0,0,1709547761,0, 2024-03-04 15:52:40.916
187,-82028.86814,-46116.43208,-32615.5314,-32863.70282,-34651.61886,-44315.93201,-38727.23594,-68129.43585,0.096,0.786,0.568,192,0,0,0,0,0,0,0,0,0,1709547761,0, 2024-03-04 15:52:40.916
188,-82048.13535,-46137.15215,-32658.78202,-32875.34808,-34665.5887,-44319.06126,-38716.06007,-68104.62542,0.096,0.786,0.568,192,0,0,0,0,0,0,0,0,0,1709547761,0, 2024-03-04 15:52:40.916
189,-82083.56286,-46143.00831,-32575.92411,-32901.45491,-34603.76377,-44339.13312,-38638.03013,-68091.70611,0.096,0.786,0.568,192,0,0,0,0,0,0,0,0,0,1709547761,0, 2024-03-04 15:52:40.916
190,-82087.72029,-46122.98115,-32482.15854,-32900.22557,-34551.46069,-44339.08842,-38604.77073,-68073.06475,0.096,0.786,0.568,192,0,0,0,0,0,0,0,0,0,1709547761,0, 2024-03-04 15:52:40.916
191,-82063.93803,-46109.25717,-32507.25955,-32881.49481,-34584.02718,-44328.6278,-38667.825,-68109.20752,0.098,0.784,0.572,192,3,16,24,128,17,224,0,0,0,1709547761,0, 2024-03-04 15:52:40.916
192,-82034.05375,-46112.45347,-32611.6869,-32863.41224,-34649.76366,-44310.79111,-38739.61881,-68117.09769,0.098,0.784,0.572,192,0,0,0,0,0,0,0,0,0,1709547761,0, 2024-03-04 15:52:40.916
193,-82044.3132,-46126.95976,-32653.3729,-32869.51427,-34663.57704,-44306.27606,-38724.7549,-68072.12598,0.098,0.784,0.572,192,0,0,0,0,0,0,0,0,0,1709547761,0, 2024-03-04 15:52:40.916
194,-82091.25186,-46142.76244,-32577.04169,-32897.94569,-34610.53635,-44328.18077,-38650.74827,-68048.54489,0.098,0.784,0.572,192,0,0,0,0,0,0,0,0,0,1709547761,0, 2024-03-04 15:52:40.916
195,-82101.26544,-46129.23963,-32489.48991,-32901.45491,-34561.8319,-44335.93682,-38620.10403,-68067.65563,0.098,0.784,0.572,192,0,0,0,0,0,0,0,0,0,1709547761,0, 2024-03-04 15:52:40.916
196,-82063.37924,-46108.78779,-32511.66284,-32878.54438,-34590.21861,-44320.11179,-38679.71613,-68092.37666,0.098,0.784,0.572,192,0,0,0,0,0,0,0,0,0,1709547761,0, 2024-03-04 15:52:40.916
197,-82036.53479,-46117.41556,-32621.56637,-32865.66977,-34661.23011,-44307.88539,-38754.59448,-68091.16967,0.098,0.784,0.572,192,0,0,0,0,0,0,0,0,0,1709547761,0, 2024-03-04 15:52:40.916
198,-82067.62607,-46147.74688,-32672.46129,-32882.23241,-34681.72666,-44315.32852,-38746.34668,-68057.17266,0.098,0.784,0.572,192,0,0,0,0,0,0,0,0,0,1709547761,0, 2024-03-04 15:52:40.916
199,-82111.97193,-46153.44657,-32587.79288,-32899.64442,-34616.19134,-44325.11858,-38662.5947,-68015.24079,0.098,0.784,0.572,192,0,0,0,0,0,0,0,0,0,1709547761,0, 2024-03-04 15:52:40.916
200,-82115.34704,-46136.61571,-32497.80476,-32903.60068,-34565.0729,-44336.2721,-38625.87078,-68037.07844,0.098,0.784,0.572,192,0,0,0,0,0,0,0,0,0,1709547761,0, 2024-03-04 15:52:40.916
201,-82077.10321,-46120.23188,-32518.52483,-32885.60753,-34590.0398,-44328.78427,-38683.42652,-68070.42725,0.106,0.782,0.568,192,3,80,24,112,17,192,0,0,0,1709547761,0, 2024-03-04 15:52:40.916
202,-82052.0469,-46125.46219,-32617.00661,-32865.02157,-34650.18834,-44308.33242,-38749.67709,-68055.29512,0.106,0.782,0.568,192,0,0,0,0,0,0,0,0,0,1709547761,0, 2024-03-04 15:52:40.916
203,-82072.29758,-46149.28915,-32660.01137,-32876.3092,-34668.56148,-44313.00393,-38739.28353,-68036.69846,0.106,0.782,0.568,192,0,0,0,0,0,0,0,0,0,1709547761,0, 2024-03-04 15:52:40.916
204,-82115.57056,-46165.04713,-32577.82401,-32905.36647,-34608.23412,-44340.65304,-38657.63261,-68029.85883,0.106,0.782,0.568,192,0,0,0,0,0,0,0,0,0,1709547761,0, 2024-03-04 15:52:40.916
205,-82119.9515,-46148.81976,-32482.58322,-32907.28872,-34551.48304,-44350.59957,-38616.86303,-68041.14646,0.106,0.782,0.568,192,0,0,0,0,0,0,0,0,0,1709547761,0, 2024-03-04 15:52:40.916
206,-82078.2655,-46124.59047,-32492.19447,-32878.56673,-34570.862,-44333.29932,-38665.58983,-68065.15224,0.106,0.782,0.568,192,0,0,0,0,0,0,0,0,0,1709547761,0, 2024-03-04 15:52:40.916
207,-82055.8914,-46138.49326,-32601.87448,-32869.78249,-34644.62276,-44329.11954,-38744.58089,-68095.10357,0.106,0.782,0.568,192,0,0,0,0,0,0,0,0,0,1709547761,0, 2024-03-04 15:52:40.916
208,-82072.49875,-46157.84987,-32653.35055,-32879.99724,-34667.93563,-44332.87464,-38742.14455,-68079.03267,0.106,0.782,0.568,192,0,0,0,0,0,0,0,0,0,1709547761,0, 2024-03-04 15:52:40.916
209,-82107.21101,-46161.71672,-32573.59953,-32903.8689,-34610.42459,-44353.01356,-38669.14376,-68066.73921,0.106,0.782,0.568,192,0,0,0,0,0,0,0,0,0,1709547761,0, 2024-03-04 15:52:40.916
210,-82111.88252,-46144.01414,-32481.08566,-32908.62982,-34559.84259,-44364.01062,-38636.59962,-68092.8237,0.106,0.782,0.568,192,0,0,0,0,0,0,0,0,0,1709547761,0, 2024-03-04 15:52:41.396
211,-82082.57938,-46125.73041,-32495.72605,-32883.08178,-34581.56849,-44345.79394,-38691.65196,-68103.57488,0.108,0.794,0.568,192,3,96,24,208,17,192,0,0,0,1709547761,0, 2024-03-04 15:52:41.396
212,-82060.04883,-46126.69154,-32594.09608,-32859.05365,-34644.89098,-44321.20703,-38763.11049,-68096.01999,0.108,0.794,0.568,192,0,0,0,0,0,0,0,0,0,1709547761,0, 2024-03-04 15:52:41.396
213,-82078.08668,-46149.2668,-32642.64406,-32871.28006,-34667.44389,-44324.38097,-38755.62266,-68088.01807,0.108,0.794,0.568,192,0,0,0,0,0,0,0,0,0,1709547761,0, 2024-03-04 15:52:41.396
214,-82118.76686,-46161.20263,-32565.06116,-32897.05162,-34610.5587,-44342.93292,-38668.36145,-68061.57596,0.108,0.794,0.568,192,0,0,0,0,0,0,0,0,0,1709547761,0, 2024-03-04 15:52:41.396
215,-82118.40923,-46136.4816,-32461.63964,-32885.38401,-34548.42085,-44333.76871,-38613.46556,-68033.01043,0.108,0.794,0.568,192,0,0,0,0,0,0,0,0,0,1709547761,0, 2024-03-04 15:52:41.396
216,-82094.69403,-46123.45053,-32482.02443,-32866.0274,-34577.52282,-44324.62684,-38668.87554,-68081.44666,0.108,0.794,0.568,192,0,0,0,0,0,0,0,0,0,1709547761,0, 2024-03-04 15:52:41.396
217,-82093.62115,-46143.09772,-32603.9532,-32863.34519,-34660.55955,-44325.81148,-38757.23198,-68134.53205,0.108,0.794,0.568,192,0,0,0,0,0,0,0,0,0,1709547761,0, 2024-03-04 15:52:41.396
218,-82121.2032,-46167.39406,-32660.83838,-32876.89035,-34688.0969,-44329.58893,-38753.25337,-68112.58264,0.108,0.794,0.568,192,0,0,0,0,0,0,0,0,0,1709547761,0, 2024-03-04 15:52:41.396
219,-82155.73664,-46170.67977,-32580.39446,-32895.44229,-34625.06498,-44339.02137,-38666.14862,-68060.03369,0.108,0.794,0.568,192,0,0,0,0,0,0,0,0,0,1709547761,0, 2024-03-04 15:52:41.396
220,-82173.171,-46159.07921,-32489.46756,-32902.84072,-34572.98542,-44347.71619,-38625.58021,-68060.9054,0.108,0.794,0.568,192,0,0,0,0,0,0,0,0,0,1709547761,0, 2024-03-04 15:52:41.396
221,-82146.48302,-46146.09285,-32511.52873,-32890.18963,-34603.69672,-44342.10591,-38681.34781,-68114.01315,0.1,0.792,0.57,192,3,32,24,192,17,208,0,0,0,1709547761,0, 2024-03-04 15:52:41.396
222,-82116.84461,-46153.04424,-32623.46627,-32876.9127,-34675.35641,-44326.95142,-38756.18145,-68123.11031,0.1,0.792,0.57,192,0,0,0,0,0,0,0,0,0,1709547761,0, 2024-03-04 15:52:41.396
223,-82140.02337,-46178.63699,-32677.17751,-32889.94377,-34698.46811,-44328.24782,-38751.42053,-68079.09972,0.1,0.792,0.57,192,0,0,0,0,0,0,0,0,0,1709547761,0, 2024-03-04 15:52:41.396
224,-82188.70547,-46193.47855,-32600.57808,-32917.77169,-34641.8735,-44350.19724,-38678.24092,-68061.71007,0.1,0.792,0.57,192,0,0,0,0,0,0,0,0,0,1709547761,0, 2024-03-04 15:52:41.396
225,-82194.42751,-46176.06654,-32499.92818,-32917.61523,-34583.06606,-44354.35466,-38635.25851,-68071.56719,0.1,0.792,0.57,192,0,0,0,0,0,0,0,0,0,1709547761,0, 2024-03-04 15:52:41.396
226,-82149.43345,-46152.57486,-32504.97967,-32888.4909,-34594.73367,-44333.79106,-38679.13499,-68073.10946,0.1,0.792,0.57,192,0,0,0,0,0,0,0,0,0,1709547761,0, 2024-03-04 15:52:41.396
227,-82119.41506,-46157.15696,-32605.18254,-32868.6649,-34655.23984,-44314.72502,-38749.92296,-68065.17459,0.1,0.792,0.57,192,0,0,0,0,0,0,0,0,0,1709547761,0, 2024-03-04 15:52:41.396
228,-82146.37126,-46184.00141,-32661.50894,-32884.22172,-34679.53619,-44324.60449,-38753.27572,-68066.22512,0.1,0.792,0.57,192,0,0,0,0,0,0,0,0,0,1709547761,0, 2024-03-04 15:52:41.396
229,-82189.1078,-46195.60196,-32584.90951,-32912.02729,-34620.59464,-44349.77255,-38676.54218,-68054.73632,0.1,0.792,0.57,192,0,0,0,0,0,0,0,0,0,1709547761,0, 2024-03-04 15:52:41.396
230,-82200.59659,-46185.29781,-32488.72995,-32919.11279,-34565.27407,-44365.06115,-38631.39166,-68055.29512,0.1,0.792,0.57,192,0,0,0,0,0,0,0,0,0,1709547761,0, 2024-03-04 15:52:41.396
231,-82167.9854,-46169.7857,-32502.47628,-32899.51031,-34584.87655,-44360.03201,-38677.3692,-68103.55253,0.096,0.794,0.568,192,3,0,24,208,17,192,0,0,0,1709547761,0, 2024-03-04 15:52:41.396
232,-82131.26148,-46168.73517,-32605.20489,-32877.71736,-34650.34481,-44340.92126,-38747.33016,-68102.5467,0.096,0.794,0.568,192,0,0,0,0,0,0,0,0,0,1709547761,0, 2024-03-04 15:52:41.396
233,-82141.63269,-46185.09664,-32661.57599,-32884.24407,-34678.30684,-44342.37413,-38745.94435,-68068.5944,0.096,0.794,0.568,192,0,0,0,0,0,0,0,0,0,1709547761,0, 2024-03-04 15:52:41.396
234,-82184.27982,-46194.68554,-32588.30697,-32906.77463,-34622.78511,-44361.32841,-38668.02617,-68052.38939,0.096,0.794,0.568,192,0,0,0,0,0,0,0,0,0,1709547761,0, 2024-03-04 15:52:41.396
235,-82195.96978,-46182.86147,-32491.70273,-32911.24498,-34569.85618,-44371.18553,-38627.74833,-68068.79557,0.096,0.794,0.568,192,0,0,0,0,0,0,0,0,0,1709547761,0, 2024-03-04 15:52:41.396
236,-82159.6035,-46161.31439,-32502.94566,-32888.58031,-34592.65495,-44359.18264,-38681.37016,-68114.19196,0.096,0.794,0.568,192,0,0,0,0,0,0,0,0,0,1709547761,0, 2024-03-04 15:52:41.396
237,-82122.00786,-46159.63801,-32605.54017,-32868.39668,-34658.25732,-44340.18366,-38755.95793,-68138.04127,0.096,0.794,0.568,192,0,0,0,0,0,0,0,0,0,1709547761,0, 2024-03-04 15:52:41.396
238,-82140.49275,-46181.72153,-32657.84325,-32874.00697,-34680.60907,-44336.13799,-38750.74998,-68111.64386,0.096,0.794,0.568,192,0,0,0,0,0,0,0,0,0,1709547761,0, 2024-03-04 15:52:41.396
239,-82184.81626,-46191.26573,-32578.3381,-32891.21781,-34617.73361,-44344.31873,-38666.97564,-68066.47099,0.096,0.794,0.568,192,0,0,0,0,0,0,0,0,0,1709547761,0, 2024-03-04 15:52:41.396
240,-82191.18651,-46177.89938,-32484.03609,-32899.24209,-34566.41401,-44354.91346,-38628.84356,-68084.5759,0.096,0.794,0.568,192,0,0,0,0,0,0,0,0,0,1709547761,0, 2024-03-04 15:52:41.396
241,-82159.87172,-46160.97911,-32500.64343,-32882.34417,-34594.89013,-44345.88335,-38687.15926,-68130.7099,0.1,0.792,0.566,192,3,32,24,192,17,176,0,0,0,1709547761,0, 2024-03-04 15:52:41.396
242,-82137.94466,-46167.63993,-32607.26125,-32863.32284,-34664.67228,-44324.49273,-38764.04926,-68120.3834,0.1,0.792,0.566,192,0,0,0,0,0,0,0,0,0,1709547761,0, 2024-03-04 15:52:41.396
243,-82157.83771,-46190.23754,-32665.4652,-32872.93409,-34690.62265,-44322.8387,-38765.99387,-68093.82952,0.1,0.792,0.566,192,0,0,0,0,0,0,0,0,0,1709547761,0, 2024-03-04 15:52:41.396
244,-82190.60537,-46193.00916,-32587.74818,-32890.70372,-34629.7365,-44331.15355,-38684.32059,-68059.38549,0.1,0.792,0.566,192,0,0,0,0,0,0,0,0,0,1709547761,0, 2024-03-04 15:52:41.396
245,-82197.24383,-46176.37946,-32488.7523,-32894.36941,-34573.94654,-44337.45674,-38639.59475,-68063.67702,0.1,0.792,0.566,192,0,0,0,0,0,0,0,0,0,1709547761,0, 2024-03-04 15:52:41.396
246,-82162.97861,-46156.15113,-32498.54237,-32873.82816,-34594.80072,-44323.77748,-38688.38861,-68097.3164,0.1,0.792,0.566,192,0,0,0,0,0,0,0,0,0,1709547761,0, 2024-03-04 15:52:41.396
247,-82133.09433,-46161.60496,-32605.20489,-32861.66881,-34662.92884,-44313.02629,-38766.53031,-68126.48542,0.1,0.792,0.566,192,0,0,0,0,0,0,0,0,0,1709547761,0, 2024-03-04 15:52:41.396
248,-82154.19437,-46190.9975,-32675.0988,-32882.56769,-34699.67511,-44325.31975,-38780.20957,-68115.42131,0.1,0.792,0.566,192,0,0,0,0,0,0,0,0,0,1709547761,0, 2024-03-04 15:52:41.396
249,-82198.33907,-46205.59319,-32608.4459,-32909.97093,-34648.57902,-44345.57043,-38708.1699,-68078.65269,0.1,0.792,0.566,192,0,0,0,0,0,0,0,0,0,1709547761,0, 2024-03-04 15:52:41.396
250,-82209.17966,-46193.83618,-32503.32564,-32911.44614,-34582.08258,-44349.52669,-38650.10007,-68045.19213,0.1,0.792,0.566,192,0,0,0,0,0,0,0,0,0,1709547761,0, 2024-03-04 15:52:41.396
251,-82168.41008,-46166.79056,-32501.35869,-32879.10317,-34591.67148,-44325.9903,-38687.31572,-68057.82086,0.1,0.79,0.57,192,3,32,24,176,17,208,0,0,0,1709547761,0, 2024-03-04 15:52:41.396
252,-82135.08363,-46166.49999,-32605.49547,-32859.65715,-34657.22914,-44311.70753,-38766.28444,-68095.75177,0.1,0.79,0.57,192,0,0,0,0,0,0,0,0,0,1709547761,0, 2024-03-04 15:52:41.396
253,-82156.83188,-46192.2045,-32667.43215,-32874.29754,-34687.89574,-44321.4976,-38772.56528,-68094.29891,0.1,0.79,0.57,192,0,0,0,0,0,0,0,0,0,1709547761,0, 2024-03-04 15:52:41.396
254,-82207.23506,-46210.37647,-32600.1534,-32904.78532,-34637.33609,-44348.05147,-38701.30792,-68068.08031,0.1,0.79,0.57,192,0,0,0,0,0,0,0,0,0,1709547761,0, 2024-03-04 15:52:41.396
255,-82212.19715,-46192.60683,-32495.50253,-32906.28289,-34572.82896,-44357.72978,-38650.77062,-68066.47099,0.1,0.79,0.57,192,0,0,0,0,0,0,0,0,0,1709547761,0, 2024-03-04 15:52:41.396
0,-82167.71718,-46165.60592,-32495.07785,-32879.5055,-34582.41786,-44343.2682,-38690.892,-68102.59141,0.1,0.79,0.57,192,0,0,0,0,0,0,0,0,0,1709547761,0, 2024-03-04 15:52:41.396
1,-82146.05834,-46177.34059,-32607.35066,-32875.14691,-34659.03964,-44345.34691,-38776.43213,-68158.15784,0.1,0.79,0.57,192,0,0,0,0,0,0,0,0,0,1709547761,0, 2024-03-04 15:52:41.396
2,-82171.1817,-46203.40272,-32670.76256,-32890.63667,-34691.98611,-44354.64523,-38786.28925,-68144.188,0.1,0.79,0.57,192,0,0,0,0,0,0,0,0,0,1709547761,0, 2024-03-04 15:52:41.396
3,-82204.66461,-46208.2307,-32596.82299,-32908.13809,-34634.05039,-44363.56358,-38705.08536,-68079.14443,0.1,0.79,0.57,192,0,0,0,0,0,0,0,0,0,1709547761,0, 2024-03-04 15:52:41.396
4,-82212.48772,-46190.3046,-32493.42382,-32906.3723,-34571.75607,-44364.59176,-38654.45866,-68068.41559,0.1,0.79,0.57,192,0,0,0,0,0,0,0,0,0,1709547761,0, 2024-03-04 15:52:41.396
5,-82180.23416,-46171.93147,-32499.97288,-32884.15466,-34590.01745,-44351.98538,-38704.8842,-68102.65846,0.104,0.794,0.568,192,3,64,24,208,17,192,0,0,0,1709547761,0, 2024-03-04 15:52:41.396
6,-82146.30421,-46175.79832,-32606.52365,-32868.44139,-34661.49833,-44340.85421,-38786.66923,-68133.23565,0.104,0.794,0.568,192,0,0,0,0,0,0,0,0,0,1709547761,0, 2024-03-04 15:52:41.396
7,-82158.10593,-46195.73607,-32667.65567,-32878.41027,-34692.05316,-44344.45284,-38793.9559,-68130.73225,0.104,0.794,0.568,192,0,0,0,0,0,0,0,0,0,1709547761,0, 2024-03-04 15:52:41.396
8,-82195.00866,-46205.6826,-32592.97849,-32899.55502,-34636.46437,-44358.06505,-38717.49058,-68095.84118,0.104,0.794,0.568,192,0,0,0,0,0,0,0,0,0,1709547761,0, 2024-03-04 15:52:41.396
9,-82205.55868,-46187.95767,-32485.556,-32895.71052,-34572.47133,-44357.08158,-38661.94649,-68078.40682,0.104,0.794,0.568,192,0,0,0,0,0,0,0,0,0,1709547761,0, 2024-03-04 15:52:41.396
10,-82179.5636,-46168.19872,-32492.48505,-32873.15761,-34594.51015,-44344.65401,-38713.75784,-68117.1871,0.104,0.794,0.568,192,0,0,0,0,0,0,0,0,0,1709547761,0, 2024-03-04 15:52:41.396
11,-82150.52869,-46168.26578,-32601.13688,-32852.16932,-34668.06974,-44324.33627,-38797.28631,-68143.18218,0.104,0.794,0.568,192,0,0,0,0,0,0,0,0,0,1709547761,0, 2024-03-04 15:52:41.396
12,-82167.65012,-46191.24337,-32667.83448,-32863.85928,-34700.77034,-44326.95142,-38800.4379,-68120.13753,0.104,0.794,0.568,192,0,0,0,0,0,0,0,0,0,1709547761,0, 2024-03-04 15:52:41.396
13,-82211.95128,-46207.5378,-32601.96389,-32892.76009,-34647.59554,-44345.65983,-38719.74811,-68078.40682,0.104,0.794,0.568,192,0,0,0,0,0,0,0,0,0,1709547761,0, 2024-03-04 15:52:41.396
14,-82223.55184,-46194.23851,-32498.07298,-32897.36454,-34583.31193,-44351.82892,-38665.85805,-68071.12015,0.104,0.794,0.568,192,0,0,0,0,0,0,0,0,0,1709547761,0, 2024-03-04 15:52:41.396
15,-82189.53248,-46174.36781,-32501.96219,-32877.53855,-34599.96397,-44340.47423,-38715.25541,-68109.45339,0.104,0.794,0.568,192,0,0,0,0,0,0,0,0,0,1709547761,0, 2024-03-04 15:52:41.396
16,-82162.44217,-46180.96157,-32608.42354,-32863.38989,-34672.6742,-44327.13024,-38795.58757,-68124.74199,0.104,0.79,0.566,192,3,64,24,176,17,176,0,0,0,1709547761,0, 2024-03-04 15:52:41.396
17,-82178.1778,-46198.6865,-32665.42049,-32864.14985,-34696.97055,-44315.93201,-38794.06766,-68065.33105,0.104,0.79,0.566,192,0,0,0,0,0,0,0,0,0,1709547761,0, 2024-03-04 15:52:41.396
18,-82221.02609,-46212.38812,-32598.14174,-32889.18381,-34645.44977,-44334.01457,-38721.17862,-68045.77327,0.104,0.79,0.566,192,0,0,0,0,0,0,0,0,0,1709547761,0, 2024-03-04 15:52:41.396
19,-82229.47505,-46198.55239,-32494.4073,-32894.8388,-34585.97178,-44344.16227,-38672.13889,-68052.25528,0.104,0.79,0.566,192,0,0,0,0,0,0,0,0,0,1709547761,0, 2024-03-04 15:52:41.396
20,-82195.70156,-46181.00627,-32494.11672,-32876.77859,-34601.21567,-44335.0204,-38712.77436,-68080.79846,0.104,0.79,0.566,192,0,0,0,0,0,0,0,0,0,1709547761,0, 2024-03-04 15:52:41.396
21,-82167.65012,-46186.99654,-32600.1087,-32865.35685,-34669.50025,-44328.27018,-38792.72655,-68121.38922,0.104,0.79,0.566,192,0,0,0,0,0,0,0,0,0,1709547761,0, 2024-03-04 15:52:41.396
22,-82185.57622,-46212.45518,-32664.50407,-32879.08082,-34700.59153,-44336.04858,-38801.33197,-68116.33773,0.104,0.79,0.566,192,0,0,0,0,0,0,0,0,0,1709547761,0, 2024-03-04 15:52:41.396
23,-82221.78605,-46221.97702,-32596.37595,-32900.98553,-34646.70147,-44353.03591,-38722.74324,-68075.34463,0.104,0.79,0.566,192,0,0,0,0,0,0,0,0,0,1709547761,0, 2024-03-04 15:52:41.396
24,-82219.93085,-46193.03151,-32483.47729,-32895.17407,-34574.32652,-44353.10296,-38664.24872,-68057.28442,0.104,0.79,0.566,192,0,0,0,0,0,0,0,0,0,1709547761,0, 2024-03-04 15:52:41.396
25,-82190.4042,-46175.91008,-32483.34318,-32880.01959,-34589.45866,-44350.48781,-38710.78506,-68097.18229,0.104,0.79,0.566,192,0,0,0,0,0,0,0,0,0,1709547761,0, 2024-03-04 15:52:41.396
26,-82166.39843,-46184.80607,-32591.05624,-32869.53662,-34662.83943,-44344.16227,-38792.72655,-68121.61274,0.104,0.786,0.568,192,3,64,24,144,17,192,0,0,0,1709547761,0, 2024-03-04 15:52:41.396
27,-82189.57718,-46212.7681,-32662.3136,-32888.73677,-34702.55848,-44358.35562,-38806.33876,-68127.4242,0.104,0.786,0.568,192,0,0,0,0,0,0,0,0,0,1709547761,0, 2024-03-04 15:52:41.396
28,-82226.27875,-46219.0713,-32597.65,-32912.98841,-34651.90943,-44377.19815,-38734.36615,-68114.30372,0.104,0.786,0.568,192,0,0,0,0,0,0,0,0,0,1709547761,0, 2024-03-04 15:52:41.396
29,-82232.0455,-46198.39593,-32489.55697,-32913.43545,-34584.65303,-44380.72972,-38682.13012,-68118.25998,0.104,0.786,0.568,192,0,0,0,0,0,0,0,0,0,1709547761,0, 2024-03-04 15:52:41.396
30,-82197.46735,-46173.20552,-32485.01956,-32885.09344,-34591.78324,-44360.70256,-38722.60913,-68136.52136,0.104,0.786,0.568,192,0,0,0,0,0,0,0,0,0,1709547761,0, 2024-03-04 15:52:41.396
31,-82169.50532,-46177.89938,-32586.96587,-32867.54732,-34659.10669,-44345.79394,-38798.06862,-68151.98876,0.104,0.786,0.568,192,0,0,0,0,0,0,0,0,0,1709547761,0, 2024-03-04 15:52:41.396
32,-82176.07673,-46192.91975,-32644.63337,-32867.34615,-34685.5488,-44337.07676,-38802.58367,-68117.81295,0.104,0.786,0.568,192,0,0,0,0,0,0,0,0,0,1709547761,0, 2024-03-04 15:52:41.396
33,-82214.32057,-46205.28027,-32580.84149,-32890.81548,-34637.33609,-44352.9465,-38733.02504,-68095.5059,0.104,0.786,0.568,192,0,0,0,0,0,0,0,0,0,1709547761,0, 2024-03-04 15:52:41.396
34,-82228.82685,-46194.1491,-32480.68332,-32899.73383,-34580.78618,-44366.24579,-38684.76763,-68111.17448,0.104,0.786,0.568,192,0,0,0,0,0,0,0,0,0,1709547761,0, 2024-03-04 15:52:41.396
35,-82193.6005,-46169.8304,-32478.29169,-32872.91174,-34592.5432,-44345.45867,-38723.79377,-68115.62247,0.104,0.786,0.568,192,0,0,0,0,0,0,0,0,0,1709547761,0, 2024-03-04 15:52:41.396
36,-82164.63264,-46174.56897,-32581.22147,-32851.67758,-34661.16305,-44322.27991,-38802.11428,-68112.96262,0.102,0.79,0.568,192,3,48,24,176,17,192,0,0,0,1709547761,0, 2024-03-04 15:52:41.396
37,-82170.80172,-46189.09761,-32641.2359,-32850.49294,-34685.01236,-44312.98158,-38807.50105,-68093.60601,0.102,0.79,0.568,192,0,0,0,0,0,0,0,0,0,1709547761,0, 2024-03-04 15:52:41.396
38,-82216.064,-46205.01205,-32582.89785,-32879.66196,-34634.1845,-44335.28862,-38731.32631,-68076.21635,0.102,0.79,0.568,192,0,0,0,0,0,0,0,0,0,1709547761,0, 2024-03-04 15:52:41.396
39,-82232.0902,-46191.53395,-32480.14688,-32888.22268,-34573.18659,-44344.31873,-38676.25161,-68052.81407,0.102,0.79,0.568,192,0,0,0,0,0,0,0,0,0,1709547761,0, 2024-03-04 15:52:41.396
40,-82192.43821,-46161.42615,-32469.55216,-32856.19263,-34579.91446,-44317.56369,-38712.79671,-68046.1309,0.102,0.79,0.568,192,0,0,0,0,0,0,0,0,0,1709547761,0, 2024-03-04 15:52:41.396
41,-82165.79493,-46171.26091,-32571.85609,-32843.54154,-34649.42839,-44306.34312,-38797.8451,-68081.55842,0.102,0.79,0.568,192,0,0,0,0,0,0,0,0,0,1709547761,0, 2024-03-04 15:52:41.396
42,-82182.35757,-46195.89254,-32643.31462,-32857.55609,-34687.06872,-44314.18858,-38816.4194,-68081.04433,0.102,0.79,0.568,192,0,0,0,0,0,0,0,0,0,1709547761,0, 2024-03-04 15:52:41.396
43,-82220.31083,-46203.69329,-32579.43333,-32881.96419,-34638.00664,-44333.61224,-38741.92104,-68067.56622,0.102,0.79,0.568,192,0,0,0,0,0,0,0,0,0,1709547761,0, 2024-03-04 15:52:41.396
44,-82230.1009,-46191.13161,-32475.20715,-32890.48021,-34577.14284,-44346.5539,-38690.02029,-68077.95979,0.102,0.79,0.568,192,0,0,0,0,0,0,0,0,0,1709547761,0, 2024-03-04 15:52:41.396
45,-82203.8376,-46177.67586,-32477.1741,-32874.67752,-34593.54902,-44341.94944,-38736.26605,-68108.2911,0.102,0.79,0.568,192,0,0,0,0,0,0,0,0,0,1709547761,0, 2024-03-04 15:52:41.396
46,-82178.35661,-46185.87895,-32577.64519,-32857.84666,-34660.96189,-44327.84549,-38807.79163,-68106.12298,0.104,0.784,0.57,192,3,64,24,128,17,208,0,0,0,1709547761,0, 2024-03-04 15:52:41.396
47,-82195.32158,-46210.30941,-32647.89672,-32870.29658,-34697.84226,-44333.65695,-38815.23476,-68096.01999,0.104,0.784,0.57,192,0,0,0,0,0,0,0,0,0,1709547761,0, 2024-03-04 15:52:41.396
48,-82244.2719,-46232.37058,-32597.31473,-32903.71244,-34655.15043,-44362.06601,-38746.81607,-68085.62643,0.104,0.784,0.57,192,0,0,0,0,0,0,0,0,0,1709547761,0, 2024-03-04 15:52:41.396
49,-82259.38168,-46221.64175,-32490.36163,-32915.15653,-34589.36925,-44378.09221,-38696.97168,-68089.69445,0.104,0.784,0.57,192,0,0,0,0,0,0,0,0,0,1709547761,0, 2024-03-04 15:52:41.396
50,-82222.34484,-46201.63693,-32485.84658,-32899.91264,-34600.54512,-44374.22536,-38746.88312,-68137.25896,0.104,0.784,0.57,192,0,0,0,0,0,0,0,0,0,1709547761,0, 2024-03-04 15:52:41.396
51,-82192.08058,-46204.56501,-32590.5645,-32888.55796,-34673.47886,-44369.79972,-38833.45143,-68197.02753,0.104,0.784,0.57,192,0,0,0,0,0,0,0,0,0,1709547761,0, 2024-03-04 15:52:41.396
52,-82211.81717,-46230.35893,-32660.45841,-32899.04093,-34710.15808,-44373.376,-38849.54469,-68191.35018,0.104,0.784,0.57,192,0,0,0,0,0,0,0,0,0,1709547761,0, 2024-03-04 15:52:41.396
53,-82244.36131,-46232.10236,-32593.1126,-32907.84751,-34657.22914,-44370.58203,-38770.84419,-68115.35425,0.104,0.784,0.57,192,0,0,0,0,0,0,0,0,0,1709547761,0, 2024-03-04 15:52:41.396
54,-82244.24955,-46206.21904,-32477.01764,-32900.18086,-34583.6025,-44367.78806,-38707.56641,-68092.9131,0.104,0.784,0.57,192,0,0,0,0,0,0,0,0,0,1709547761,0, 2024-03-04 15:52:41.396
55,-82211.30308,-46184.02376,-32465.43943,-32870.78832,-34585.43534,-44349.28082,-38744.11151,-68113.16378,0.104,0.784,0.57,192,0,0,0,0,0,0,0,0,0,1709547761,0, 2024-03-04 15:52:41.396
56,-82180.43532,-46185.36486,-32565.46349,-32849.73298,-34651.95413,-44332.89699,-38826.47769,-68152.41345,0.104,0.784,0.57,192,3,64,24,128,17,208,0,0,0,1709547761,0, 2024-03-04 15:52:41.396
57,-82186.62675,-46194.21616,-32628.89774,-32846.64844,-34678.08332,-44322.1905,-38834.07728,-68127.33479,0.104,0.784,0.57,192,0,0,0,0,0,0,0,0,0,1709547761,0, 2024-03-04 15:52:41.396
58,-82228.44687,-46205.92847,-32568.70449,-32868.19552,-34626.85312,-44334.68513,-38759.06482,-68081.73723,0.104,0.784,0.57,192,0,0,0,0,0,0,0,0,0,1709547761,0, 2024-03-04 15:52:41.396
59,-82240.58387,-46196.40663,-32463.60659,-32874.52106,-34563.44122,-44342.35178,-38703.6325,-68078.45152,0.104,0.784,0.57,192,0,0,0,0,0,0,0,0,0,1709547761,0, 2024-03-04 15:52:41.396
60,-82211.92893,-46171.57384,-32456.67755,-32853.57748,-34575.64528,-44326.70555,-38748.11247,-68104.04427,0.104,0.784,0.57,192,0,0,0,0,0,0,0,0,0,1709547761,0, 2024-03-04 15:52:41.396
61,-82188.28078,-46178.7264,-32569.66562,-32841.50754,-34653.96579,-44315.73085,-38836.96065,-68146.19966,0.104,0.784,0.57,192,0,0,0,0,0,0,0,0,0,1709547761,0, 2024-03-04 15:52:41.396
62,-82202.11651,-46205.39203,-32645.84036,-32851.67758,-34690.62265,-44317.16136,-38849.23176,-68135.98491,0.104,0.784,0.57,192,0,0,0,0,0,0,0,0,0,1709547761,0, 2024-03-04 15:52:41.396
63,-82244.9201,-46221.64175,-32585.93769,-32879.23728,-34641.27,-44335.80271,-38773.59346,-68101.31736,0.104,0.784,0.57,192,0,0,0,0,0,0,0,0,0,1709547761,0, 2024-03-04 15:52:41.396
64,-82255.53718,-46207.44839,-32473.79899,-32884.0429,-34570.79495,-44341.77063,-38710.40508,-68073.53414,0.104,0.784,0.57,192,0,0,0,0,0,0,0,0,0,1709547761,0, 2024-03-04 15:52:41.396
65,-82232.62664,-46191.62335,-32471.45205,-32869.2237,-34584.72009,-44335.06511,-38753.70041,-68094.79065,0.104,0.784,0.57,192,0,0,0,0,0,0,0,0,0,1709547761,0, 2024-03-04 15:52:41.396
66,-82202.56355,-46190.97515,-32571.27494,-32849.50946,-34650.88125,-44317.0496,-38834.07728,-68098.90337,0.1,0.776,0.57,192,3,32,24,64,17,208,0,0,0,1709547761,0, 2024-03-04 15:52:41.396
67,-82211.77247,-46209.23653,-32644.23104,-32858.60662,-34687.67222,-44320.96116,-38849.56704,-68090.18619,0.1,0.776,0.57,192,0,0,0,0,0,0,0,0,0,1709547761,0, 2024-03-04 15:52:41.396
68,-82252.78792,-46222.53582,-32588.44108,-32881.89714,-34641.51587,-44339.11077,-38776.29802,-68068.39324,0.1,0.776,0.57,192,0,0,0,0,0,0,0,0,0,1709547761,0, 2024-03-04 15:52:41.396
69,-82270.08817,-46211.24818,-32481.93502,-32891.19546,-34578.90863,-44353.81822,-38722.05034,-68083.07833,0.1,0.776,0.57,192,0,0,0,0,0,0,0,0,0,1709547761,0, 2024-03-04 15:52:41.396
70,-82228.40216,-46186.14718,-32469.75332,-32869.44722,-34586.17295,-44342.77646,-38761.36705,-68123.13266,0.1,0.776,0.57,192,0,0,0,0,0,0,0,0,0,1709547761,0, 2024-03-04 15:52:41.396
71,-82200.01545,-46189.07525,-32574.96298,-32856.52791,-34659.95606,-44333.79106,-38850.23759,-68163.76813,0.1,0.776,0.57,192,0,0,0,0,0,0,0,0,0,1709547761,0, 2024-03-04 15:52:41.396
72,-82213.20298,-46207.76131,-32647.78497,-32862.29466,-34696.09883,-44332.4723,-38869.66126,-68152.61461,0.1,0.776,0.57,192,0,0,0,0,0,0,0,0,0,1709547761,0, 2024-03-04 15:52:41.396
73,-82245.5683,-46212.99162,-32583.79192,-32877.00211,-34641.02413,-44339.64721,-38786.62453,-68091.84022,0.1,0.776,0.57,192,0,0,0,0,0,0,0,0,0,1709547761,0, 2024-03-04 15:52:41.396
74,-82259.06876,-46200.40759,-32470.24506,-32882.79121,-34572.65014,-44351.27012,-38723.36909,-68085.60408,0.1,0.776,0.57,192,0,0,0,0,0,0,0,0,0,1709547761,0, 2024-03-04 15:52:41.396
75,-82230.7938,-46185.92366,-32458.77861,-32864.10515,-34581.85906,-44344.76576,-38760.56239,-68119.93636,0.1,0.776,0.57,192,0,0,0,0,0,0,0,0,0,1709547762,0, 2024-03-04 15:52:41.877
76,-82196.77445,-46183.2191,-32555.62872,-32842.89334,-34648.19904,-44328.5831,-38842.43683,-68142.39986,0.108,0.778,0.572,192,3,96,24,80,17,224,0,0,0,1709547762,0, 2024-03-04 15:52:41.877
77,-82200.26132,-46192.71859,-32622.50514,-32835.07023,-34679.15621,-44312.04281,-38854.52913,-68100.53505,0.108,0.778,0.572,192,0,0,0,0,0,0,0,0,0,1709547762,0, 2024-03-04 15:52:41.877
78,-82242.17084,-46211.09172,-32564.83764,-32860.41711,-34632.01638,-44331.46648,-38783.18236,-68081.80429,0.108,0.778,0.572,192,0,0,0,0,0,0,0,0,0,1709547762,0, 2024-03-04 15:52:41.877
79,-82256.29714,-46202.91098,-32457.10223,-32875.43748,-34565.60934,-44351.09131,-38725.67132,-68106.07828,0.108,0.778,0.572,192,0,0,0,0,0,0,0,0,0,1709547762,0, 2024-03-04 15:52:41.877
80,-82226.12229,-46192.18215,-32447.78156,-32859.99243,-34572.24781,-44343.15644,-38765.41272,-68139.6506,0.108,0.778,0.572,192,0,0,0,0,0,0,0,0,0,1709547762,0, 2024-03-04 15:52:41.877
81,-82196.68504,-46184.78372,-32546.06218,-32839.98762,-34634.65388,-44323.95629,-38847.42127,-68156.39206,0.108,0.778,0.572,192,0,0,0,0,0,0,0,0,0,1709547762,0, 2024-03-04 15:52:41.877
82,-82208.12913,-46203.11215,-32619.93469,-32845.39674,-34671.26604,-44319.91062,-38868.92365,-68141.81872,0.108,0.778,0.572,192,0,0,0,0,0,0,0,0,0,1709547762,0, 2024-03-04 15:52:41.877
83,-82247.44585,-46219.8089,-32565.91053,-32866.76501,-34624.61795,-44331.48883,-38803.88007,-68104.4466,0.108,0.778,0.572,192,0,0,0,0,0,0,0,0,0,1709547762,0, 2024-03-04 15:52:41.877
84,-82262.1533,-46206.17434,-32456.47639,-32869.93895,-34556.84746,-44334.3722,-38746.6149,-68084.71001,0.108,0.778,0.572,192,0,0,0,0,0,0,0,0,0,1709547762,0, 2024-03-04 15:52:41.877
85,-82228.33511,-46178.34642,-32435.68926,-32846.82725,-34553.80762,-44319.91062,-38783.6741,-68113.85669,0.108,0.778,0.572,192,0,0,0,0,0,0,0,0,0,1709547762,0, 2024-03-04 15:52:41.877
86,-82202.27298,-46185.119,-32542.99999,-32834.84672,-34630.49646,-44312.19927,-38870.42122,-68140.36586,0.108,0.786,0.572,192,3,96,24,144,17,224,0,0,0,1709547762,0, 2024-03-04 15:52:41.877
87,-82218.85797,-46213.21514,-32623.84625,-32847.47545,-34674.64115,-44317.51899,-38891.4095,-68126.2172,0.108,0.786,0.572,192,0,0,0,0,0,0,0,0,0,1709547762,0, 2024-03-04 15:52:41.877
88,-82263.18148,-46235.03044,-32576.90758,-32879.59491,-34633.89392,-44340.04955,-38819.90627,-68095.17063,0.108,0.786,0.572,192,0,0,0,0,0,0,0,0,0,1709547762,0, 2024-03-04 15:52:41.877
89,-82281.95694,-46233.15289,-32472.86021,-32896.35872,-34573.05247,-44359.69673,-38759.95889,-68089.87327,0.108,0.786,0.572,192,0,0,0,0,0,0,0,0,0,1709547762,0, 2024-03-04 15:52:41.877
90,-82256.05127,-46210.19765,-32462.489,-32878.8126,-34582.26139,-44352.32065,-38794.53704,-68115.35425,0.108,0.786,0.572,192,0,0,0,0,0,0,0,0,0,1709547762,0, 2024-03-04 15:52:41.877
91,-82211.43719,-46202.26278,-32552.29831,-32851.74463,-34643.72869,-44330.14772,-38869.95183,-68138.57772,0.108,0.786,0.572,192,0,0,0,0,0,0,0,0,0,1709547762,0, 2024-03-04 15:52:41.877
92,-82216.80161,-46222.08878,-32628.67422,-32860.79709,-34686.37582,-44332.82993,-38891.90124,-68136.63311,0.108,0.786,0.572,192,0,0,0,0,0,0,0,0,0,1709547762,0, 2024-03-04 15:52:41.877
93,-82259.0017,-46240.48427,-32581.6238,-32889.54143,-34646.63442,-44353.43824,-38821.5603,-68103.1055,0.108,0.786,0.572,192,0,0,0,0,0,0,0,0,0,1709547762,0, 2024-03-04 15:52:41.877
94,-82269.8423,-46221.68645,-32467.38404,-32891.30722,-34575.39941,-44355.40519,-38750.25824,-68074.09293,0.108,0.786,0.572,192,0,0,0,0,0,0,0,0,0,1709547762,0, 2024-03-04 15:52:41.877
95,-82235.01828,-46187.42123,-32443.42297,-32859.99243,-34572.1584,-44331.04179,-38772.16295,-68084.44179,0.108,0.786,0.572,192,0,0,0,0,0,0,0,0,0,1709547762,0, 2024-03-04 15:52:41.877
96,-82198.92021,-46182.77206,-32538.10496,-32838.95944,-34637.04552,-44315.0603,-38850.72933,-68120.4281,0.104,0.78,0.568,192,3,64,24,96,17,192,0,0,0,1709547762,0, 2024-03-04 15:52:41.877
97,-82213.62766,-46209.79532,-32617.25248,-32850.49294,-34681.27962,-44320.08944,-38873.90809,-68115.8907,0.104,0.78,0.568,192,0,0,0,0,0,0,0,0,0,1709547762,0, 2024-03-04 15:52:41.877
98,-82262.24271,-46230.24717,-32573.51012,-32880.17605,-34644.57806,-44342.6647,-38807.76928,-68094.1648,0.104,0.78,0.568,192,0,0,0,0,0,0,0,0,0,1709547762,0, 2024-03-04 15:52:41.877
99,-82282.96277,-46222.55817,-32465.70766,-32896.49283,-34582.52961,-44363.67534,-38749.25241,-68116.33773,0.104,0.78,0.568,192,0,0,0,0,0,0,0,0,0,1709547762,0, 2024-03-04 15:52:41.877
100,-82252.38559,-46199.17824,-32449.39088,-32876.37626,-34585.5024,-44351.91832,-38785.0599,-68144.59034,0.104,0.78,0.568,192,0,0,0,0,0,0,0,0,0,1709547762,0, 2024-03-04 15:52:41.877
101,-82211.34778,-46190.86339,-32537.68027,-32845.41909,-34641.98525,-44323.21868,-38858.93242,-68145.41735,0.104,0.78,0.568,192,0,0,0,0,0,0,0,0,0,1709547762,0, 2024-03-04 15:52:41.877
102,-82212.30891,-46205.77201,-32608.20003,-32843.20627,-34677.01044,-44314.70267,-38870.8459,-68130.0617,0.104,0.78,0.568,192,0,0,0,0,0,0,0,0,0,1709547762,0, 2024-03-04 15:52:41.877
103,-82252.98908,-46223.09461,-32559.67439,-32866.85441,-34634.74329,-44333.32167,-38803.72361,-68110.77215,0.104,0.78,0.568,192,0,0,0,0,0,0,0,0,0,1709547762,0, 2024-03-04 15:52:41.877
104,-82265.59547,-46210.19765,-32440.00315,-32871.05654,-34561.58603,-44341.21184,-38741.83163,-68099.261,0.104,0.78,0.568,192,0,0,0,0,0,0,0,0,0,1709547762,0, 2024-03-04 15:52:41.877
105,-82245.81417,-46196.60779,-32426.72621,-32860.41711,-34569.69971,-44340.38482,-38782.19888,-68150.82647,0.104,0.78,0.568,192,0,0,0,0,0,0,0,0,0,1709547762,0, 2024-03-04 15:52:41.877
106,-82206.29629,-46189.85757,-32515.23912,-32835.47256,-34625.57907,-44319.41889,-38853.90328,-68165.17629,0.11,0.776,0.572,192,3,112,24,64,17,224,0,0,0,1709547762,0, 2024-03-04 15:52:41.877
107,-82216.28752,-46216.12086,-32591.10094,-32841.17226,-34663.57704,-44316.78138,-38866.30849,-68138.3989,0.11,0.776,0.572,192,0,0,0,0,0,0,0,0,0,1709547762,0, 2024-03-04 15:52:41.877
108,-82262.1533,-46232.97408,-32549.39259,-32864.35102,-34627.1884,-44330.483,-38800.77318,-68111.37564,0.11,0.776,0.572,192,0,0,0,0,0,0,0,0,0,1709547762,0, 2024-03-04 15:52:41.877
109,-82280.25821,-46222.02173,-32439.84669,-32873.55994,-34558.6356,-44342.03885,-38739.12707,-68109.27458,0.11,0.776,0.572,192,0,0,0,0,0,0,0,0,0,1709547762,0, 2024-03-04 15:52:41.877
110,-82259.78401,-46208.09659,-32429.60959,-32865.20038,-34569.11857,-44344.05051,-38776.54389,-68157.10731,0.11,0.776,0.572,192,0,0,0,0,0,0,0,0,0,1709547762,0, 2024-03-04 15:52:41.877
111,-82231.17378,-46213.01397,-32533.18757,-32853.8904,-34640.53239,-44337.50145,-38862.91103,-68202.63782,0.11,0.776,0.572,192,0,0,0,0,0,0,0,0,0,1709547762,0, 2024-03-04 15:52:41.877
112,-82238.70632,-46231.253,-32610.4352,-32856.86318,-34681.74901,-44332.06997,-38883.47463,-68167.41147,0.11,0.776,0.572,192,0,0,0,0,0,0,0,0,0,1709547762,0, 2024-03-04 15:52:41.877
113,-82277.75482,-46242.67474,-32559.58498,-32874.76693,-34638.81131,-44337.74732,-38814.27363,-68080.61964,0.11,0.776,0.572,192,0,0,0,0,0,0,0,0,0,1709547762,0, 2024-03-04 15:52:41.877
114,-82291.27762,-46229.15193,-32444.09352,-32878.92436,-34563.24006,-44342.88822,-38744.58089,-68031.33405,0.11,0.776,0.572,192,0,0,0,0,0,0,0,0,0,1709547762,0, 2024-03-04 15:52:41.877
115,-82265.9531,-46212.14225,-32423.03818,-32863.00991,-34563.59769,-44337.23323,-38771.71591,-68061.64301,0.11,0.776,0.572,192,0,0,0,0,0,0,0,0,0,1709547762,0, 2024-03-04 15:52:41.877
116,-82235.39826,-46220.01007,-32524.04571,-32854.96329,-34637.15728,-44336.33916,-38860.13941,-68133.63798,0.11,0.784,0.578,192,3,112,24,128,18,16,0,0,0,1709547762,0, 2024-03-04 15:52:41.877
117,-82246.46237,-46242.33946,-32611.17281,-32865.73683,-34690.66735,-44342.7094,-38891.85654,-68140.32115,0.11,0.784,0.578,192,0,0,0,0,0,0,0,0,0,1709547762,0, 2024-03-04 15:52:41.877
118,-82277.03956,-46243.5241,-32556.76866,-32876.37626,-34641.3147,-44345.95041,-38818.09578,-68079.32324,0.11,0.784,0.578,192,0,0,0,0,0,0,0,0,0,1709547762,0, 2024-03-04 15:52:41.877
119,-82298.40783,-46242.42887,-32447.44628,-32891.6872,-34572.49368,-44366.22344,-38760.11536,-68088.04042,0.11,0.784,0.578,192,0,0,0,0,0,0,0,0,0,1709547762,0, 2024-03-04 15:52:41.877
120,-82265.61782,-46213.55041,-32423.68638,-32870.67656,-34571.75607,-44355.27108,-38794.38058,-68121.34452,0.11,0.784,0.578,192,0,0,0,0,0,0,0,0,0,1709547762,0, 2024-03-04 15:52:41.877
121,-82227.28458,-46207.78366,-32521.05057,-32851.49876,-34642.85697,-44343.2682,-38883.40758,-68166.07036,0.11,0.784,0.578,192,0,0,0,0,0,0,0,0,0,1709547762,0, 2024-03-04 15:52:41.877
122,-82236.35939,-46231.36475,-32604.17671,-32857.82431,-34691.06969,-44343.40231,-38914.05182,-68156.99555,0.11,0.784,0.578,192,0,0,0,0,0,0,0,0,0,1709547762,0, 2024-03-04 15:52:41.877
123,-82279.38649,-46249.64848,-32566.06699,-32882.18771,-34656.49154,-44359.71908,-38855.33379,-68137.59424,0.11,0.784,0.578,192,0,0,0,0,0,0,0,0,0,1709547762,0, 2024-03-04 15:52:41.877
124,-82301.33591,-46243.56881,-32456.6552,-32893.05066,-34584.13894,-44372.1243,-38789.97729,-68130.79931,0.11,0.784,0.578,192,0,0,0,0,0,0,0,0,0,1709547762,0, 2024-03-04 15:52:41.877
125,-82270.82578,-46219.94301,-32427.77675,-32870.34129,-34577.94751,-44358.28857,-38812.15022,-68143.04807,0.11,0.784,0.578,192,0,0,0,0,0,0,0,0,0,1709547762,0, 2024-03-04 15:52:41.877
126,-82232.31372,-46213.30455,-32514.38976,-32841.55224,-34638.36427,-44332.53936,-38888.8167,-68147.87604,0.102,0.784,0.58,192,3,48,24,128,18,32,0,0,0,1709547762,0, 2024-03-04 15:52:41.877
127,-82235.95705,-46234.31518,-32595.86186,-32843.85447,-34683.06776,-44332.24879,-38910.52024,-68149.843,0.102,0.784,0.58,192,0,0,0,0,0,0,0,0,0,1709547762,0, 2024-03-04 15:52:41.877
128,-82273.35152,-46248.28503,-32549.92903,-32865.44625,-34643.66164,-44350.59957,-38839.5311,-68132.90037,0.102,0.784,0.58,192,0,0,0,0,0,0,0,0,0,1709547762,0, 2024-03-04 15:52:41.877
129,-82292.73049,-46241.11012,-32441.63483,-32878.2091,-34578.26043,-44368.52567,-38774.10755,-68143.96449,0.102,0.784,0.58,192,0,0,0,0,0,0,0,0,0,1709547762,0, 2024-03-04 15:52:41.877
130,-82260.54397,-46216.74671,-32418.09844,-32857.57844,-34577.94751,-44356.29926,-38798.98504,-68173.24527,0.102,0.784,0.58,192,0,0,0,0,0,0,0,0,0,1709547762,0, 2024-03-04 15:52:41.877
131,-82222.72482,-46211.94109,-32508.19832,-32831.96334,-34639.68302,-44332.80758,-38872.0976,-68186.29869,0.102,0.784,0.58,192,0,0,0,0,0,0,0,0,0,1709547762,0, 2024-03-04 15:52:41.877
132,-82227.39634,-46231.09653,-32584.70834,-32829.83992,-34677.14455,-44317.92132,-38886.02273,-68141.46109,0.102,0.784,0.58,192,0,0,0,0,0,0,0,0,0,1709547762,0, 2024-03-04 15:52:41.877
133,-82271.54103,-46248.0168,-32547.04565,-32859.43363,-34642.65581,-44336.83089,-38822.14145,-68119.19875,0.102,0.784,0.58,192,0,0,0,0,0,0,0,0,0,1709547762,0, 2024-03-04 15:52:41.877
134,-82293.89278,-46245.20048,-32442.48419,-32879.63961,-34580.09327,-44356.63454,-38758.72955,-68122.9315,0.102,0.784,0.58,192,0,0,0,0,0,0,0,0,0,1709547762,0, 2024-03-04 15:52:41.877
135,-82266.28837,-46224.18984,-32419.90893,-32862.94286,-34578.12632,-44342.0612,-38784.23289,-68114.41548,0.102,0.784,0.58,192,0,0,0,0,0,0,0,0,0,1709547762,0, 2024-03-04 15:52:41.877
136,-82230.32442,-46219.65244,-32513.87566,-32841.28402,-34642.16407,-44318.92715,-38867.11316,-68117.88,0.102,0.784,0.576,192,3,48,24,128,18,0,0,0,0,1709547762,0, 2024-03-04 15:52:41.877
137,-82239.53333,-46248.68736,-32600.8463,-32852.41519,-34689.92975,-44321.36349,-38900.3949,-68115.9354,0.102,0.784,0.576,192,0,0,0,0,0,0,0,0,0,1709547762,0, 2024-03-04 15:52:41.877
138,-82280.28056,-46268.31219,-32561.37312,-32882.41123,-34654.52458,-44343.62582,-38843.55442,-68094.79065,0.102,0.784,0.576,192,0,0,0,0,0,0,0,0,0,1709547762,0, 2024-03-04 15:52:41.877
139,-82306.4321,-46260.53378,-32455.67172,-32902.43839,-34590.24097,-44363.94356,-38784.61287,-68094.74595,0.102,0.784,0.576,192,0,0,0,0,0,0,0,0,0,1709547762,0, 2024-03-04 15:52:41.877
140,-82283.9686,-46246.0722,-32438.32677,-32895.84463,-34595.65009,-44365.99992,-38816.39705,-68130.57579,0.102,0.784,0.576,192,0,0,0,0,0,0,0,0,0,1709547762,0, 2024-03-04 15:52:41.877
141,-82251.33505,-46245.89339,-32530.32655,-32873.24701,-34657.13974,-44348.49851,-38892.63885,-68133.9062,0.102,0.784,0.576,192,0,0,0,0,0,0,0,0,0,1709547762,0, 2024-03-04 15:52:41.877
142,-82254.15137,-46264.75826,-32608.22238,-32868.03906,-34694.60126,-44337.5238,-38910.94493,-68077.51275,0.102,0.784,0.576,192,0,0,0,0,0,0,0,0,0,1709547762,0, 2024-03-04 15:52:41.877
143,-82294.56333,-46281.90205,-32571.05143,-32894.74939,-34663.17471,-44362.60246,-38851.08696,-68075.56815,0.102,0.784,0.576,192,0,0,0,0,0,0,0,0,0,1709547762,0, 2024-03-04 15:52:41.877
144,-82317.09389,-46272.60372,-32463.36072,-32912.02729,-34600.47807,-44387.99404,-38789.08322,-68111.35329,0.102,0.784,0.576,192,0,0,0,0,0,0,0,0,0,1709547762,0, 2024-03-04 15:52:41.877
145,-82286.49435,-46247.3239,-32436.8292,-32894.57058,-34598.46641,-44384.55187,-38813.40192,-68155.45328,0.102,0.784,0.576,192,0,0,0,0,0,0,0,0,0,1709547762,0, 2024-03-04 15:52:41.877
146,-82251.3127,-46247.43566,-32528.73957,-32873.64934,-34665.16401,-44370.40321,-38892.79531,-68178.96732,0.102,0.784,0.576,192,0,0,0,0,0,0,0,0,0,1709547762,0, 2024-03-04 15:52:41.877
147,-82251.11154,-46262.92542,-32611.57514,-32869.06724,-34712.28149,-44360.43434,-38919.43859,-68149.97711,0.11,0.784,0.578,192,3,112,24,128,18,16,0,0,0,1709547762,0, 2024-03-04 15:52:41.877
148,-82294.13865,-46276.96231,-32574.13597,-32897.56571,-34678.508,-44386.45177,-38861.45817,-68146.15496,0.11,0.784,0.578,192,0,0,0,0,0,0,0,0,0,1709547762,0, 2024-03-04 15:52:41.877
149,-82314.45638,-46272.20139,-32455.60467,-32910.97676,-34603.16027,-44405.87543,-38790.87136,-68163.25404,0.11,0.784,0.578,192,0,0,0,0,0,0,0,0,0,1709547762,0, 2024-03-04 15:52:41.877
150,-82281.12993,-46242.2277,-32418.65723,-32882.54534,-34592.36438,-44385.28948,-38810.16091,-68190.07614,0.11,0.784,0.578,192,0,0,0,0,0,0,0,0,0,1709547762,0, 2024-03-04 15:52:41.877
151,-82244.67423,-46235.63394,-32510.03116,-32858.00312,-34659.26315,-44366.02227,-38894.33758,-68223.80492,0.11,0.784,0.578,192,0,0,0,0,0,0,0,0,0,1709547762,0, 2024-03-04 15:52:41.877
152,-82238.30399,-46238.89729,-32586.74235,-32841.664,-34697.48464,-44342.21766,-38916.75638,-68182.20832,0.11,0.784,0.578,192,0,0,0,0,0,0,0,0,0,1709547762,0, 2024-03-04 15:52:41.877
153,-82289.19891,-46269.20626,-32553.43825,-32873.04585,-34659.08434,-44365.32937,-38858.44068,-68147.65252,0.11,0.784,0.578,192,0,0,0,0,0,0,0,0,0,1709547762,0, 2024-03-04 15:52:41.877
154,-82315.68573,-46278.97397,-32438.66204,-32889.85436,-34585.36829,-44381.60144,-38784.23289,-68137.99657,0.11,0.784,0.578,192,0,0,0,0,0,0,0,0,0,1709547762,0, 2024-03-04 15:52:41.877
155,-82298.72075,-46277.387,-32416.89145,-32884.17702,-34589.57041,-44383.94837,-38822.54378,-68183.1918,0.11,0.784,0.578,192,0,0,0,0,0,0,0,0,0,1709547762,0, 2024-03-04 15:52:41.877
156,-82260.58868,-46247.79329,-32506.07491,-32855.92441,-34654.61399,-44360.18847,-38909.08973,-68211.62322,0.11,0.784,0.578,192,0,0,0,0,0,0,0,0,0,1709547762,0, 2024-03-04 15:52:41.877
157,-82264.7014,-46253.22476,-32592.19618,-32851.11879,-34700.52447,-44348.29734,-38929.83215,-68176.32981,0.108,0.786,0.572,192,3,96,24,144,17,224,0,0,0,1709547762,0, 2024-03-04 15:52:41.877
158,-82280.95112,-46259.03621,-32543.31291,-32856.61731,-34648.89194,-44336.8756,-38852.60688,-68121.99272,0.108,0.786,0.572,192,0,0,0,0,0,0,0,0,0,1709547762,0, 2024-03-04 15:52:41.877
159,-82311.05892,-46263.41716,-32431.01775,-32875.30337,-34575.66763,-44355.67342,-38795.67698,-68109.36399,0.108,0.786,0.572,192,0,0,0,0,0,0,0,0,0,1709547762,0, 2024-03-04 15:52:41.877
160,-82286.49435,-46234.60576,-32400.50762,-32854.78447,-34568.40331,-44342.75411,-38813.60308,-68119.66814,0.108,0.786,0.572,192,0,0,0,0,0,0,0,0,0,1709547762,0, 2024-03-04 15:52:41.877
161,-82246.68589,-46238.13733,-32490.6522,-32832.25391,-34632.88809,-44322.7493,-38890.1131,-68120.53986,0.108,0.786,0.572,192,0,0,0,0,0,0,0,0,0,1709547762,0, 2024-03-04 15:52:41.877
162,-82245.5683,-46263.57362,-32577.75695,-32829.59406,-34679.44678,-44313.94271,-38921.80788,-68096.93642,0.108,0.786,0.572,192,0,0,0,0,0,0,0,0,0,1709547762,0, 2024-03-04 15:52:41.877
163,-82281.66637,-46268.20043,-32544.4305,-32851.63288,-34644.01926,-44330.57241,-38862.57575,-68085.06764,0.108,0.786,0.572,192,0,0,0,0,0,0,0,0,0,1709547762,0, 2024-03-04 15:52:41.877
164,-82303.23581,-46260.37732,-32440.0255,-32869.42486,-34582.73078,-44351.49364,-38805.24353,-68105.0501,0.108,0.786,0.572,192,0,0,0,0,0,0,0,0,0,1709547762,0, 2024-03-04 15:52:41.877
165,-82280.39232,-46235.49983,-32408.39778,-32855.81265,-34580.42855,-44347.8056,-38831.1045,-68134.30853,0.108,0.786,0.572,192,0,0,0,0,0,0,0,0,0,1709547762,0, 2024-03-04 15:52:41.877
166,-82239.26511,-46234.33754,-32497.35773,-32835.04788,-34645.718,-44333.0311,-38914.74472,-68164.57279,0.108,0.786,0.572,192,0,0,0,0,0,0,0,0,0,1709547762,0, 2024-03-04 15:52:41.877
167,-82252.43029,-46261.04787,-32598.72289,-32848.92831,-34704.90542,-44344.78812,-38958.17416,-68159.63306,0.104,0.794,0.57,192,3,64,24,208,17,208,0,0,0,1709547762,0, 2024-03-04 15:52:41.877
168,-82287.8131,-46269.1392,-32569.48681,-32873.13525,-34673.74708,-44365.44113,-38900.59607,-68124.18319,0.104,0.794,0.57,192,0,0,0,0,0,0,0,0,0,1709547762,0, 2024-03-04 15:52:41.877
169,-82301.2018,-46260.86906,-32444.76407,-32881.58421,-34591.58207,-44366.02227,-38819.25807,-68116.06951,0.104,0.794,0.57,192,0,0,0,0,0,0,0,0,0,1709547762,0, 2024-03-04 15:52:41.877
170,-82288.14838,-46251.32486,-32417.15967,-32877.91853,-34585.23418,-44372.8172,-38833.56319,-68145.88674,0.104,0.794,0.57,192,0,0,0,0,0,0,0,0,0,1709547762,0, 2024-03-04 15:52:41.877
171,-82257.30297,-46250.11787,-32510.88053,-32862.24995,-34654.90456,-44360.76961,-38921.89728,-68191.79722,0.104,0.794,0.57,192,0,0,0,0,0,0,0,0,0,1709547762,0, 2024-03-04 15:52:41.877
172,-82265.03667,-46268.33454,-32603.3944,-32863.76987,-34707.69938,-44358.40033,-38958.46474,-68188.62327,0.104,0.794,0.57,192,0,0,0,0,0,0,0,0,0,1709547762,0, 2024-03-04 15:52:41.877
173,-82311.30479,-46295.73778,-32581.24382,-32902.41604,-34685.63821,-44392.93377,-38908.57564,-68197.45221,0.104,0.794,0.57,192,0,0,0,0,0,0,0,0,0,1709547762,0, 2024-03-04 15:52:41.877
174,-82326.52632,-46279.62217,-32459.82915,-32905.83586,-34603.69672,-44395.92891,-38826.83531,-68156.86144,0.104,0.794,0.57,192,0,0,0,0,0,0,0,0,0,1709547762,0, 2024-03-04 15:52:41.877
175,-82289.31067,-46251.50368,-32398.4289,-32870.90008,-34573.61127,-44368.99505,-38824.17546,-68143.22688,0.104,0.794,0.57,192,0,0,0,0,0,0,0,0,0,1709547762,0, 2024-03-04 15:52:41.877
176,-82252.11737,-46245.28989,-32481.26447,-32850.06825,-34635.27973,-44355.51695,-38903.97118,-68184.75642,0.104,0.794,0.57,192,0,0,0,0,0,0,0,0,0,1709547762,0, 2024-03-04 15:52:41.877
177,-82264.45553,-46258.74564,-32583.18842,-32852.41519,-34697.12701,-44350.73368,-38945.63484,-68199.68739,0.102,0.788,0.57,192,3,48,24,160,17,208,0,0,0,1709547762,0, 2024-03-04 15:52:41.877
178,-82307.16971,-46295.17899,-32558.13212,-32882.92532,-34670.84136,-44374.00185,-38891.29774,-68193.58536,0.102,0.788,0.57,192,0,0,0,0,0,0,0,0,0,1709547762,0, 2024-03-04 15:52:41.877
179,-82323.24062,-46279.30925,-32429.22961,-32890.50256,-34586.10589,-44383.72485,-38810.85382,-68183.75059,0.102,0.788,0.57,192,0,0,0,0,0,0,0,0,0,1709547762,0, 2024-03-04 15:52:41.877
180,-82301.78294,-46244.06055,-32396.19373,-32871.19065,-34584.09424,-44371.4761,-38826.18711,-68194.0771,0.102,0.788,0.57,192,0,0,0,0,0,0,0,0,0,1709547762,0, 2024-03-04 15:52:41.877
181,-82264.90256,-46250.78842,-32487.3665,-32851.16349,-34652.1553,-44353.70646,-38908.44153,-68226.01774,0.102,0.788,0.57,192,0,0,0,0,0,0,0,0,0,1709547762,0, 2024-03-04 15:52:41.877
182,-82267.71888,-46260.01969,-32574.11362,-32841.32872,-34697.81991,-44333.96987,-38937.20823,-68177.29094,0.102,0.788,0.57,192,0,0,0,0,0,0,0,0,0,1709547762,0, 2024-03-04 15:52:41.877
183,-82307.90732,-46279.57747,-32544.40815,-32861.64646,-34664.22524,-44342.48589,-38875.71858,-68128.43002,0.102,0.788,0.57,192,0,0,0,0,0,0,0,0,0,1709547762,0, 2024-03-04 15:52:41.877
184,-82332.06956,-46277.56581,-32430.72718,-32881.09247,-34592.16322,-44361.10489,-38802.67308,-68105.85476,0.102,0.788,0.57,192,0,0,0,0,0,0,0,0,0,1709547762,0, 2024-03-04 15:52:41.877
185,-82304.4428,-46261.56196,-32401.15582,-32872.75527,-34587.06702,-44360.83667,-38825.74008,-68122.57387,0.102,0.788,0.57,192,0,0,0,0,0,0,0,0,0,1709547762,0, 2024-03-04 15:52:41.877
186,-82256.02892,-46236.57271,-32480.34805,-32841.84281,-34644.68982,-44336.18269,-38906.0499,-68160.41537,0.102,0.788,0.57,192,0,0,0,0,0,0,0,0,0,1709547762,0, 2024-03-04 15:52:41.877
187,-82265.64017,-46263.17129,-32578.60632,-32848.25776,-34702.53613,-44336.11564,-38948.11588,-68176.88861,0.096,0.79,0.574,192,3,0,24,176,17,240,0,0,0,1709547762,0, 2024-03-04 15:52:41.877
188,-82319.88786,-46294.44138,-32557.2604,-32877.13622,-34677.74805,-44354.13114,-38888.54848,-68124.89845,0.096,0.79,0.574,192,0,0,0,0,0,0,0,0,0,1709547762,0, 2024-03-04 15:52:41.877
189,-82335.82465,-46276.91761,-32428.33554,-32877.98558,-34590.15156,-44353.77352,-38802.42721,-68080.32907,0.096,0.79,0.574,192,0,0,0,0,0,0,0,0,0,1709547762,0, 2024-03-04 15:52:41.877
190,-82314.34462,-46261.07022,-32403.59216,-32877.89618,-34593.16904,-44365.30702,-38835.37368,-68142.8469,0.096,0.79,0.574,192,0,0,0,0,0,0,0,0,0,1709547762,0, 2024-03-04 15:52:41.877
191,-82282.11341,-46269.00509,-32502.1857,-32868.77666,-34667.93563,-44363.67534,-38927.52992,-68191.41724,0.096,0.79,0.574,192,0,0,0,0,0,0,0,0,0,1709547762,0, 2024-03-04 15:52:41.877
192,-82278.33596,-46284.20428,-32586.09415,-32863.03227,-34711.94621,-44353.70646,-38959.44821,-68174.2511,0.096,0.79,0.574,192,0,0,0,0,0,0,0,0,0,1709547762,0, 2024-03-04 15:52:41.877
193,-82321.74305,-46300.85633,-32556.76866,-32883.32765,-34683.62655,-44368.19039,-38899.83611,-68143.69627,0.096,0.79,0.574,192,0,0,0,0,0,0,0,0,0,1709547762,0, 2024-03-04 15:52:41.877
194,-82345.25708,-46286.50651,-32443.49002,-32897.76688,-34613.95617,-44385.46829,-38829.56223,-68158.53782,0.096,0.79,0.574,192,0,0,0,0,0,0,0,0,0,1709547762,0, 2024-03-04 15:52:41.877
195,-82328.67209,-46275.91178,-32409.00128,-32889.58614,-34606.7142,-44386.18355,-38853.12097,-68182.96828,0.096,0.79,0.574,192,0,0,0,0,0,0,0,0,0,1709547762,0, 2024-03-04 15:52:42.357
196,-82286.36024,-46265.33941,-32489.13228,-32857.48903,-34663.24176,-44356.03104,-38929.51923,-68158.76134,0.096,0.79,0.574,192,0,0,0,0,0,0,0,0,0,1709547762,0, 2024-03-04 15:52:42.357
197,-82284.37093,-46275.68826,-32582.71904,-32855.99147,-34717.78002,-44350.08548,-38967.78541,-68143.80802,0.102,0.788,0.576,192,3,48,24,160,18,0,0,0,0,1709547762,0, 2024-03-04 15:52:42.357
198,-82310.7907,-46283.55608,-32548.9232,-32870.18482,-34683.5148,-44360.6355,-38909.53677,-68127.5136,0.102,0.788,0.576,192,0,0,0,0,0,0,0,0,0,1709547762,0, 2024-03-04 15:52:42.358
199,-82328.89561,-46274.05659,-32429.52018,-32879.66196,-34607.3624,-44377.33226,-38839.08407,-68139.22592,0.102,0.788,0.576,192,0,0,0,0,0,0,0,0,0,1709547762,0, 2024-03-04 15:52:42.358
200,-82301.58178,-46250.22963,-32376.21127,-32852.16932,-34581.25556,-44360.21082,-38843.77794,-68147.31725,0.102,0.788,0.576,192,0,0,0,0,0,0,0,0,0,1709547762,0, 2024-03-04 15:52:42.358
201,-82257.59354,-46238.78553,-32448.60857,-32816.89826,-34627.92601,-44332.09232,-38914.11888,-68176.46392,0.102,0.788,0.576,192,0,0,0,0,0,0,0,0,0,1709547762,0, 2024-03-04 15:52:42.358
202,-82267.8977,-46267.93221,-32557.79684,-32834.7126,-34697.10466,-44349.16906,-38964.16443,-68220.25099,0.102,0.788,0.576,192,0,0,0,0,0,0,0,0,0,1709547762,0, 2024-03-04 15:52:42.358
203,-82317.69738,-46296.52009,-32543.40232,-32865.80388,-34678.508,-44369.59855,-38909.38031,-68190.00908,0.102,0.788,0.576,192,0,0,0,0,0,0,0,0,0,1709547762,0, 2024-03-04 15:52:42.358
204,-82342.75369,-46289.32283,-32425.80979,-32880.71249,-34601.21567,-44385.5577,-38828.15407,-68179.54846,0.102,0.788,0.576,192,0,0,0,0,0,0,0,0,0,1709547762,0, 2024-03-04 15:52:42.358
205,-82315.05988,-46263.05953,-32378.93818,-32858.51721,-34582.52961,-44367.45278,-38837.25123,-68175.83807,0.102,0.788,0.576,192,0,0,0,0,0,0,0,0,0,1709547762,0, 2024-03-04 15:52:42.358
206,-82266.53424,-46247.99445,-32454.01769,-32825.66015,-34637.02317,-44337.85907,-38907.16748,-68176.12865,0.102,0.788,0.576,192,0,0,0,0,0,0,0,0,0,1709547762,0, 2024-03-04 15:52:42.358
207,-82275.22907,-46272.00023,-32555.38285,-32829.05761,-34695.22711,-44333.96987,-38944.87488,-68167.99261,0.11,0.79,0.576,192,3,112,24,176,18,0,0,0,0,1709547762,0, 2024-03-04 15:52:42.358
208,-82314.6799,-46284.04782,-32529.41013,-32847.81073,-34665.25342,-44342.19531,-38886.80504,-68142.51162,0.11,0.79,0.576,192,0,0,0,0,0,0,0,0,0,1709547762,0, 2024-03-04 15:52:42.358
209,-82339.33387,-46277.94579,-32416.60087,-32864.64159,-34594.5325,-44359.04853,-38818.98985,-68130.73225,0.11,0.79,0.576,192,0,0,0,0,0,0,0,0,0,1709547762,0, 2024-03-04 15:52:42.358
210,-82334.97528,-46279.66687,-32396.50665,-32874.02932,-34601.48389,-44378.06986,-38852.11514,-68188.26564,0.11,0.79,0.576,192,0,0,0,0,0,0,0,0,0,1709547762,0, 2024-03-04 15:52:42.358
211,-82296.86556,-46274.01188,-32474.22367,-32848.7048,-34653.29524,-44352.65593,-38919.88563,-68164.93042,0.11,0.79,0.576,192,0,0,0,0,0,0,0,0,0,1709547762,0, 2024-03-04 15:52:42.358
212,-82281.04052,-46275.30828,-32558.37799,-32837.2607,-34695.18241,-44335.10981,-38951.06631,-68147.58547,0.11,0.79,0.576,192,0,0,0,0,0,0,0,0,0,1709547762,0, 2024-03-04 15:52:42.358
213,-82327.66626,-46302.73387,-32543.96111,-32871.01184,-34675.31171,-44360.34493,-38900.55137,-68141.57285,0.11,0.79,0.576,192,0,0,0,0,0,0,0,0,0,1709547762,0, 2024-03-04 15:52:42.358
214,-82364.18901,-46304.90199,-32437.388,-32893.18477,-34609.307,-44381.1544,-38829.36106,-68134.75557,0.11,0.79,0.576,192,0,0,0,0,0,0,0,0,0,1709547762,0, 2024-03-04 15:52:42.358
215,-82342.55252,-46281.16444,-32393.8468,-32871.25771,-34597.21471,-44365.17291,-38842.48153,-68127.4242,0.11,0.79,0.576,192,0,0,0,0,0,0,0,0,0,1709547762,0, 2024-03-04 15:52:42.358
216,-82307.37088,-46274.52597,-32472.0779,-32842.13338,-34656.31272,-44339.60251,-38876.74676,-68115.9801,0.11,0.79,0.576,192,0,0,0,0,0,0,0,0,0,1709547762,0, 2024-03-04 15:52:42.358
217,-82306.05213,-46287.95937,-32571.87844,-32842.55807,-34717.89178,-44336.56267,-38862.53105,-68142.73514,0.106,0.784,0.576,192,3,80,24,128,18,0,0,0,0,1709547762,0, 2024-03-04 15:52:42.358
218,-82346.35232,-46308.09829,-32556.36633,-32871.66004,-34697.52934,-44358.40033,-38816.86644,-68137.1025,0.106,0.784,0.576,192,0,0,0,0,0,0,0,0,0,1709547762,0, 2024-03-04 15:52:42.358
219,-82361.05977,-46291.5133,-32432.3812,-32876.48802,-34616.05723,-44362.31188,-38738.50122,-68103.59724,0.106,0.784,0.576,192,0,0,0,0,0,0,0,0,0,1709547762,0, 2024-03-04 15:52:42.358
220,-82337.65749,-46266.81462,-32384.79434,-32858.00312,-34597.90761,-44352.70063,-38749.43122,-68118.97524,0.106,0.784,0.576,192,0,0,0,0,0,0,0,0,0,1709547762,0, 2024-03-04 15:52:42.358
221,-82309.04726,-46273.67661,-32472.70375,-32843.5639,-34662.97354,-44348.18558,-38835.41838,-68155.47563,0.106,0.784,0.576,192,0,0,0,0,0,0,0,0,0,1709547762,0, 2024-03-04 15:52:42.358
222,-82301.22415,-46290.66393,-32563.49654,-32835.76314,-34713.24262,-44340.25071,-38870.8906,-68151.65349,0.106,0.784,0.576,192,0,0,0,0,0,0,0,0,0,1709547762,0, 2024-03-04 15:52:42.358
223,-82334.68471,-46305.41608,-32543.58113,-32857.44433,-34689.12508,-44357.86389,-38814.11717,-68143.96449,0.106,0.784,0.576,192,0,0,0,0,0,0,0,0,0,1709547762,0, 2024-03-04 15:52:42.358
224,-82362.35617,-46297.50357,-32433.83407,-32878.27615,-34618.96296,-44380.61796,-38743.03862,-68149.9324,0.106,0.784,0.576,192,0,0,0,0,0,0,0,0,0,1709547762,0, 2024-03-04 15:52:42.358
225,-82343.33483,-46282.84082,-32388.95177,-32865.80388,-34605.06017,-44377.39931,-38757.67902,-68171.63595,0.106,0.784,0.576,192,0,0,0,0,0,0,0,0,0,1709547762,0, 2024-03-04 15:52:42.358
226,-82298.94427,-46270.81558,-32462.19843,-32836.85837,-34654.90456,-44356.50043,-38838.8829,-68205.32003,0.106,0.784,0.576,192,0,0,0,0,0,0,0,0,0,1709547762,0, 2024-03-04 15:52:42.358
227,-82289.35537,-46276.96231,-32547.76091,-32825.86131,-34697.77521,-44339.02137,-38877.14909,-68210.66209,0.108,0.788,0.572,192,3,96,24,160,17,224,0,0,0,1709547762,0, 2024-03-04 15:52:42.358
228,-82324.98405,-46298.01766,-32533.70166,-32855.43267,-34677.47982,-44360.36728,-38831.81975,-68203.57659,0.108,0.788,0.572,192,0,0,0,0,0,0,0,0,0,1709547762,0, 2024-03-04 15:52:42.358
229,-82349.90625,-46291.33448,-32414.99155,-32866.92147,-34596.11947,-44369.06211,-38752.58282,-68164.90807,0.108,0.788,0.572,192,0,0,0,0,0,0,0,0,0,1709547762,0, 2024-03-04 15:52:42.358
230,-82345.86058,-46287.60174,-32375.33955,-32863.25578,-34583.91542,-44372.10195,-38767.20086,-68185.42697,0.108,0.788,0.572,192,0,0,0,0,0,0,0,0,0,1709547762,0, 2024-03-04 15:52:42.358
231,-82312.04239,-46279.75628,-32455.89524,-32838.71357,-34642.99108,-44351.22542,-38852.07043,-68195.01587,0.108,0.788,0.572,192,0,0,0,0,0,0,0,0,0,1709547762,0, 2024-03-04 15:52:42.358
232,-82302.67701,-46292.29561,-32547.42563,-32829.79522,-34694.55656,-44333.76871,-38891.74478,-68160.2142,0.108,0.788,0.572,192,0,0,0,0,0,0,0,0,0,1709547762,0, 2024-03-04 15:52:42.358
233,-82327.66626,-46304.07498,-32525.07389,-32850.78351,-34666.46041,-44348.4538,-38835.86542,-68140.65643,0.108,0.788,0.572,192,0,0,0,0,0,0,0,0,0,1709547762,0, 2024-03-04 15:52:42.358
234,-82376.25895,-46318.31304,-32422.79231,-32884.19937,-34598.91344,-44380.19328,-38766.68677,-68151.67584,0.108,0.788,0.572,192,0,0,0,0,0,0,0,0,0,1709547762,0, 2024-03-04 15:52:42.358
235,-82354.55541,-46291.84858,-32368.8352,-32861.89233,-34570.48202,-44360.14376,-38765.47978,-68130.68755,0.108,0.788,0.572,192,0,0,0,0,0,0,0,0,0,1709547762,0, 2024-03-04 15:52:42.358
236,-82320.96074,-46292.49678,-32450.35201,-32844.34621,-34633.5363,-44348.02912,-38847.57773,-68144.47858,0.108,0.788,0.572,192,0,0,0,0,0,0,0,0,0,1709547762,0, 2024-03-04 15:52:42.358
237,-82319.1726,-46313.06038,-32554.82406,-32844.54737,-34696.92584,-44344.22932,-38893.2647,-68146.35612,0.106,0.786,0.576,192,3,80,24,144,18,0,0,0,0,1709547762,0, 2024-03-04 15:52:42.358
238,-82359.5622,-46326.53848,-32543.93876,-32868.77666,-34679.98322,-44360.70256,-38843.9791,-68124.07143,0.106,0.786,0.576,192,0,0,0,0,0,0,0,0,0,1709547762,0, 2024-03-04 15:52:42.358
239,-82381.24339,-46315.67553,-32423.59697,-32880.73485,-34601.21567,-44370.00088,-38763.64693,-68105.18421,0.106,0.786,0.576,192,0,0,0,0,0,0,0,0,0,1709547762,0, 2024-03-04 15:52:42.358
240,-82365.08308,-46304.27615,-32377.8653,-32872.75527,-34583.20017,-44369.10681,-38767.91612,-68110.90626,0.106,0.786,0.576,192,0,0,0,0,0,0,0,0,0,1709547762,0, 2024-03-04 15:52:42.358
241,-82335.57878,-46303.11385,-32461.03614,-32854.62801,-34643.9075,-44358.66855,-38846.43779,-68150.71471,0.106,0.786,0.576,192,0,0,0,0,0,0,0,0,0,1709547762,0, 2024-03-04 15:52:42.358
242,-82323.50884,-46301.54923,-32553.03592,-32838.33359,-34696.03177,-44338.50728,-38890.24721,-68145.01502,0.106,0.786,0.576,192,0,0,0,0,0,0,0,0,0,1709547762,0, 2024-03-04 15:52:42.358
243,-82364.41253,-46324.92916,-32545.79396,-32868.48609,-34682.50897,-44362.26718,-38846.92953,-68131.62632,0.106,0.786,0.576,192,0,0,0,0,0,0,0,0,0,1709547762,0, 2024-03-04 15:52:42.358
244,-82399.57182,-46335.94857,-32435.75632,-32897.67747,-34616.48191,-44394.81132,-38778.06381,-68148.94893,0.106,0.786,0.576,192,0,0,0,0,0,0,0,0,0,1709547762,0, 2024-03-04 15:52:42.358
245,-82371.22981,-46318.71537,-32392.41629,-32895.21878,-34603.62966,-44402.99206,-38787.02686,-68206.66113,0.106,0.786,0.576,192,0,0,0,0,0,0,0,0,0,1709547762,0, 2024-03-04 15:52:42.358
246,-82327.44274,-46298.08471,-32461.17025,-32871.68239,-34653.54111,-44385.02126,-38853.6127,-68212.71845,0.106,0.786,0.576,192,0,0,0,0,0,0,0,0,0,1709547762,0, 2024-03-04 15:52:42.358
247,-82340.89849,-46319.60944,-32561.30607,-32865.06627,-34708.95108,-44374.89592,-38904.48527,-68214.79716,0.106,0.786,0.572,192,3,80,24,144,17,224,0,0,0,1709547762,0, 2024-03-04 15:52:42.358
248,-82383.41151,-46340.21775,-32549.99608,-32885.13814,-34688.40983,-44386.29531,-38862.62046,-68191.86427,0.106,0.786,0.572,192,0,0,0,0,0,0,0,0,0,1709547762,0, 2024-03-04 15:52:42.358
249,-82392.8663,-46325.57736,-32424.26752,-32890.41315,-34602.53443,-44389.20103,-38783.24941,-68147.25019,0.106,0.786,0.572,192,0,0,0,0,0,0,0,0,0,1709547762,0, 2024-03-04 15:52:42.358
250,-82364.30077,-46291.24508,-32362.15202,-32863.4793,-34573.61127,-44370.53733,-38793.19594,-68157.37553,0.106,0.786,0.572,192,0,0,0,0,0,0,0,0,0,1709547762,0, 2024-03-04 15:52:42.358
251,-82330.50493,-46275.75532,-32435.06341,-32838.82533,-34629.55768,-44354.1982,-38884.10048,-68215.1995,0.106,0.786,0.572,192,0,0,0,0,0,0,0,0,0,1709547762,0, 2024-03-04 15:52:42.358
252,-82332.96363,-46300.5434,-32542.15062,-32841.61929,-34694.06482,-44351.6948,-38944.11492,-68216.11592,0.106,0.786,0.572,192,0,0,0,0,0,0,0,0,0,1709547762,0, 2024-03-04 15:52:42.358
253,-82367.31826,-46326.31497,-32527.1973,-32862.45112,-34672.60714,-44363.31771,-38902.63008,-68179.25789,0.106,0.786,0.572,192,0,0,0,0,0,0,0,0,0,1709547762,0, 2024-03-04 15:52:42.358
254,-82392.97806,-46319.69885,-32409.64948,-32878.43262,-34594.08547,-44377.9134,-38823.39315,-68165.15394,0.106,0.786,0.572,192,0,0,0,0,0,0,0,0,0,1709547762,0, 2024-03-04 15:52:42.358
255,-82384.03736,-46296.43068,-32358.15106,-32865.9827,-34573.25364,-44373.55481,-38823.88488,-68174.56402,0.106,0.786,0.572,192,0,0,0,0,0,0,0,0,0,1709547762,0, 2024-03-04 15:52:42.358
0,-82355.62829,-46298.37528,-32435.75632,-32844.12269,-34629.98237,-44358.19916,-38899.83611,-68199.28505,0.106,0.786,0.572,192,0,0,0,0,0,0,0,0,0,1709547762,0, 2024-03-04 15:52:42.358
1,-82340.83144,-46309.93114,-32533.43344,-32834.08676,-34686.50993,-44343.53642,-38942.66205,-68192.95951,0.104,0.788,0.572,192,3,64,24,160,17,224,0,0,0,1709547762,0, 2024-03-04 15:52:42.358
2,-82360.23275,-46307.22658,-32510.76877,-32838.22183,-34655.26219,-44337.68026,-38880.25598,-68142.26575,0.104,0.788,0.572,192,0,0,0,0,0,0,0,0,0,1709547762,0, 2024-03-04 15:52:42.358
3,-82402.25403,-46323.43159,-32410.96823,-32876.48802,-34592.87847,-44376.88522,-38811.63613,-68151.27351,0.104,0.788,0.572,192,0,0,0,0,0,0,0,0,0,1709547762,0, 2024-03-04 15:52:42.358
4,-82400.46589,-46324.72799,-32371.40565,-32882.92532,-34585.68121,-44390.60919,-38823.57196,-68176.37452,0.104,0.788,0.572,192,0,0,0,0,0,0,0,0,0,1709547762,0, 2024-03-04 15:52:42.358
5,-82357.37173,-46305.5949,-32437.52211,-32849.353,-34636.46437,-44363.98826,-38894.73991,-68191.50665,0.104,0.788,0.572,192,0,0,0,0,0,0,0,0,0,1709547762,0, 2024-03-04 15:52:42.358
6,-82348.20752,-46313.21684,-32539.26725,-32840.43465,-34697.32817,-44352.76769,-38941.23154,-68193.54066,0.104,0.788,0.572,192,0,0,0,0,0,0,0,0,0,1709547762,0, 2024-03-04 15:52:42.358
7,-82386.94309,-46341.02241,-32528.33724,-32861.06531,-34678.32919,-44362.91538,-38891.25304,-68141.79637,0.104,0.788,0.572,192,0,0,0,0,0,0,0,0,0,1709547762,0, 2024-03-04 15:52:42.358
8,-82411.75352,-46331.56762,-32410.87883,-32875.28102,-34602.02034,-44376.84052,-38811.12204,-68119.86931,0.104,0.788,0.572,192,0,0,0,0,0,0,0,0,0,1709547762,0, 2024-03-04 15:52:42.358
9,-82390.80994,-46295.24604,-32354.1054,-32855.0974,-34577.94751,-44363.45182,-38811.54672,-68125.5243,0.104,0.788,0.572,192,0,0,0,0,0,0,0,0,0,1709547762,0, 2024-03-04 15:52:42.358
10,-82356.70118,-46290.39571,-32423.14993,-32832.47743,-34630.04942,-44345.48102,-38888.59318,-68143.24923,0.104,0.788,0.572,192,0,0,0,0,0,0,0,0,0,1709547762,0, 2024-03-04 15:52:42.358
11,-82345.07827,-46306.53367,-32524.73861,-32828.8788,-34688.45453,-44339.06607,-38935.86712,-68155.43093,0.102,0.78,0.574,192,3,48,24,96,17,240,0,0,0,1709547762,0, 2024-03-04 15:52:42.358
12,-82382.80802,-46331.83585,-32519.08362,-32856.10322,-34674.73056,-44358.62385,-38891.56597,-68138.42125,0.102,0.78,0.574,192,0,0,0,0,0,0,0,0,0,1709547762,0, 2024-03-04 15:52:42.358
13,-82420.29189,-46338.78724,-32413.13635,-32881.58421,-34607.78709,-44384.28365,-38819.23572,-68129.34645,0.102,0.78,0.574,192,0,0,0,0,0,0,0,0,0,1709547762,0, 2024-03-04 15:52:42.358
14,-82402.25403,-46312.14396,-32362.24143,-32873.73875,-34586.26236,-44386.8094,-38824.73425,-68169.93721,0.102,0.78,0.574,192,0,0,0,0,0,0,0,0,0,1709547762,0, 2024-03-04 15:52:42.358
15,-82361.97619,-46307.94183,-32435.86808,-32856.81848,-34642.6111,-44380.21563,-38909.35795,-68231.65038,0.102,0.78,0.574,192,0,0,0,0,0,0,0,0,0,1709547762,0, 2024-03-04 15:52:42.358
16,-82363.54081,-46339.5472,-32548.83379,-32864.79805,-34711.36507,-44385.82592,-38970.73584,-68246.35783,0.102,0.78,0.574,192,0,0,0,0,0,0,0,0,0,1709547762,0, 2024-03-04 15:52:42.358
17,-82390.18409,-46344.62104,-32532.8523,-32872.24118,-34685.81703,-44384.17189,-38919.66211,-68193.80888,0.102,0.78,0.574,192,0,0,0,0,0,0,0,0,0,1709547762,0, 2024-03-04 15:52:42.358
18,-82408.8925,-46327.58901,-32402.76514,-32872.97879,-34597.52763,-44383.99308,-38827.9082,-68148.54659,0.102,0.78,0.574,192,0,0,0,0,0,0,0,0,0,1709547762,0, 2024-03-04 15:52:42.358
19,-82392.64278,-46305.14786,-32344.13652,-32856.41615,-34572.42663,-44375.45471,-38826.36593,-68157.26377,0.102,0.78,0.574,192,0,0,0,0,0,0,0,0,0,1709547762,0, 2024-03-04 15:52:42.358
20,-82352.83433,-46295.76013,-32412.01877,-32831.91864,-34625.75789,-44360.74726,-38904.86525,-68202.19078,0.102,0.78,0.574,192,0,0,0,0,0,0,0,0,0,1709547762,0, 2024-03-04 15:52:42.358
21,-82354.64482,-46324.90681,-32522.0564,-32838.87003,-34694.86948,-44366.46931,-38962.82333,-68228.99052,0.102,0.778,0.582,192,3,48,24,80,18,48,0,0,0,1709547762,0, 2024-03-04 15:52:42.358
22,-82392.44162,-46345.71628,-32519.19538,-32862.11584,-34682.08428,-44379.2098,-38920.24325,-68198.54745,0.102,0.778,0.582,192,0,0,0,0,0,0,0,0,0,1709547762,0, 2024-03-04 15:52:42.358
23,-82420.58246,-46338.13904,-32402.184,-32872.75527,-34603.00381,-44384.23894,-38839.73227,-68161.51061,0.102,0.778,0.582,192,0,0,0,0,0,0,0,0,0,1709547762,0, 2024-03-04 15:52:42.358
24,-82410.07714,-46319.05065,-32344.18122,-32861.64646,-34576.517,-44378.44984,-38841.72158,-68178.43088,0.102,0.778,0.582,192,0,0,0,0,0,0,0,0,0,1709547762,0, 2024-03-04 15:52:42.358
25,-82355.40478,-46288.317,-32402.38516,-32821.39097,-34618.47122,-44344.54225,-38908.73211,-68203.7107,0.102,0.778,0.582,192,0,0,0,0,0,0,0,0,0,1709547762,0, 2024-03-04 15:52:42.358
26,-82342.95486,-46298.66586,-32507.2372,-32812.8526,-34682.39721,-44332.69582,-38959.53762,-68203.15191,0.102,0.778,0.582,192,0,0,0,0,0,0,0,0,0,1709547762,0, 2024-03-04 15:52:42.358
27,-82392.08399,-46336.48501,-32515.08266,-32844.07799,-34678.64212,-44352.03008,-38924.57949,-68155.96737,0.102,0.778,0.582,192,0,0,0,0,0,0,0,0,0,1709547762,0, 2024-03-04 15:52:42.358
28,-82420.69422,-46330.38298,-32397.22191,-32855.7456,-34598.86874,-44361.66368,-38840.40282,-68114.99663,0.102,0.778,0.582,192,0,0,0,0,0,0,0,0,0,1709547762,0, 2024-03-04 15:52:42.358
29,-82401.11409,-46305.23727,-32333.83236,-32845.5532,-34574.55004,-44362.5801,-38838.70409,-68148.72541,0.102,0.778,0.582,192,0,0,0,0,0,0,0,0,0,1709547762,0, 2024-03-04 15:52:42.358
30,-82363.20554,-46298.15177,-32401.24522,-32826.12953,-34628.82008,-44352.38771,-38915.23646,-68192.35601,0.102,0.778,0.582,192,0,0,0,0,0,0,0,0,0,1709547762,0, 2024-03-04 15:52:42.358
31,-82356.43296,-46315.72024,-32507.01368,-32822.15092,-34689.77328,-44347.02329,-38966.39961,-68199.84385,0.102,0.778,0.582,192,0,0,0,0,0,0,0,0,0,1709547762,0, 2024-03-04 15:52:42.358
32,-82391.05581,-46341.31299,-32507.2819,-32847.65426,-34678.30684,-44364.99409,-38924.7136,-68160.88476,0.106,0.77,0.578,192,3,80,24,16,18,16,0,0,0,1709547762,0, 2024-03-04 15:52:42.358
33,-82426.01394,-46343.81638,-32396.61841,-32867.50261,-34607.22829,-44382.78608,-38846.86248,-68130.57579,0.106,0.77,0.578,192,0,0,0,0,0,0,0,0,0,1709547762,0, 2024-03-04 15:52:42.358
34,-82415.37451,-46323.92333,-32342.39308,-32856.99729,-34585.23418,-44382.80843,-38850.23759,-68165.17629,0.106,0.77,0.578,192,0,0,0,0,0,0,0,0,0,1709547762,0, 2024-03-04 15:52:42.358
35,-82370.26869,-46309.14883,-32411.97406,-32835.33845,-34640.10771,-44371.74432,-38930.61446,-68224.38606,0.106,0.77,0.578,192,0,0,0,0,0,0,0,0,0,1709547762,0, 2024-03-04 15:52:42.358
36,-82361.61856,-46326.00204,-32524.04571,-32831.67277,-34703.00552,-44363.80945,-38984.95155,-68211.17618,0.106,0.77,0.578,192,0,0,0,0,0,0,0,0,0,1709547762,0, 2024-03-04 15:52:42.358
37,-82388.28419,-46339.50249,-32522.10111,-32846.31316,-34686.44287,-44370.38086,-38942.90792,-68181.13544,0.106,0.77,0.578,192,0,0,0,0,0,0,0,0,0,1709547762,0, 2024-03-04 15:52:42.358
38,-82426.05864,-46345.02338,-32412.73402,-32867.05558,-34614.962,-44391.21269,-38865.92851,-68167.54558,0.106,0.77,0.578,192,0,0,0,0,0,0,0,0,0,1709547762,0, 2024-03-04 15:52:42.358
39,-82414.74866,-46321.82226,-32350.79734,-32849.64357,-34582.70843,-44382.98725,-38856.98782,-68166.87502,0.106,0.77,0.578,192,0,0,0,0,0,0,0,0,0,1709547762,0, 2024-03-04 15:52:42.358
40,-82368.14527,-46304.3879,-32416.17619,-32820.16162,-34631.01055,-44362.13307,-38929.38512,-68197.40751,0.106,0.77,0.578,192,0,0,0,0,0,0,0,0,0,1709547762,0, 2024-03-04 15:52:42.358
41,-82354.19778,-46315.36261,-32522.19051,-32810.41626,-34693.55073,-44349.57139,-38984.70568,-68195.977,0.106,0.77,0.578,192,0,0,0,0,0,0,0,0,0,1709547762,0, 2024-03-04 15:52:42.358
42,-82384.26088,-46331.41116,-32521.38585,-32830.28696,-34683.29128,-44361.8872,-38950.73103,-68186.27634,0.106,0.788,0.572,192,3,80,24,160,17,224,0,0,0,1709547762,0, 2024-03-04 15:52:42.358
43,-82410.01009,-46322.20224,-32403.32394,-32845.88848,-34605.55191,-44376.88522,-38868.27545,-68187.48333,0.106,0.788,0.572,192,0,0,0,0,0,0,0,0,0,1709547762,0, 2024-03-04 15:52:42.358
44,-82405.76326,-46305.99723,-32341.70018,-32838.37829,-34576.78522,-44372.7278,-38860.42999,-68189.60675,0.106,0.788,0.572,192,0,0,0,0,0,0,0,0,0,1709547762,0, 2024-03-04 15:52:42.358
45,-82368.86053,-46294.39667,-32402.2287,-32813.23258,-34624.14856,-44349.79491,-38927.70874,-68202.77193,0.106,0.788,0.572,192,0,0,0,0,0,0,0,0,0,1709547762,0, 2024-03-04 15:52:42.358
46,-82353.39312,-46306.57837,-32505.44906,-32805.23065,-34683.06776,-44334.86394,-38975.27325,-68195.82053,0.106,0.788,0.572,192,0,0,0,0,0,0,0,0,0,1709547762,0, 2024-03-04 15:52:42.358
47,-82397.11313,-46337.35673,-32516.89315,-32835.58432,-34679.15621,-44354.30996,-38940.13631,-68177.46975,0.106,0.788,0.572,192,0,0,0,0,0,0,0,0,0,1709547762,0, 2024-03-04 15:52:42.358
48,-82432.09361,-46333.62399,-32408.15191,-32853.73394,-34606.91537,-44369.03976,-38860.83232,-68166.80797,0.106,0.788,0.572,192,0,0,0,0,0,0,0,0,0,1709547762,0, 2024-03-04 15:52:42.358
49,-82420.35895,-46311.00402,-32346.34934,-32844.52502,-34578.01456,-44366.69283,-38856.49608,-68183.57178,0.106,0.788,0.572,192,0,0,0,0,0,0,0,0,0,1709547762,0, 2024-03-04 15:52:42.358
50,-82376.28131,-46295.46956,-32404.53093,-32815.84773,-34623.61212,-44345.63748,-38929.74275,-68212.80786,0.106,0.788,0.572,192,0,0,0,0,0,0,0,0,0,1709547762,0, 2024-03-04 15:52:42.358
51,-82366.26772,-46306.57837,-32504.37617,-32801.63202,-34679.20091,-44323.93394,-38977.97781,-68175.56985,0.106,0.788,0.572,192,0,0,0,0,0,0,0,0,0,1709547762,0, 2024-03-04 15:52:42.358
52,-82395.72732,-46324.48212,-32500.57638,-32816.51828,-34661.76655,-44329.74539,-38932.17909,-68134.93438,0.106,0.788,0.57,192,3,80,24,160,17,208,0,0,0,1709547762,0, 2024-03-04 15:52:42.358
53,-82426.46097,-46321.46464,-32383.92262,-32827.98473,-34582.9543,-44338.7755,-38847.66714,-68091.72846,0.106,0.788,0.57,192,0,0,0,0,0,0,0,0,0,1709547762,0, 2024-03-04 15:52:42.358
54,-82412.20056,-46301.23631,-32322.90236,-32820.69806,-34556.57924,-44341.70357,-38846.25898,-68123.15501,0.106,0.788,0.57,192,0,0,0,0,0,0,0,0,0,1709547762,0, 2024-03-04 15:52:42.358
55,-82377.73417,-46297.3471,-32390.15876,-32804.33658,-34609.73169,-44335.26627,-38921.91963,-68161.24239,0.106,0.788,0.57,192,0,0,0,0,0,0,0,0,0,1709547762,0, 2024-03-04 15:52:42.358
56,-82373.01795,-46315.13909,-32501.98454,-32800.60384,-34675.60228,-44329.63363,-38973.03807,-68150.67001,0.106,0.788,0.57,192,0,0,0,0,0,0,0,0,0,1709547762,0, 2024-03-04 15:52:42.358
57,-82408.60193,-46338.63078,-32515.08266,-32828.2306,-34673.61297,-44352.05243,-38937.29763,-68146.7361,0.106,0.788,0.57,192,0,0,0,0,0,0,0,0,0,1709547762,0, 2024-03-04 15:52:42.358
58,-82441.12372,-46336.97675,-32408.71071,-32851.9011,-34605.79778,-44376.46054,-38860.72056,-68150.06651,0.106,0.788,0.57,192,0,0,0,0,0,0,0,0,0,1709547762,0, 2024-03-04 15:52:42.358
59,-82424.2258,-46312.76981,-32345.45527,-32843.18392,-34580.22738,-44377.71224,-38857.68072,-68171.03245,0.106,0.788,0.57,192,0,0,0,0,0,0,0,0,0,1709547763,0, 2024-03-04 15:52:42.838
60,-82385.37847,-46303.60559,-32413.42693,-32826.68833,-34638.69955,-44370.98436,-38937.99054,-68221.97207,0.106,0.788,0.57,192,0,0,0,0,0,0,0,0,0,1709547763,0, 2024-03-04 15:52:42.838
61,-82376.01309,-46320.9729,-32526.21383,-32824.87784,-34709.35341,-44369.41974,-39000.12839,-68244.03325,0.106,0.788,0.57,192,0,0,0,0,0,0,0,0,0,1709547763,0, 2024-03-04 15:52:42.838
62,-82405.58444,-46336.77558,-32526.10207,-32835.07023,-34696.29999,-44372.7278,-38962.68922,-68198.05571,0.11,0.79,0.574,192,3,112,24,176,17,240,0,0,0,1709547763,0, 2024-03-04 15:52:42.839
63,-82434.01586,-46327.65607,-32406.25202,-32840.32289,-34612.05627,-44376.12526,-38878.11022,-68164.08106,0.11,0.79,0.574,192,0,0,0,0,0,0,0,0,0,1709547763,0, 2024-03-04 15:52:42.839
64,-82419.53193,-46304.45496,-32339.30854,-32831.11397,-34576.38288,-44373.89009,-38871.15882,-68188.84679,0.11,0.79,0.574,192,0,0,0,0,0,0,0,0,0,1709547763,0, 2024-03-04 15:52:42.839
65,-82375.14137,-46290.77569,-32395.52318,-32807.73405,-34622.82981,-44355.56166,-38944.69606,-68219.46868,0.11,0.79,0.574,192,0,0,0,0,0,0,0,0,0,1709547763,0, 2024-03-04 15:52:42.839
66,-82361.79738,-46304.23144,-32499.34703,-32801.78849,-34686.91226,-44346.33039,-39003.43645,-68230.10811,0.11,0.79,0.574,192,0,0,0,0,0,0,0,0,0,1709547763,0, 2024-03-04 15:52:42.839
67,-82390.34055,-46319.90001,-32502.49863,-32816.6971,-34675.35641,-44351.53834,-38962.91273,-68206.28115,0.11,0.79,0.574,192,0,0,0,0,0,0,0,0,0,1709547763,0, 2024-03-04 15:52:42.839
68,-82421.05185,-46316.83783,-32387.70007,-32832.61154,-34596.16418,-44363.98826,-38875.02567,-68184.59996,0.11,0.79,0.574,192,0,0,0,0,0,0,0,0,0,1709547763,0, 2024-03-04 15:52:42.839
69,-82415.44156,-46301.59394,-32323.9976,-32827.91767,-34565.43053,-44364.03297,-38866.3532,-68190.12084,0.11,0.79,0.574,192,0,0,0,0,0,0,0,0,0,1709547763,0, 2024-03-04 15:52:42.839
70,-82377.89063,-46290.37336,-32384.34731,-32805.00714,-34612.72682,-44346.53155,-38933.90017,-68206.70583,0.11,0.79,0.574,192,0,0,0,0,0,0,0,0,0,1709547763,0, 2024-03-04 15:52:42.839
71,-82369.77695,-46309.4841,-32498.2518,-32803.44251,-34681.45844,-44344.16227,-38990.40538,-68228.63289,0.11,0.79,0.574,192,0,0,0,0,0,0,0,0,0,1709547763,0, 2024-03-04 15:52:42.839
72,-82403.66219,-46333.86985,-32508.39949,-32824.9896,-34676.25048,-44358.84736,-38954.8214,-68219.17811,0.106,0.788,0.574,192,3,80,24,160,17,240,0,0,0,1709547763,0, 2024-03-04 15:52:42.839
73,-82438.50856,-46333.91456,-32398.9877,-32842.82629,-34602.93676,-44376.19232,-38874.93627,-68204.49301,0.106,0.788,0.574,192,0,0,0,0,0,0,0,0,0,1709547763,0, 2024-03-04 15:52:42.839
74,-82430.03725,-46312.32277,-32332.84889,-32829.90698,-34571.26434,-44369.44209,-38868.74483,-68197.51927,0.106,0.788,0.574,192,0,0,0,0,0,0,0,0,0,1709547763,0, 2024-03-04 15:52:42.839
75,-82393.31334,-46301.01279,-32392.17042,-32806.88468,-34619.43234,-44352.27595,-38942.75146,-68213.67958,0.106,0.788,0.574,192,0,0,0,0,0,0,0,0,0,1709547763,0, 2024-03-04 15:52:42.839
76,-82372.48151,-46311.22754,-32499.79407,-32796.46877,-34682.71013,-44337.50145,-38998.56377,-68210.17035,0.106,0.788,0.574,192,0,0,0,0,0,0,0,0,0,1709547763,0, 2024-03-04 15:52:42.839
77,-82403.48338,-46332.41699,-32507.48307,-32811.75736,-34676.16107,-44339.28959,-38963.98562,-68152.23463,0.106,0.788,0.574,192,0,0,0,0,0,0,0,0,0,1709547763,0, 2024-03-04 15:52:42.839
78,-82439.73791,-46327.58901,-32387.09657,-32818.08291,-34594.62191,-44337.81437,-38876.70206,-68092.8237,0.106,0.788,0.574,192,0,0,0,0,0,0,0,0,0,1709547763,0, 2024-03-04 15:52:42.839
79,-82428.45028,-46303.51619,-32314.11812,-32802.88372,-34557.00392,-44328.35958,-38863.46982,-68097.00347,0.106,0.788,0.574,192,0,0,0,0,0,0,0,0,0,1709547763,0, 2024-03-04 15:52:42.839
80,-82386.33959,-46291.49095,-32373.84199,-32781.33664,-34606.69185,-44315.55203,-38939.80103,-68146.44553,0.106,0.788,0.574,192,0,0,0,0,0,0,0,0,0,1709547763,0, 2024-03-04 15:52:42.839
81,-82378.20356,-46310.28876,-32488.03705,-32781.56016,-34679.08915,-44316.42375,-39005.26929,-68173.91582,0.106,0.788,0.574,192,0,0,0,0,0,0,0,0,0,1709547763,0, 2024-03-04 15:52:42.839
82,-82405.83031,-46326.762,-32498.36355,-32800.73795,-34673.54592,-44330.68416,-38970.04294,-68153.6875,0.108,0.782,0.576,192,3,96,24,112,18,0,0,0,0,1709547763,0, 2024-03-04 15:52:42.839
83,-82432.92063,-46324.41507,-32391.72338,-32826.04013,-34600.99216,-44355.71812,-38887.94498,-68148.56895,0.108,0.782,0.576,192,0,0,0,0,0,0,0,0,0,1709547763,0, 2024-03-04 15:52:42.839
84,-82427.71267,-46311.80868,-32328.535,-32828.49882,-34573.65597,-44367.29632,-38880.12187,-68168.14907,0.108,0.782,0.576,192,0,0,0,0,0,0,0,0,0,1709547763,0, 2024-03-04 15:52:42.839
85,-82388.23949,-46296.29657,-32381.17336,-32801.09558,-34619.20883,-44347.60444,-38949.56874,-68179.54846,0.108,0.782,0.576,192,0,0,0,0,0,0,0,0,0,1709547763,0, 2024-03-04 15:52:42.839
86,-82368.23468,-46301.32571,-32485.08662,-32786.36578,-34680.22909,-44332.27114,-39006.11866,-68176.53098,0.108,0.782,0.576,192,0,0,0,0,0,0,0,0,0,1709547763,0, 2024-03-04 15:52:42.839
87,-82397.85074,-46321.79991,-32501.15752,-32807.01879,-34680.83259,-44348.4538,-38977.75429,-68172.57472,0.108,0.782,0.576,192,0,0,0,0,0,0,0,0,0,1709547763,0, 2024-03-04 15:52:42.839
88,-82435.40167,-46325.08562,-32394.04796,-32831.87393,-34611.87745,-44372.25841,-38904.86525,-68177.71562,0.108,0.782,0.576,192,0,0,0,0,0,0,0,0,0,1709547763,0, 2024-03-04 15:52:42.839
89,-82428.89731,-46308.00889,-32325.3387,-32829.5717,-34581.41203,-44377.3099,-38893.24235,-68202.77193,0.108,0.782,0.576,192,0,0,0,0,0,0,0,0,0,1709547763,0, 2024-03-04 15:52:42.839
90,-82385.11025,-46291.82622,-32374.669,-32803.2637,-34622.15926,-44359.42851,-38955.55901,-68238.84764,0.108,0.782,0.576,192,0,0,0,0,0,0,0,0,0,1709547763,0, 2024-03-04 15:52:42.839
91,-82371.11805,-46304.18674,-32483.05261,-32796.44642,-34686.7111,-44351.31482,-39016.95925,-68253.19746,0.108,0.782,0.576,192,0,0,0,0,0,0,0,0,0,1709547763,0, 2024-03-04 15:52:42.839
92,-82406.05383,-46328.50544,-32497.87182,-32817.09943,-34684.43122,-44361.12724,-38985.71151,-68217.12175,0.108,0.786,0.578,192,3,96,24,144,18,16,0,0,0,1709547763,0, 2024-03-04 15:52:42.839
93,-82447.22574,-46335.36742,-32394.65146,-32843.25097,-34615.0067,-44384.32835,-38906.22871,-68209.29864,0.108,0.786,0.578,192,0,0,0,0,0,0,0,0,0,1709547763,0, 2024-03-04 15:52:42.839
94,-82432.36183,-46309.23823,-32316.46506,-32825.6825,-34572.58309,-44371.31964,-38884.21224,-68194.41237,0.108,0.786,0.578,192,0,0,0,0,0,0,0,0,0,1709547763,0, 2024-03-04 15:52:42.839
95,-82398.38718,-46301.30336,-32370.7798,-32803.82249,-34620.54993,-44356.0981,-38955.15668,-68222.77674,0.108,0.786,0.578,192,0,0,0,0,0,0,0,0,0,1709547763,0, 2024-03-04 15:52:42.839
96,-82387.43483,-46319.31887,-32485.13132,-32798.99452,-34690.53324,-44348.02912,-39017.71921,-68236.79128,0.108,0.786,0.578,192,0,0,0,0,0,0,0,0,0,1709547763,0, 2024-03-04 15:52:42.839
97,-82419.55428,-46340.12834,-32499.45879,-32812.71849,-34683.02306,-44350.66662,-38980.77178,-68188.82444,0.108,0.786,0.578,192,0,0,0,0,0,0,0,0,0,1709547763,0, 2024-03-04 15:52:42.839
98,-82460.30151,-46342.92231,-32395.05379,-32832.52213,-34611.94451,-44365.7317,-38895.76809,-68163.67873,0.108,0.786,0.578,192,0,0,0,0,0,0,0,0,0,1709547763,0, 2024-03-04 15:52:42.839
99,-82451.91961,-46321.46464,-32327.2386,-32827.51534,-34579.1992,-44365.41878,-38880.36774,-68185.80695,0.108,0.786,0.578,192,0,0,0,0,0,0,0,0,0,1709547763,0, 2024-03-04 15:52:42.839
100,-82416.11211,-46309.41705,-32381.97802,-32805.74474,-34624.81911,-44347.71619,-38951.24512,-68213.61252,0.108,0.786,0.578,192,0,0,0,0,0,0,0,0,0,1709547763,0, 2024-03-04 15:52:42.839
101,-82407.46199,-46328.32662,-32493.71439,-32799.68742,-34694.4895,-44334.52866,-39015.57344,-68188.91384,0.108,0.786,0.578,192,0,0,0,0,0,0,0,0,0,1709547763,0, 2024-03-04 15:52:42.839
102,-82433.83705,-46346.05156,-32504.35382,-32809.27632,-34684.94531,-44334.30515,-38976.23437,-68137.03545,0.106,0.794,0.576,192,3,80,24,208,18,0,0,0,0,1709547763,0, 2024-03-04 15:52:42.839
103,-82460.79325,-46338.60842,-32391.09753,-32819.20049,-34607.13888,-44343.55877,-38884.25695,-68108.15699,0.106,0.794,0.576,192,0,0,0,0,0,0,0,0,0,1709547763,0, 2024-03-04 15:52:42.839
104,-82452.59016,-46321.28582,-32321.04717,-32813.38904,-34573.72303,-44346.28568,-38870.57768,-68116.40479,0.106,0.794,0.576,192,0,0,0,0,0,0,0,0,0,1709547763,0, 2024-03-04 15:52:42.839
105,-82417.27441,-46311.11578,-32374.87017,-32793.51834,-34617.04071,-44335.91447,-38941.47741,-68155.87797,0.106,0.794,0.576,192,0,0,0,0,0,0,0,0,0,1709547763,0, 2024-03-04 15:52:42.839
106,-82400.95763,-46323.87862,-32481.80091,-32784.59999,-34680.02792,-44327.35375,-39002.94471,-68176.93331,0.106,0.794,0.576,192,0,0,0,0,0,0,0,0,0,1709547763,0, 2024-03-04 15:52:42.839
107,-82428.29382,-46341.29063,-32491.43451,-32795.79822,-34671.40015,-44331.01944,-38965.0585,-68132.74391,0.106,0.794,0.576,192,0,0,0,0,0,0,0,0,0,1709547763,0, 2024-03-04 15:52:42.839
108,-82459.25098,-46340.75419,-32378.69231,-32812.53967,-34594.28663,-44348.05147,-38879.2278,-68104.58071,0.106,0.794,0.576,192,0,0,0,0,0,0,0,0,0,1709547763,0, 2024-03-04 15:52:42.839
109,-82450.19853,-46323.29748,-32310.47479,-32813.43374,-34563.62004,-44360.76961,-38869.92948,-68156.10148,0.106,0.794,0.576,192,0,0,0,0,0,0,0,0,0,1709547763,0, 2024-03-04 15:52:42.839
110,-82411.01592,-46310.84756,-32367.35998,-32795.5747,-34612.92799,-44354.37701,-38945.34426,-68216.33944,0.106,0.794,0.576,192,0,0,0,0,0,0,0,0,0,1709547763,0, 2024-03-04 15:52:42.839
111,-82389.40178,-46317.53073,-32478.33639,-32783.61652,-34683.98418,-44342.15061,-39013.65119,-68224.8331,0.106,0.794,0.576,192,0,0,0,0,0,0,0,0,0,1709547763,0, 2024-03-04 15:52:42.839
112,-82421.96827,-46340.66478,-32500.71049,-32805.92356,-34688.72275,-44356.85806,-38993.93696,-68212.91962,0.106,0.796,0.574,192,3,80,24,224,17,240,0,0,0,1709547763,0, 2024-03-04 15:52:42.839
113,-82453.70775,-46336.97675,-32398.18304,-32825.59309,-34621.71222,-44375.00767,-38918.05278,-68212.42788,0.106,0.796,0.574,192,0,0,0,0,0,0,0,0,0,1709547763,0, 2024-03-04 15:52:42.839
114,-82443.51535,-46311.78633,-32322.61179,-32817.32295,-34583.42368,-44373.64422,-38903.01006,-68237.75241,0.106,0.796,0.574,192,0,0,0,0,0,0,0,0,0,1709547763,0, 2024-03-04 15:52:42.839
115,-82397.80604,-46293.92729,-32367.98583,-32793.18306,-34622.00279,-44357.61802,-38973.75333,-68269.80481,0.106,0.796,0.574,192,0,0,0,0,0,0,0,0,0,1709547763,0, 2024-03-04 15:52:42.839
116,-82380.61754,-46306.51132,-32479.25281,-32783.393,-34691.44967,-44344.51989,-39040.85327,-68255.38793,0.106,0.796,0.574,192,0,0,0,0,0,0,0,0,0,1709547763,0, 2024-03-04 15:52:42.839
117,-82414.74866,-46325.4209,-32496.66482,-32796.9158,-34689.50506,-44347.69384,-39008.97968,-68215.42301,0.106,0.796,0.574,192,0,0,0,0,0,0,0,0,0,1709547763,0, 2024-03-04 15:52:42.839
118,-82455.09356,-46328.37133,-32391.00813,-32820.04986,-34615.96782,-44367.92217,-38921.00321,-68207.24228,0.106,0.796,0.574,192,0,0,0,0,0,0,0,0,0,1709547763,0, 2024-03-04 15:52:42.839
119,-82450.71262,-46313.06038,-32317.29207,-32818.46289,-34578.26043,-44370.09029,-38901.28897,-68217.88171,0.106,0.796,0.574,192,0,0,0,0,0,0,0,0,0,1709547763,0, 2024-03-04 15:52:42.839
120,-82412.66995,-46297.97295,-32362.08497,-32792.87014,-34616.68308,-44349.90667,-38965.48318,-68239.89817,0.106,0.796,0.574,192,0,0,0,0,0,0,0,0,0,1709547763,0, 2024-03-04 15:52:42.839
121,-82393.96154,-46306.31015,-32464.43361,-32775.68165,-34674.86467,-44329.85715,-39020.89316,-68225.4813,0.106,0.796,0.574,192,0,0,0,0,0,0,0,0,0,1709547763,0, 2024-03-04 15:52:42.839
122,-82423.06351,-46328.90777,-32480.54921,-32789.20445,-34669.65671,-44330.97474,-38987.20908,-68168.43965,0.11,0.794,0.574,192,3,112,24,208,17,240,0,0,0,1709547763,0, 2024-03-04 15:52:42.839
123,-82456.72523,-46328.48308,-32377.03829,-32809.67865,-34600.12044,-44345.77159,-38907.30159,-68146.49023,0.11,0.794,0.574,192,0,0,0,0,0,0,0,0,0,1709547763,0, 2024-03-04 15:52:42.839
124,-82455.16061,-46313.79799,-32309.53602,-32814.05959,-34570.83965,-44356.7463,-38899.12086,-68180.80016,0.11,0.794,0.574,192,0,0,0,0,0,0,0,0,0,1709547763,0, 2024-03-04 15:52:42.839
125,-82421.52124,-46305.14786,-32362.12967,-32795.46294,-34614.49261,-44344.78812,-38967.09251,-68205.99058,0.11,0.794,0.574,192,0,0,0,0,0,0,0,0,0,1709547763,0, 2024-03-04 15:52:42.839
126,-82408.13254,-46317.1731,-32469.93214,-32778.76619,-34674.46234,-44324.11275,-39021.58606,-68184.35409,0.11,0.794,0.574,192,0,0,0,0,0,0,0,0,0,1709547763,0, 2024-03-04 15:52:42.839
127,-82441.14607,-46341.73767,-32487.27709,-32791.37257,-34670.61784,-44325.83384,-38989.24309,-68139.27062,0.11,0.794,0.574,192,0,0,0,0,0,0,0,0,0,1709547763,0, 2024-03-04 15:52:42.839
128,-82479.3452,-46345.02338,-32383.22972,-32813.12082,-34601.88622,-44344.74341,-38909.9391,-68124.9208,0.11,0.794,0.574,192,0,0,0,0,0,0,0,0,0,1709547763,0, 2024-03-04 15:52:42.839
129,-82477.51236,-46332.46169,-32314.78868,-32817.70293,-34569.29738,-44358.55679,-38896.52805,-68159.81187,0.11,0.794,0.574,192,0,0,0,0,0,0,0,0,0,1709547763,0, 2024-03-04 15:52:42.839
130,-82443.24713,-46324.92916,-32367.60585,-32802.83902,-34614.33615,-44356.45573,-38965.7067,-68210.68444,0.11,0.794,0.574,192,0,0,0,0,0,0,0,0,0,1709547763,0, 2024-03-04 15:52:42.839
131,-82425.38809,-46334.98744,-32473.10608,-32790.03147,-34677.36807,-44342.55294,-39024.35768,-68196.60284,0.11,0.794,0.574,192,0,0,0,0,0,0,0,0,0,1709547763,0, 2024-03-04 15:52:42.839
132,-82452.99249,-46354.09818,-32491.14394,-32803.28605,-34679.78205,-44347.09035,-38996.19448,-68152.50285,0.112,0.794,0.576,192,3,128,24,208,18,0,0,0,0,1709547763,0, 2024-03-04 15:52:42.839
133,-82480.82042,-46347.59383,-32382.69328,-32814.39487,-34605.82013,-44356.61219,-38912.86718,-68115.77894,0.112,0.794,0.576,192,0,0,0,0,0,0,0,0,0,1709547763,0, 2024-03-04 15:52:42.839
134,-82470.56096,-46322.98456,-32304.75274,-32809.18691,-34566.10108,-44362.87068,-38900.43961,-68156.05678,0.112,0.794,0.576,192,0,0,0,0,0,0,0,0,0,1709547763,0, 2024-03-04 15:52:42.839
135,-82437.12275,-46310.93696,-32355.04417,-32792.31135,-34614.85024,-44357.93094,-38977.12844,-68224.49782,0.112,0.794,0.576,192,0,0,0,0,0,0,0,0,0,1709547763,0, 2024-03-04 15:52:42.839
