Sample Index, EXG Channel 0, EXG Channel 1, EXG Channel 2, EXG Channel 3, EXG Channel 4, EXG Channel 5, EXG Channel 6, EXG Channel 7, Accel Channel 0, Accel Channel 1, Accel Channel 2, Other, Other.1, Other.2, Other.3, Other.4, Other.5, Other.6, Analog Channel 0, Analog Channel 1, Analog Channel 2, Timestamp, Other.7, Timestamp (Formatted)
0,-93155.63359,-48719.06921,-23391.99464,-31485.96364,-28091.20304,-42419.49826,-50294.68838,-75083.35413,0.062,0.88,0.422,192,1,240,27,128,13,48,0,0,0,1709547992,0, 2024-03-04 15:56:32.226
1,-93201.47702,-48732.25674,-23358.93641,-31511.84696,-28001.88547,-42436.99967,-50239.16665,-75043.65743,0.062,0.88,0.422,192,0,0,0,0,0,0,0,0,0,1709547992,0, 2024-03-04 15:56:32.226
2,-93191.19521,-48717.48224,-23330.95203,-31506.05786,-27968.71549,-42438.0502,-50227.07435,-75065.69625,0.062,0.88,0.422,192,0,0,0,0,0,0,0,0,0,1709547992,0, 2024-03-04 15:56:32.226
3,-93143.31778,-48698.17033,-23345.48066,-31480.06278,-28032.12738,-42424.28153,-50275.53293,-75123.65432,0.062,0.88,0.422,192,0,0,0,0,0,0,0,0,0,1709547992,0, 2024-03-04 15:56:32.226
4,-93120.519,-48698.32679,-23385.35617,-31466.36116,-28105.53051,-42411.85396,-50320.63875,-75147.0566,0.062,0.88,0.422,192,0,0,0,0,0,0,0,0,0,1709547992,0, 2024-03-04 15:56:32.226
5,-93154.58306,-48713.01189,-23389.64771,-31480.44276,-28081.92707,-42412.36805,-50290.55331,-75101.79431,0.062,0.88,0.422,192,0,0,0,0,0,0,0,0,0,1709547992,0, 2024-03-04 15:56:32.226
6,-93199.26419,-48723.31604,-23354.24255,-31501.90043,-27992.45304,-42423.9686,-50227.99077,-75054.05099,0.062,0.88,0.422,192,0,0,0,0,0,0,0,0,0,1709547992,0, 2024-03-04 15:56:32.226
7,-93195.24088,-48717.57164,-23331.55553,-31502.83921,-27961.8982,-42427.50018,-50218.89361,-75050.2959,0.062,0.88,0.422,192,0,0,0,0,0,0,0,0,0,1709547992,0, 2024-03-04 15:56:32.226
8,-93144.94945,-48697.34331,-23341.34559,-31472.35143,-28020.07979,-42404.32142,-50260.04318,-75074.36872,0.062,0.88,0.422,192,0,0,0,0,0,0,0,0,0,1709547992,0, 2024-03-04 15:56:32.226
9,-93120.18372,-48697.2092,-23382.40574,-31458.13572,-28096.76863,-42390.26217,-50301.43861,-75090.59609,0.062,0.88,0.422,192,0,0,0,0,0,0,0,0,0,1709547992,0, 2024-03-04 15:56:32.226
10,-93149.79978,-48708.7427,-23389.13362,-31469.22218,-28074.05926,-42387.66937,-50273.96831,-75037.98008,0.062,0.878,0.432,192,1,240,27,112,13,128,0,0,0,1709547992,0, 2024-03-04 15:56:32.226
11,-93199.71123,-48727.2276,-23362.40093,-31501.00636,-27992.90007,-42411.11635,-50218.0219,-75005.59241,0.062,0.878,0.432,192,0,0,0,0,0,0,0,0,0,1709547992,0, 2024-03-04 15:56:32.226
12,-93202.25933,-48726.93702,-23345.99475,-31511.53404,-27967.86612,-42427.1202,-50201.16868,-75038.36006,0.062,0.878,0.432,192,0,0,0,0,0,0,0,0,0,1709547992,0, 2024-03-04 15:56:32.226
13,-93152.37023,-48708.29567,-23358.62349,-31486.1201,-28032.12738,-42413.91032,-50275.1306,-75082.46006,0.062,0.878,0.432,192,0,0,0,0,0,0,0,0,0,1709547992,0, 2024-03-04 15:56:32.226
14,-93128.34211,-48708.72035,-23398.43194,-31470.71975,-28110.26908,-42397.81706,-50315.83313,-75085.11991,0.062,0.878,0.432,192,0,0,0,0,0,0,0,0,0,1709547992,0, 2024-03-04 15:56:32.226
15,-93159.45574,-48723.91954,-23402.72348,-31485.96364,-28086.50918,-42401.5498,-50289.59218,-75037.17542,0.062,0.878,0.432,192,0,0,0,0,0,0,0,0,0,1709547992,0, 2024-03-04 15:56:32.226
16,-93205.58974,-48737.71056,-23374.00149,-31515.04326,-28005.32764,-42422.91807,-50234.40572,-74995.66823,0.062,0.878,0.432,192,0,0,0,0,0,0,0,0,0,1709547992,0, 2024-03-04 15:56:32.226
17,-93202.28168,-48729.52983,-23352.63322,-31517.72547,-27977.56678,-42433.08812,-50226.85083,-75014.95779,0.062,0.878,0.432,192,0,0,0,0,0,0,0,0,0,1709547992,0, 2024-03-04 15:56:32.226
18,-93159.81336,-48716.67757,-23378.06951,-31500.73814,-28049.80761,-42428.70717,-50282.1267,-75078.5932,0.062,0.878,0.432,192,0,0,0,0,0,0,0,0,0,1709547992,0, 2024-03-04 15:56:32.226
19,-93137.08164,-48718.2869,-23423.64471,-31494.16673,-28133.02316,-42424.84032,-50332.7981,-75115.02655,0.062,0.878,0.432,192,0,0,0,0,0,0,0,0,0,1709547992,0, 2024-03-04 15:56:32.226
20,-93168.03881,-48733.03905,-23429.79144,-31509.61179,-28114.3371,-42427.96957,-50310.02168,-75063.66224,0.058,0.876,0.43,192,1,208,27,96,13,112,0,0,0,1709547992,0, 2024-03-04 15:56:32.226
21,-93216.96677,-48749.06525,-23398.27548,-31537.19384,-28029.51223,-42447.54969,-50255.05874,-75015.47188,0.058,0.876,0.43,192,0,0,0,0,0,0,0,0,0,1709547992,0, 2024-03-04 15:56:32.226
22,-93213.74812,-48741.71153,-23375.63317,-31538.91492,-28000.52202,-42457.00448,-50248.15205,-75054.67684,0.058,0.876,0.43,192,0,0,0,0,0,0,0,0,0,1709547992,0, 2024-03-04 15:56:32.226
23,-93166.60829,-48722.93606,-23392.57579,-31514.05978,-28064.33625,-42446.11918,-50300.18691,-75122.42497,0.058,0.876,0.43,192,0,0,0,0,0,0,0,0,0,1709547992,0, 2024-03-04 15:56:32.226
24,-93135.15939,-48714.42005,-23426.14811,-31491.19395,-28136.46533,-42425.30971,-50341.62704,-75144.5532,0.058,0.876,0.43,192,0,0,0,0,0,0,0,0,0,1709547992,0, 2024-03-04 15:56:32.226
25,-93163.38964,-48725.26064,-23424.22586,-31497.40773,-28111.43137,-42418.49243,-50315.72137,-75086.01398,0.058,0.876,0.43,192,0,0,0,0,0,0,0,0,0,1709547992,0, 2024-03-04 15:56:32.226
26,-93208.51781,-48739.63281,-23386.58552,-31523.80514,-28023.47726,-42436.77615,-50258.54561,-75047.68074,0.058,0.876,0.43,192,0,0,0,0,0,0,0,0,0,1709547992,0, 2024-03-04 15:56:32.226
27,-93200.22532,-48728.21107,-23360.7469,-31524.81097,-27990.0167,-42444.64397,-50251.52716,-75071.48535,0.058,0.876,0.43,192,0,0,0,0,0,0,0,0,0,1709547992,0, 2024-03-04 15:56:32.226
28,-93141.57434,-48698.95264,-23363.31735,-31488.84702,-28040.84456,-42421.62167,-50292.3638,-75117.19467,0.058,0.876,0.43,192,0,0,0,0,0,0,0,0,0,1709547992,0, 2024-03-04 15:56:32.226
29,-93114.88636,-48700.91959,-23401.56119,-31472.642,-28115.61115,-42406.44484,-50334.89917,-75127.81175,0.058,0.876,0.43,192,0,0,0,0,0,0,0,0,0,1709547992,0, 2024-03-04 15:56:32.226
30,-93144.36831,-48718.10808,-23409.02667,-31486.25421,-28095.94161,-42408.43414,-50301.43861,-75085.634,0.064,0.876,0.434,192,2,0,27,96,13,144,0,0,0,1709547992,0, 2024-03-04 15:56:32.226
31,-93186.27783,-48729.77569,-23370.04523,-31508.4495,-28001.72901,-42421.30875,-50234.89746,-75041.66812,0.064,0.876,0.434,192,0,0,0,0,0,0,0,0,0,1709547992,0, 2024-03-04 15:56:32.226
32,-93180.60049,-48721.08087,-23344.13956,-31507.73424,-27968.26845,-42424.48269,-50245.76041,-75052.68753,0.064,0.876,0.434,192,0,0,0,0,0,0,0,0,0,1709547992,0, 2024-03-04 15:56:32.226
33,-93139.98737,-48708.698,-23360.07635,-31487.72943,-28029.24401,-42415.83257,-50288.09461,-75108.92452,0.064,0.876,0.434,192,0,0,0,0,0,0,0,0,0,1709547992,0, 2024-03-04 15:56:32.226
34,-93115.15458,-48708.85446,-23396.33088,-31472.08321,-28104.0553,-42402.1533,-50326.38315,-75124.05665,0.064,0.876,0.434,192,0,0,0,0,0,0,0,0,0,1709547992,0, 2024-03-04 15:56:32.226
35,-93145.79882,-48719.73976,-23400.46595,-31482.2309,-28083.44699,-42399.73931,-50295.69421,-75077.27445,0.064,0.876,0.434,192,0,0,0,0,0,0,0,0,0,1709547992,0, 2024-03-04 15:56:32.226
36,-93190.70347,-48732.48026,-23367.87711,-31506.10256,-27993.68238,-42413.30682,-50237.49027,-75021.68566,0.064,0.876,0.434,192,0,0,0,0,0,0,0,0,0,1709547992,0, 2024-03-04 15:56:32.226
37,-93183.61797,-48724.076,-23338.37281,-31506.10256,-27955.03622,-42420.01235,-50224.28038,-75031.36397,0.064,0.876,0.434,192,0,0,0,0,0,0,0,0,0,1709547992,0, 2024-03-04 15:56:32.226
38,-93137.30516,-48706.03814,-23350.66627,-31481.49329,-28014.44715,-42408.88118,-50270.10146,-75088.27151,0.064,0.876,0.434,192,0,0,0,0,0,0,0,0,0,1709547992,0, 2024-03-04 15:56:32.226
39,-93109.58899,-48699.1091,-23386.29495,-31463.36603,-28091.82889,-42391.55857,-50319.63293,-75099.64855,0.064,0.876,0.434,192,0,0,0,0,0,0,0,0,0,1709547992,0, 2024-03-04 15:56:32.226
40,-93138.69097,-48714.28594,-23399.92951,-31480.9345,-28079.46838,-42396.90064,-50298.04114,-75050.80999,0.064,0.874,0.428,192,2,0,27,80,13,96,0,0,0,1709547992,0, 2024-03-04 15:56:32.226
41,-93190.81523,-48735.25187,-23379.52237,-31516.33966,-28003.11482,-42424.32623,-50250.119,-75011.47092,0.064,0.874,0.428,192,0,0,0,0,0,0,0,0,0,1709547992,0, 2024-03-04 15:56:32.226
42,-93194.65973,-48733.79901,-23359.11523,-31525.52623,-27969.85542,-42438.92192,-50239.32311,-75022.11035,0.064,0.874,0.428,192,0,0,0,0,0,0,0,0,0,1709547992,0, 2024-03-04 15:56:32.226
43,-93150.58209,-48720.74559,-23377.3766,-31508.51655,-28033.58025,-42434.49628,-50288.20637,-75078.95083,0.064,0.874,0.428,192,0,0,0,0,0,0,0,0,0,1709547992,0, 2024-03-04 15:56:32.226
44,-93130.1079,-48725.73003,-23421.83422,-31501.47575,-28114.80649,-42429.35537,-50339.1907,-75110.77972,0.064,0.874,0.428,192,0,0,0,0,0,0,0,0,0,1709547992,0, 2024-03-04 15:56:32.226
45,-93155.1642,-48734.71543,-23423.15297,-31511.24346,-28094.5111,-42429.28832,-50317.9789,-75079.10729,0.064,0.874,0.428,192,0,0,0,0,0,0,0,0,0,1709547992,0, 2024-03-04 15:56:32.226
46,-93192.80454,-48738.40347,-23383.52333,-31530.06363,-28005.08177,-42440.12892,-50265.25113,-75040.48348,0.064,0.874,0.428,192,0,0,0,0,0,0,0,0,0,1709547992,0, 2024-03-04 15:56:32.226
47,-93188.49065,-48728.63576,-23351.58269,-31528.4096,-27964.98274,-42444.62162,-50253.22589,-75063.23756,0.064,0.874,0.428,192,0,0,0,0,0,0,0,0,0,1709547992,0, 2024-03-04 15:56:32.226
48,-93138.04276,-48706.77575,-23361.3504,-31499.5088,-28022.35967,-42428.3719,-50295.0013,-75126.44829,0.064,0.874,0.428,192,0,0,0,0,0,0,0,0,0,1709547992,0, 2024-03-04 15:56:32.226
49,-93107.57734,-48697.72329,-23396.24147,-31479.48164,-28097.34977,-42410.46815,-50340.59886,-75156.86901,0.064,0.874,0.428,192,0,0,0,0,0,0,0,0,0,1709547992,0, 2024-03-04 15:56:32.226
50,-93136.47814,-48710.24027,-23398.67781,-31491.9092,-28079.89306,-42412.12218,-50307.58534,-75120.97211,0.058,0.882,0.43,192,1,208,27,144,13,112,0,0,0,1709547992,0, 2024-03-04 15:56:32.226
51,-93180.26521,-48719.56095,-23368.90529,-31514.77504,-27996.72222,-42424.37094,-50266.43577,-75069.02666,0.058,0.882,0.43,192,0,0,0,0,0,0,0,0,0,1709547992,0, 2024-03-04 15:56:32.226
52,-93177.76181,-48706.93221,-23337.85872,-31510.01412,-27955.81853,-42421.95695,-50254.58935,-75063.01404,0.058,0.882,0.43,192,0,0,0,0,0,0,0,0,0,1709547992,0, 2024-03-04 15:56:32.226
53,-93136.79107,-48693.90114,-23351.47093,-31488.93642,-28015.7212,-42410.55756,-50293.86136,-75110.66796,0.058,0.882,0.43,192,0,0,0,0,0,0,0,0,0,1709547992,0, 2024-03-04 15:56:32.226
54,-93111.73476,-48693.09648,-23390.92176,-31474.67601,-28094.64521,-42397.19121,-50343.39283,-75141.73688,0.058,0.882,0.43,192,0,0,0,0,0,0,0,0,0,1709547992,0, 2024-03-04 15:56:32.226
55,-93142.35665,-48706.7534,-23401.18121,-31490.16577,-28081.65885,-42400.29811,-50321.39871,-75106.93522,0.058,0.882,0.43,192,0,0,0,0,0,0,0,0,0,1709547992,0, 2024-03-04 15:56:32.226
56,-93184.53439,-48717.10226,-23365.77605,-31511.75755,-27993.05653,-42410.55756,-50254.09761,-75056.68849,0.058,0.882,0.43,192,0,0,0,0,0,0,0,0,0,1709547992,0, 2024-03-04 15:56:32.226
57,-93187.1272,-48711.69313,-23336.71878,-31511.75755,-27952.62223,-42413.99973,-50237.42321,-75055.74972,0.058,0.882,0.43,192,0,0,0,0,0,0,0,0,0,1709547992,0, 2024-03-04 15:56:32.226
58,-93144.05538,-48698.17033,-23348.69931,-31490.00931,-28010.26738,-42401.57216,-50283.08782,-75098.77683,0.058,0.882,0.43,192,0,0,0,0,0,0,0,0,0,1709547992,0, 2024-03-04 15:56:32.226
59,-93112.20415,-48699.33262,-23387.72546,-31476.73237,-28086.10685,-42389.90455,-50324.4162,-75116.61352,0.058,0.882,0.43,192,0,0,0,0,0,0,0,0,0,1709547992,0, 2024-03-04 15:56:32.226
60,-93145.88823,-48719.96328,-23398.56606,-31495.15021,-28074.551,-42395.49248,-50299.80693,-75065.78565,0.056,0.874,0.428,192,1,192,27,80,13,96,0,0,0,1709547992,0, 2024-03-04 15:56:32.226
61,-93198.6607,-48738.1129,-23371.14046,-31527.56024,-27992.85537,-42417.4866,-50244.62047,-75022.11035,0.056,0.874,0.428,192,0,0,0,0,0,0,0,0,0,1709547992,0, 2024-03-04 15:56:32.226
62,-93196.13495,-48725.28299,-23340.27271,-31528.11903,-27952.42106,-42421.42051,-50228.97425,-75026.0219,0.056,0.874,0.428,192,0,0,0,0,0,0,0,0,0,1709547992,0, 2024-03-04 15:56:32.226
63,-93157.60054,-48713.45892,-23360.81396,-31512.87514,-28018.8728,-42416.61488,-50278.2822,-75078.99554,0.056,0.874,0.428,192,0,0,0,0,0,0,0,0,0,1709547992,0, 2024-03-04 15:56:32.226
64,-93137.34986,-48716.387,-23401.36002,-31504.35913,-28098.9144,-42409.77525,-50323.99152,-75112.4561,0.056,0.874,0.428,192,0,0,0,0,0,0,0,0,0,1709547992,0, 2024-03-04 15:56:32.226
65,-93166.76476,-48732.21203,-23406.34446,-31517.99369,-28082.70938,-42412.9939,-50298.1529,-75070.47952,0.056,0.874,0.428,192,0,0,0,0,0,0,0,0,0,1709547992,0, 2024-03-04 15:56:32.226
66,-93212.85405,-48744.50549,-23374.96261,-31540.70306,-27998.17508,-42425.64498,-50237.982,-75017.05885,0.056,0.874,0.428,192,0,0,0,0,0,0,0,0,0,1709547992,0, 2024-03-04 15:56:32.226
67,-93213.39049,-48738.91756,-23345.9724,-31540.97128,-27962.09937,-42432.08229,-50250.74485,-75028.25708,0.056,0.874,0.428,192,0,0,0,0,0,0,0,0,0,1709547992,0, 2024-03-04 15:56:32.226
68,-93167.85999,-48720.70089,-23357.05887,-31516.89846,-28020.61624,-42421.46521,-50290.17333,-75093.18889,0.056,0.874,0.428,192,0,0,0,0,0,0,0,0,0,1709547992,0, 2024-03-04 15:56:32.226
69,-93138.35569,-48717.10226,-23393.98395,-31499.97818,-28098.13209,-42409.35056,-50332.64164,-75121.88853,0.056,0.874,0.428,192,0,0,0,0,0,0,0,0,0,1709547992,0, 2024-03-04 15:56:32.226
70,-93167.25649,-48731.04974,-23406.56798,-31514.68563,-28090.84542,-42413.86562,-50318.85061,-75097.21221,0.054,0.868,0.428,192,1,176,27,32,13,96,0,0,0,1709547992,0, 2024-03-04 15:56:32.226
71,-93217.54792,-48748.59586,-23381.64578,-31548.68264,-28010.66971,-42439.72658,-50270.34733,-75078.25793,0.054,0.868,0.428,192,0,0,0,0,0,0,0,0,0,1709547992,0, 2024-03-04 15:56:32.226
72,-93212.49643,-48734.2684,-23351.38152,-31546.22394,-27968.04493,-42439.9054,-50253.33765,-75080.26958,0.054,0.868,0.428,192,0,0,0,0,0,0,0,0,0,1709547992,0, 2024-03-04 15:56:32.226
73,-93164.7531,-48705.32289,-23359.85283,-31512.3834,-28019.4763,-42416.72664,-50294.3084,-75111.94201,0.054,0.868,0.428,192,0,0,0,0,0,0,0,0,0,1709547992,0, 2024-03-04 15:56:32.226
74,-93142.22254,-48708.38508,-23407.23853,-31501.85573,-28104.30117,-42409.61878,-50346.29856,-75146.69897,0.054,0.868,0.428,192,0,0,0,0,0,0,0,0,0,1709547992,0, 2024-03-04 15:56:32.226
75,-93177.98533,-48732.27909,-23424.87406,-31519.96064,-28097.618,-42416.43607,-50334.49684,-75113.7525,0.054,0.868,0.428,192,0,0,0,0,0,0,0,0,0,1709547992,0, 2024-03-04 15:56:32.227
76,-93231.18248,-48748.57351,-23392.64284,-31540.65836,-28010.26738,-42426.00261,-50276.20349,-75068.02083,0.054,0.868,0.428,192,0,0,0,0,0,0,0,0,0,1709547992,0, 2024-03-04 15:56:32.227
77,-93238.67032,-48746.22658,-23355.91893,-31537.64087,-27961.47352,-42426.15908,-50256.42219,-75064.10927,0.054,0.868,0.428,192,0,0,0,0,0,0,0,0,0,1709547992,0, 2024-03-04 15:56:32.227
78,-93198.12425,-48733.7096,-23368.65942,-31513.47864,-28017.39758,-42414.58087,-50297.43764,-75111.09264,0.054,0.868,0.428,192,0,0,0,0,0,0,0,0,0,1709547992,0, 2024-03-04 15:56:32.227
79,-93167.3012,-48731.94381,-23410.50189,-31497.5642,-28100.81429,-42401.95214,-50344.37631,-75139.99345,0.054,0.868,0.428,192,0,0,0,0,0,0,0,0,0,1709547992,0, 2024-03-04 15:56:32.227
80,-93201.32055,-48754.45202,-23426.12576,-31514.48447,-28094.73462,-42406.646,-50332.12755,-75090.75255,0.068,0.874,0.426,192,2,32,27,80,13,80,0,0,0,1709547992,0, 2024-03-04 15:56:32.227
81,-93249.3321,-48769.91943,-23391.52526,-31538.22202,-28003.74067,-42419.18533,-50273.38717,-75022.89266,0.068,0.874,0.426,192,0,0,0,0,0,0,0,0,0,1709547992,0, 2024-03-04 15:56:32.227
82,-93256.08233,-48770.32176,-23367.02774,-31548.07914,-27965.25096,-42432.97636,-50257.42802,-75034.24734,0.068,0.874,0.426,192,0,0,0,0,0,0,0,0,0,1709547992,0, 2024-03-04 15:56:32.227
83,-93210.99886,-48756.06135,-23378.53889,-31529.12486,-28020.88446,-42426.38259,-50301.63977,-75088.94206,0.068,0.874,0.426,192,0,0,0,0,0,0,0,0,0,1709547992,0, 2024-03-04 15:56:32.227
84,-93186.18842,-48757.67067,-23420.58252,-31518.61954,-28102.66949,-42419.83353,-50341.51528,-75126.47064,0.068,0.874,0.426,192,0,0,0,0,0,0,0,0,0,1709547992,0, 2024-03-04 15:56:32.227
85,-93216.94442,-48775.19444,-23431.66899,-31533.10347,-28093.17,-42423.36511,-50315.07317,-75088.62914,0.068,0.874,0.426,192,0,0,0,0,0,0,0,0,0,1709547992,0, 2024-03-04 15:56:32.227
86,-93264.62069,-48792.04765,-23402.45526,-31562.42896,-28014.69302,-42444.59926,-50289.1675,-75044.52915,0.068,0.874,0.426,192,0,0,0,0,0,0,0,0,0,1709547992,0, 2024-03-04 15:56:32.227
87,-93261.15617,-48782.03407,-23374.96261,-31565.49115,-27972.55999,-42452.17651,-50267.03927,-75049.49123,0.068,0.874,0.426,192,0,0,0,0,0,0,0,0,0,1709547992,0, 2024-03-04 15:56:32.227
88,-93218.93373,-48762.07397,-23385.75851,-31537.73028,-28026.27123,-42433.64691,-50306.04307,-75089.52321,0.068,0.874,0.426,192,0,0,0,0,0,0,0,0,0,1709547992,0, 2024-03-04 15:56:32.227
89,-93191.79871,-48760.44229,-23421.70011,-31517.79253,-28102.26716,-42416.36901,-50351.26064,-75105.99644,0.068,0.874,0.426,192,0,0,0,0,0,0,0,0,0,1709547992,0, 2024-03-04 15:56:32.227
90,-93218.48669,-48775.68618,-23432.09367,-31529.6613,-28095.85221,-42417.03956,-50332.03814,-75053.5816,0.064,0.882,0.426,192,2,0,27,144,13,80,0,0,0,1709547993,0, 2024-03-04 15:56:32.707
91,-93261.35734,-48786.8397,-23401.85176,-31555.09759,-28009.57447,-42433.31163,-50272.69426,-75003.33488,0.064,0.882,0.426,192,0,0,0,0,0,0,0,0,0,1709547993,0, 2024-03-04 15:56:32.707
92,-93264.57599,-48780.20123,-23375.02967,-31558.76327,-27968.44726,-42444.4428,-50258.03152,-75021.5739,0.064,0.882,0.426,192,0,0,0,0,0,0,0,0,0,1709547993,0, 2024-03-04 15:56:32.707
93,-93217.43616,-48762.27513,-23389.49125,-31538.35613,-28027.50057,-42441.29121,-50304.76902,-75101.012,0.064,0.882,0.426,192,0,0,0,0,0,0,0,0,0,1709547993,0, 2024-03-04 15:56:32.707
94,-93186.63546,-48758.85531,-23426.34927,-31521.05588,-28106.08931,-42429.89182,-50348.98077,-75146.22958,0.064,0.882,0.426,192,0,0,0,0,0,0,0,0,0,1709547993,0, 2024-03-04 15:56:32.707
95,-93215.13393,-48773.42865,-23437.18987,-31533.77402,-28099.02616,-42434.74214,-50334.13921,-75128.05761,0.064,0.882,0.426,192,0,0,0,0,0,0,0,0,0,1709547993,0, 2024-03-04 15:56:32.707
96,-93260.28445,-48786.30326,-23410.41248,-31560.03732,-28018.62693,-42451.97534,-50282.50668,-75092.04895,0.064,0.882,0.426,192,0,0,0,0,0,0,0,0,0,1709547993,0, 2024-03-04 15:56:32.707
97,-93258.78689,-48776.26732,-23374.96261,-31556.99748,-27965.36272,-42453.09293,-50262.32305,-75091.40075,0.064,0.882,0.426,192,0,0,0,0,0,0,0,0,0,1709547993,0, 2024-03-04 15:56:32.707
98,-93203.82395,-48744.66196,-23368.70412,-31517.18903,-28003.58421,-42423.99096,-50296.2083,-75134.38316,0.064,0.882,0.426,192,0,0,0,0,0,0,0,0,0,1709547993,0, 2024-03-04 15:56:32.707
99,-93176.35365,-48739.69987,-23407.59616,-31497.89947,-28082.70938,-42405.21549,-50338.29663,-75161.58523,0.064,0.882,0.426,192,0,0,0,0,0,0,0,0,0,1709547993,0, 2024-03-04 15:56:32.707
100,-93208.92015,-48760.46464,-23424.78465,-31516.65259,-28078.01552,-42410.4458,-50313.08386,-75124.19076,0.06,0.882,0.428,192,1,224,27,144,13,96,0,0,0,1709547993,0, 2024-03-04 15:56:32.707
101,-93252.01431,-48771.75227,-23394.051,-31539.8537,-27995.7611,-42420.0794,-50283.15488,-75068.3561,0.06,0.882,0.428,192,0,0,0,0,0,0,0,0,0,1709547993,0, 2024-03-04 15:56:32.707
102,-93251.56727,-48763.01274,-23361.59627,-31537.86439,-27947.66014,-42421.77813,-50264.04414,-75066.50091,0.06,0.882,0.428,192,0,0,0,0,0,0,0,0,0,1709547993,0, 2024-03-04 15:56:32.707
103,-93211.71411,-48745.28781,-23370.20169,-31513.52334,-28000.74553,-42409.2388,-50300.90216,-75104.70004,0.06,0.882,0.428,192,0,0,0,0,0,0,0,0,0,1709547993,0, 2024-03-04 15:56:32.707
104,-93180.62284,-48742.18091,-23414.5252,-31500.69344,-28087.51501,-42398.48762,-50352.53469,-75128.54935,0.06,0.882,0.428,192,0,0,0,0,0,0,0,0,0,1709547993,0, 2024-03-04 15:56:32.707
105,-93198.97362,-48755.83783,-23423.80117,-31510.97524,-28075.82504,-42399.49344,-50331.36759,-75085.23167,0.06,0.882,0.428,192,0,0,0,0,0,0,0,0,0,1709547993,0, 2024-03-04 15:56:32.707
106,-93258.98805,-48782.03407,-23401.36002,-31540.36779,-27997.0575,-42420.01235,-50273.63304,-75034.71673,0.06,0.882,0.428,192,0,0,0,0,0,0,0,0,0,1709547993,0, 2024-03-04 15:56:32.707
107,-93266.47589,-48776.35673,-23370.91695,-31543.07235,-27953.71746,-42427.50018,-50257.04804,-75040.46113,0.06,0.882,0.428,192,0,0,0,0,0,0,0,0,0,1709547993,0, 2024-03-04 15:56:32.707
108,-93222.55471,-48761.80574,-23383.63509,-31521.45821,-28009.82034,-42418.47007,-50297.92938,-75089.81378,0.06,0.882,0.428,192,0,0,0,0,0,0,0,0,0,1709547993,0, 2024-03-04 15:56:32.707
109,-93185.8755,-48756.57544,-23425.94694,-31506.61665,-28095.85221,-42408.05416,-50347.4832,-75123.85549,0.06,0.882,0.428,192,0,0,0,0,0,0,0,0,0,1709547993,0, 2024-03-04 15:56:32.707
110,-93201.63348,-48762.36454,-23433.83711,-31513.97038,-28086.0845,-42403.09207,-50327.83602,-75065.47273,0.06,0.882,0.428,192,0,0,0,0,0,0,0,0,0,1709547993,0, 2024-03-04 15:56:32.707
111,-93255.59059,-48781.47528,-23414.81577,-31547.90032,-28008.54629,-42424.86267,-50278.59512,-75012.20852,0.056,0.878,0.43,192,1,192,27,112,13,112,0,0,0,1709547993,0, 2024-03-04 15:56:32.707
112,-93264.59834,-48780.22358,-23390.8547,-31558.24918,-27967.37438,-42440.01716,-50260.49021,-75036.2143,0.056,0.878,0.43,192,0,0,0,0,0,0,0,0,0,1709547993,0, 2024-03-04 15:56:32.707
113,-93225.86277,-48768.3101,-23402.3882,-31541.1501,-28022.44908,-42434.60803,-50303.47261,-75099.7156,0.056,0.878,0.43,192,0,0,0,0,0,0,0,0,0,1709547993,0, 2024-03-04 15:56:32.707
114,-93195.75497,-48766.72313,-23440.02854,-31527.13555,-28100.79194,-42424.54975,-50349.07017,-75125.46481,0.056,0.878,0.43,192,0,0,0,0,0,0,0,0,0,1709547993,0, 2024-03-04 15:56:32.707
115,-93216.81031,-48778.03311,-23454.15484,-31540.70306,-28098.06503,-42428.77423,-50334.698,-75085.45519,0.056,0.878,0.43,192,0,0,0,0,0,0,0,0,0,1709547993,0, 2024-03-04 15:56:32.707
116,-93264.26307,-48792.60645,-23430.37259,-31571.43671,-28018.8281,-42447.61675,-50269.945,-75037.04131,0.056,0.878,0.43,192,0,0,0,0,0,0,0,0,0,1709547993,0, 2024-03-04 15:56:32.707
117,-93269.22515,-48785.31978,-23401.58354,-31576.77878,-27972.67174,-42456.60215,-50247.99558,-75054.2298,0.056,0.878,0.43,192,0,0,0,0,0,0,0,0,0,1709547993,0, 2024-03-04 15:56:32.707
118,-93221.41477,-48762.5657,-23407.46205,-31550.15785,-28024.19251,-42442.31939,-50324.86323,-75113.61839,0.056,0.878,0.43,192,0,0,0,0,0,0,0,0,0,1709547993,0, 2024-03-04 15:56:32.707
119,-93186.63546,-48754.11674,-23444.16361,-31527.672,-28102.91536,-42424.25918,-50361.74361,-75151.72811,0.056,0.878,0.43,192,0,0,0,0,0,0,0,0,0,1709547993,0, 2024-03-04 15:56:32.707
120,-93206.81908,-48761.02343,-23449.93036,-31529.63895,-28093.28176,-42415.65376,-50342.43171,-75111.51732,0.056,0.878,0.43,192,0,0,0,0,0,0,0,0,0,1709547993,0, 2024-03-04 15:56:32.707
121,-93244.52648,-48765.33732,-23411.9771,-31545.73221,-27999.40443,-42422.04635,-50275.75645,-75060.6224,0.056,0.87,0.428,192,1,192,27,48,13,96,0,0,0,1709547993,0, 2024-03-04 15:56:32.707
122,-93244.92881,-48756.79895,-23377.26484,-31545.50869,-27948.88949,-42425.71204,-50254.41054,-75066.12093,0.056,0.87,0.428,192,0,0,0,0,0,0,0,0,0,1709547993,0, 2024-03-04 15:56:32.707
123,-93204.04747,-48742.33737,-23385.60204,-31523.20165,-28000.27615,-42417.68776,-50301.61742,-75133.69025,0.056,0.87,0.428,192,0,0,0,0,0,0,0,0,0,1709547993,0, 2024-03-04 15:56:32.707
124,-93168.35173,-48733.77666,-23414.4805,-31498.16769,-28072.29347,-42397.32532,-50349.22664,-75161.56288,0.056,0.87,0.428,192,0,0,0,0,0,0,0,0,0,1709547993,0, 2024-03-04 15:56:32.707
125,-93187.1719,-48743.65613,-23425.99165,-31502.7051,-28066.68318,-42390.46334,-50335.18974,-75114.53481,0.056,0.87,0.428,192,0,0,0,0,0,0,0,0,0,1709547993,0, 2024-03-04 15:56:32.707
126,-93233.64118,-48757.91654,-23398.72252,-31526.80028,-27985.30048,-42403.47205,-50277.96927,-75062.00821,0.056,0.87,0.428,192,0,0,0,0,0,0,0,0,0,1709547993,0, 2024-03-04 15:56:32.707
127,-93244.97351,-48756.1284,-23372.81685,-31535.96449,-27942.94392,-42415.5867,-50258.83618,-75067.46204,0.056,0.87,0.428,192,0,0,0,0,0,0,0,0,0,1709547993,0, 2024-03-04 15:56:32.707
128,-93206.70732,-48740.59394,-23381.24345,-31514.95385,-27993.97296,-42406.19897,-50297.48235,-75114.69127,0.056,0.87,0.428,192,0,0,0,0,0,0,0,0,0,1709547993,0, 2024-03-04 15:56:32.707
129,-93178.49942,-48742.38208,-23426.59514,-31503.17448,-28080.47421,-42398.88995,-50339.7495,-75148.33065,0.056,0.87,0.428,192,0,0,0,0,0,0,0,0,0,1709547993,0, 2024-03-04 15:56:32.707
130,-93203.8016,-48759.19059,-23442.42018,-31515.66911,-28079.02134,-42399.96283,-50343.43753,-75104.72239,0.056,0.87,0.428,192,0,0,0,0,0,0,0,0,0,1709547993,0, 2024-03-04 15:56:32.707
131,-93247.49926,-48766.4102,-23405.71861,-31530.28715,-27987.75917,-42400.54398,-50284.20541,-75024.39022,0.054,0.874,0.424,192,1,176,27,80,13,64,0,0,0,1709547993,0, 2024-03-04 15:56:32.707
132,-93258.38456,-48766.14198,-23384.14918,-31541.70889,-27944.75442,-42413.48564,-50257.42802,-75023.31734,0.054,0.874,0.424,192,0,0,0,0,0,0,0,0,0,1709547993,0, 2024-03-04 15:56:32.707
133,-93218.30788,-48758.34122,-23404.33281,-31533.48345,-28005.10413,-42418.96181,-50306.51245,-75098.88859,0.054,0.874,0.424,192,0,0,0,0,0,0,0,0,0,1709547993,0, 2024-03-04 15:56:32.707
134,-93188.69182,-48758.90002,-23448.74572,-31519.40185,-28094.04172,-42409.73054,-50357.85441,-75138.04884,0.054,0.874,0.424,192,0,0,0,0,0,0,0,0,0,1709547993,0, 2024-03-04 15:56:32.707
135,-93219.69369,-48778.5919,-23457.10527,-31531.49414,-28089.70548,-42410.4458,-50345.33743,-75091.17724,0.054,0.874,0.424,192,0,0,0,0,0,0,0,0,0,1709547993,0, 2024-03-04 15:56:32.707
136,-93268.73341,-48793.65698,-23428.02565,-31556.95278,-28008.83687,-42424.12507,-50287.15584,-75020.36691,0.054,0.874,0.424,192,0,0,0,0,0,0,0,0,0,1709547993,0, 2024-03-04 15:56:32.707
137,-93271.39327,-48788.98547,-23398.27548,-31563.83712,-27961.29471,-42436.44088,-50271.50962,-75021.97624,0.054,0.874,0.424,192,0,0,0,0,0,0,0,0,0,1709547993,0, 2024-03-04 15:56:32.707
138,-93227.87443,-48772.7581,-23412.5806,-31545.84396,-28015.58709,-42430.62942,-50317.50951,-75081.65539,0.054,0.874,0.424,192,0,0,0,0,0,0,0,0,0,1709547993,0, 2024-03-04 15:56:32.707
139,-93195.86673,-48767.63955,-23456.39002,-31530.28715,-28102.46832,-42417.97834,-50368.47149,-75113.35017,0.054,0.874,0.424,192,0,0,0,0,0,0,0,0,0,1709547993,0, 2024-03-04 15:56:32.707
140,-93219.76074,-48781.85526,-23469.97988,-31542.73707,-28101.06016,-42420.90642,-50362.213,-75082.95179,0.054,0.874,0.424,192,0,0,0,0,0,0,0,0,0,1709547993,0, 2024-03-04 15:56:32.707
141,-93273.092,-48802.8212,-23445.34826,-31574.94594,-28022.73965,-42443.77225,-50311.00515,-75056.7332,0.066,0.876,0.432,192,2,16,27,96,13,128,0,0,0,1709547993,0, 2024-03-04 15:56:32.707
142,-93272.64497,-48790.52774,-23403.10346,-31570.76616,-27962.23348,-42441.09004,-50280.07034,-75041.60107,0.066,0.876,0.432,192,0,0,0,0,0,0,0,0,0,1709547993,0, 2024-03-04 15:56:32.707
143,-93227.44974,-48772.1546,-23412.20062,-31550.76135,-28011.63083,-42433.02106,-50314.58143,-75096.67577,0.066,0.876,0.432,192,0,0,0,0,0,0,0,0,0,1709547993,0, 2024-03-04 15:56:32.707
144,-93191.75401,-48767.99718,-23450.35505,-31530.77889,-28090.91247,-42420.21351,-50347.39379,-75134.76314,0.066,0.876,0.432,192,0,0,0,0,0,0,0,0,0,1709547993,0, 2024-03-04 15:56:32.707
145,-93211.71411,-48774.27802,-23457.12763,-31528.9684,-28085.5257,-42411.18341,-50354.32283,-75104.78945,0.066,0.876,0.432,192,0,0,0,0,0,0,0,0,0,1709547993,0, 2024-03-04 15:56:32.707
146,-93257.37873,-48781.83291,-23425.96929,-31549.80022,-28004.32181,-42424.16977,-50303.9867,-75065.0704,0.066,0.876,0.432,192,0,0,0,0,0,0,0,0,0,1709547993,0, 2024-03-04 15:56:32.707
147,-93257.75871,-48767.0137,-23389.11127,-31546.80509,-27946.40844,-42426.44965,-50275.7341,-75070.65833,0.066,0.876,0.432,192,0,0,0,0,0,0,0,0,0,1709547993,0, 2024-03-04 15:56:32.707
148,-93213.97164,-48746.33834,-23390.45237,-31522.59815,-27987.98269,-42416.43607,-50314.42497,-75131.16451,0.066,0.876,0.432,192,0,0,0,0,0,0,0,0,0,1709547993,0, 2024-03-04 15:56:32.707
149,-93176.04073,-48740.97392,-23429.34441,-31502.01219,-28069.58891,-42403.13678,-50362.41416,-75170.68239,0.066,0.876,0.432,192,0,0,0,0,0,0,0,0,0,1709547993,0, 2024-03-04 15:56:32.707
150,-93193.96683,-48748.61822,-23435.89347,-31501.63221,-28065.0515,-42390.35158,-50345.94093,-75111.40556,0.066,0.876,0.432,192,0,0,0,0,0,0,0,0,0,1709547993,0, 2024-03-04 15:56:32.707
151,-93246.38167,-48766.23139,-23403.30462,-31525.48153,-27979.26551,-42401.68391,-50256.4669,-75036.37076,0.062,0.876,0.428,192,1,240,27,96,13,96,0,0,0,1709547993,0, 2024-03-04 15:56:32.707
152,-93254.31654,-48759.45881,-23369.82171,-31529.86247,-27924.79431,-42409.10469,-50161.60609,-75037.77892,0.062,0.876,0.428,192,0,0,0,0,0,0,0,0,0,1709547993,0, 2024-03-04 15:56:32.707
153,-93210.06009,-48741.93504,-23378.40478,-31506.92958,-27972.22471,-42398.97935,-50182.03559,-75094.88763,0.062,0.876,0.428,192,0,0,0,0,0,0,0,0,0,1709547993,0, 2024-03-04 15:56:32.707
154,-93172.82208,-48735.81067,-23405.60685,-31483.32614,-28048.44416,-42379.26512,-50231.34354,-75114.4454,0.062,0.876,0.428,192,0,0,0,0,0,0,0,0,0,1709547993,0, 2024-03-04 15:56:32.707
155,-93191.7093,-48742.44913,-23416.29099,-31484.98016,-28045.69489,-42366.14464,-50220.45824,-75052.62048,0.062,0.876,0.428,192,0,0,0,0,0,0,0,0,0,1709547993,0, 2024-03-04 15:56:32.707
156,-93245.88993,-48763.25861,-23395.9509,-31516.67494,-27969.87778,-42385.30009,-50171.46321,-75001.99378,0.062,0.876,0.428,192,0,0,0,0,0,0,0,0,0,1709547993,0, 2024-03-04 15:56:32.707
157,-93256.17173,-48760.91167,-23369.44173,-31527.00144,-27923.34144,-42399.42639,-50151.81603,-75009.86159,0.062,0.876,0.428,192,0,0,0,0,0,0,0,0,0,1709547993,0, 2024-03-04 15:56:32.707
158,-93215.62567,-48743.61142,-23380.34938,-31508.38244,-27975.19749,-42391.93855,-50195.78191,-75063.63989,0.062,0.876,0.428,192,0,0,0,0,0,0,0,0,0,1709547993,0, 2024-03-04 15:56:32.707
159,-93179.68406,-48739.00697,-23423.15297,-31491.79745,-28061.65404,-42378.08047,-50246.52037,-75093.99356,0.062,0.876,0.428,192,0,0,0,0,0,0,0,0,0,1709547993,0, 2024-03-04 15:56:32.707
160,-93196.69374,-48745.46662,-23435.98288,-31496.17839,-28060.80467,-42372.31372,-50226.76143,-75049.91592,0.062,0.876,0.428,192,0,0,0,0,0,0,0,0,0,1709547993,0, 2024-03-04 15:56:32.707
161,-93244.8394,-48760.03996,-23407.17148,-31519.55831,-27982.19359,-42385.30009,-50198.1959,-74992.7178,0.052,0.872,0.43,192,1,160,27,64,13,112,0,0,0,1709547993,0, 2024-03-04 15:56:32.707
162,-93257.6693,-48763.83975,-23379.74589,-31534.19871,-27932.3492,-42404.47788,-50175.79945,-75004.27365,0.052,0.872,0.43,192,0,0,0,0,0,0,0,0,0,1709547993,0, 2024-03-04 15:56:32.707
163,-93220.81127,-48751.41218,-23391.21233,-31519.58066,-27981.7242,-42402.98032,-50214.89265,-75064.08692,0.052,0.872,0.43,192,0,0,0,0,0,0,0,0,0,1709547993,0, 2024-03-04 15:56:32.707
164,-93192.06693,-48755.4355,-23437.12281,-31510.97524,-28072.87461,-42400.40987,-50272.44839,-75114.06542,0.052,0.872,0.43,192,0,0,0,0,0,0,0,0,0,1709547993,0, 2024-03-04 15:56:32.707
165,-93221.99592,-48779.28481,-23458.24521,-31530.39891,-28082.61997,-42411.67514,-50269.9897,-75096.74282,0.052,0.872,0.43,192,0,0,0,0,0,0,0,0,0,1709547993,0, 2024-03-04 15:56:32.707
166,-93262.87726,-48789.09722,-23425.43285,-31553.84589,-27993.81649,-42425.62263,-50199.537,-75057.4261,0.052,0.872,0.43,192,0,0,0,0,0,0,0,0,0,1709547993,0, 2024-03-04 15:56:32.707
167,-93266.72176,-48782.32465,-23392.7099,-31561.35607,-27937.87008,-42435.88208,-50169.85389,-75066.18799,0.052,0.872,0.43,192,0,0,0,0,0,0,0,0,0,1709547993,0, 2024-03-04 15:56:32.707
168,-93221.43712,-48762.94568,-23396.66616,-31539.02668,-27979.7349,-42427.41077,-50214.02093,-75120.8827,0.052,0.872,0.43,192,0,0,0,0,0,0,0,0,0,1709547993,0, 2024-03-04 15:56:32.707
169,-93189.47413,-48759.79409,-23440.25206,-31524.34159,-28068.69484,-42419.56531,-50271.33081,-75171.75527,0.052,0.872,0.43,192,0,0,0,0,0,0,0,0,0,1709547993,0, 2024-03-04 15:56:32.707
170,-93213.97164,-48772.55693,-23455.22773,-31531.24828,-28070.41592,-42416.70429,-50259.48438,-75136.14895,0.052,0.872,0.43,192,0,0,0,0,0,0,0,0,0,1709547993,0, 2024-03-04 15:56:32.707
171,-93261.64791,-48789.81248,-23428.91972,-31558.18213,-27989.90494,-42431.25527,-50204.43204,-75075.46396,0.052,0.868,0.434,192,1,160,27,32,13,144,0,0,0,1709547993,0, 2024-03-04 15:56:32.707
172,-93267.77229,-48785.27508,-23391.14528,-31562.60777,-27928.70586,-42439.9501,-50176.4253,-75076.17922,0.052,0.868,0.434,192,0,0,0,0,0,0,0,0,0,1709547993,0, 2024-03-04 15:56:32.707
173,-93222.33119,-48766.90194,-23399.12485,-31537.57382,-27976.18097,-42428.05897,-50217.03842,-75132.75148,0.052,0.868,0.434,192,0,0,0,0,0,0,0,0,0,1709547993,0, 2024-03-04 15:56:32.707
174,-93188.53536,-48755.41315,-23435.26762,-31509.99177,-28057.63072,-42402.39917,-50267.62042,-75165.6756,0.052,0.868,0.434,192,0,0,0,0,0,0,0,0,0,1709547993,0, 2024-03-04 15:56:32.707
175,-93211.37884,-48763.14685,-23443.44836,-31509.41062,-28054.61324,-42389.2787,-50241.55828,-75107.98575,0.052,0.868,0.434,192,0,0,0,0,0,0,0,0,0,1709547993,0, 2024-03-04 15:56:32.707
176,-93256.3282,-48778.21192,-23415.19575,-31531.85177,-27975.30925,-42400.164,-50205.12494,-75038.38242,0.052,0.868,0.434,192,0,0,0,0,0,0,0,0,0,1709547993,0, 2024-03-04 15:56:32.707
177,-93264.62069,-48776.89317,-23384.70797,-31540.41249,-27918.58052,-42411.67514,-50184.56133,-75037.13072,0.052,0.868,0.434,192,0,0,0,0,0,0,0,0,0,1709547993,0, 2024-03-04 15:56:32.707
178,-93222.66647,-48758.14006,-23393.82749,-31519.73713,-27964.02162,-42403.76263,-50217.84308,-75085.23167,0.052,0.868,0.434,192,0,0,0,0,0,0,0,0,0,1709547993,0, 2024-03-04 15:56:32.707
179,-93179.63936,-48744.12551,-23428.87502,-31493.85381,-28045.22551,-42382.10379,-50266.7487,-75103.89538,0.052,0.868,0.434,192,0,0,0,0,0,0,0,0,0,1709547993,0, 2024-03-04 15:56:32.707
180,-93207.31082,-48765.62789,-23450.62327,-31512.36105,-28056.51314,-42390.75391,-50263.35123,-75081.20836,0.052,0.868,0.434,192,0,0,0,0,0,0,0,0,0,1709547993,0, 2024-03-04 15:56:32.707
181,-93263.23489,-48790.41598,-23434.3959,-31549.06262,-27985.70281,-42415.38553,-50216.25611,-75039.96939,0.062,0.872,0.428,192,1,240,27,64,13,96,0,0,0,1709547993,0, 2024-03-04 15:56:32.707
182,-93269.98511,-48787.71142,-23396.97908,-31553.62237,-27924.63785,-42420.0347,-50191.1551,-75014.51075,0.062,0.872,0.428,192,0,0,0,0,0,0,0,0,0,1709547993,0, 2024-03-04 15:56:32.707
183,-93230.35547,-48771.28288,-23402.96935,-31534.22106,-27968.33551,-42410.60226,-50229.33188,-75055.95089,0.062,0.872,0.428,192,0,0,0,0,0,0,0,0,0,1709547993,0, 2024-03-04 15:56:32.707
184,-93195.86673,-48765.18086,-23447.11404,-31515.87028,-28056.60254,-42395.13485,-50280.69619,-75080.47075,0.062,0.872,0.428,192,0,0,0,0,0,0,0,0,0,1709547993,0, 2024-03-04 15:56:32.707
185,-93215.67037,-48778.34604,-23465.08485,-31525.50388,-28064.85034,-42395.42543,-50276.91874,-75056.46498,0.062,0.872,0.428,192,0,0,0,0,0,0,0,0,0,1709547993,0, 2024-03-04 15:56:32.707
186,-93262.38552,-48791.26534,-23439.87208,-31548.54853,-27988.92146,-42405.9531,-50224.90623,-74998.14928,0.062,0.872,0.428,192,0,0,0,0,0,0,0,0,0,1709547993,0, 2024-03-04 15:56:32.707
187,-93268.06286,-48782.63757,-23405.29393,-31549.82257,-27932.12568,-42409.59643,-50201.25809,-74990.14735,0.062,0.872,0.428,192,0,0,0,0,0,0,0,0,0,1709547993,0, 2024-03-04 15:56:32.707
188,-93231.94244,-48766.63372,-23411.55242,-31529.6613,-27977.34326,-42403.67322,-50241.8265,-75049.31242,0.062,0.872,0.428,192,0,0,0,0,0,0,0,0,0,1709547993,0, 2024-03-04 15:56:32.707
189,-93188.06597,-48753.06621,-23442.06255,-31502.21336,-28057.85424,-42385.32244,-50288.27343,-75094.23942,0.062,0.872,0.428,192,0,0,0,0,0,0,0,0,0,1709547993,0, 2024-03-04 15:56:32.707
190,-93205.58974,-48763.8174,-23454.28895,-31508.87418,-28062.83868,-42387.22234,-50287.8711,-75084.42701,0.062,0.872,0.428,192,0,0,0,0,0,0,0,0,0,1709547993,0, 2024-03-04 15:56:32.707
191,-93252.5731,-48773.451,-23427.66803,-31530.73419,-27980.11487,-42400.40987,-50216.90431,-75042.85276,0.07,0.87,0.424,192,2,48,27,48,13,64,0,0,0,1709547993,0, 2024-03-04 15:56:32.707
192,-93254.16008,-48760.86697,-23383.00924,-31530.9577,-27913.93136,-42403.89674,-50188.91992,-75035.63315,0.07,0.87,0.424,192,0,0,0,0,0,0,0,0,0,1709547993,0, 2024-03-04 15:56:32.707
193,-93207.42258,-48739.14108,-23385.53499,-31508.56125,-27959.61833,-42396.38655,-50254.58935,-75108.49984,0.07,0.87,0.424,192,0,0,0,0,0,0,0,0,0,1709547993,0, 2024-03-04 15:56:32.707
194,-93169.42461,-48734.08958,-23425.34344,-31490.38929,-28044.75612,-42384.58483,-50298.06349,-75152.91275,0.07,0.87,0.424,192,0,0,0,0,0,0,0,0,0,1709547993,0, 2024-03-04 15:56:32.707
195,-93182.99212,-48742.6056,-23433.99357,-31492.24448,-28043.21385,-42375.37591,-50285.21124,-75104.8565,0.07,0.87,0.424,192,0,0,0,0,0,0,0,0,0,1709547993,0, 2024-03-04 15:56:32.707
196,-93228.43322,-48749.98167,-23401.62824,-31509.23181,-27958.88072,-42378.46045,-50223.29691,-75043.27745,0.07,0.87,0.424,192,0,0,0,0,0,0,0,0,0,1709547993,0, 2024-03-04 15:56:32.707
197,-93239.67615,-48743.70083,-23363.80909,-31515.87028,-27896.80992,-42386.7753,-50194.66432,-75038.00244,0.07,0.87,0.424,192,0,0,0,0,0,0,0,0,0,1709547993,0, 2024-03-04 15:56:32.707
198,-93201.32055,-48725.95355,-23371.36398,-31497.76536,-27943.39096,-42379.80156,-50238.02671,-75090.70785,0.07,0.87,0.424,192,0,0,0,0,0,0,0,0,0,1709547993,0, 2024-03-04 15:56:32.707
199,-93165.84833,-48717.39283,-23402.65642,-31475.54773,-28023.43256,-42362.25544,-50288.04991,-75128.54935,0.07,0.87,0.424,192,0,0,0,0,0,0,0,0,0,1709547993,0, 2024-03-04 15:56:32.707
200,-93189.72,-48734.17899,-23417.96737,-31486.70125,-28032.57442,-42364.40121,-50282.97607,-75100.85554,0.07,0.87,0.424,192,0,0,0,0,0,0,0,0,0,1709547993,0, 2024-03-04 15:56:32.707
201,-93232.52359,-48747.94766,-23391.01117,-31509.8353,-27950.78939,-42371.75493,-50223.83335,-75022.89266,0.058,0.87,0.424,192,1,208,27,48,13,64,0,0,0,1709547993,0, 2024-03-04 15:56:32.707
202,-93244.1465,-48745.46662,-23354.42136,-31517.07727,-27889.21033,-42378.37105,-50186.52829,-75005.41359,0.058,0.87,0.424,192,0,0,0,0,0,0,0,0,0,1709547993,0, 2024-03-04 15:56:32.707
203,-93207.66845,-48731.1615,-23359.96459,-31500.67109,-27930.31519,-42373.23014,-50223.11809,-75056.46498,0.058,0.87,0.424,192,0,0,0,0,0,0,0,0,0,1709547993,0, 2024-03-04 15:56:32.707
204,-93168.41879,-48725.46181,-23402.61172,-31486.20951,-28019.23043,-42362.74718,-50279.15392,-75097.25691,0.058,0.87,0.424,192,0,0,0,0,0,0,0,0,0,1709547993,0, 2024-03-04 15:56:32.707
205,-93195.28558,-48743.63378,-23426.28222,-31500.17935,-28033.49084,-42364.58002,-50270.21322,-75057.58256,0.058,0.87,0.424,192,0,0,0,0,0,0,0,0,0,1709547993,0, 2024-03-04 15:56:32.707
206,-93251.50022,-48766.14198,-23411.3736,-31535.94214,-27967.57555,-42388.49639,-50219.27359,-75020.8363,0.058,0.87,0.424,192,0,0,0,0,0,0,0,0,0,1709547993,0, 2024-03-04 15:56:32.707
207,-93260.50797,-48762.76687,-23374.91791,-31547.27448,-27907.78463,-42401.05807,-50191.1104,-75028.59235,0.058,0.87,0.424,192,0,0,0,0,0,0,0,0,0,1709547993,0, 2024-03-04 15:56:32.707
208,-93223.78406,-48753.4909,-23384.99855,-31537.79734,-27953.73982,-42402.68974,-50219.89944,-75085.5446,0.058,0.87,0.424,192,0,0,0,0,0,0,0,0,0,1709547993,0, 2024-03-04 15:56:32.707
209,-93188.75887,-48745.66778,-23425.25404,-31516.33966,-28042.94563,-42383.84722,-50293.21316,-75102.33076,0.058,0.87,0.424,192,0,0,0,0,0,0,0,0,0,1709547993,0, 2024-03-04 15:56:32.707
210,-93211.71411,-48758.74356,-23445.01298,-31525.50388,-28054.1662,-42382.01438,-50283.51251,-75061.53882,0.058,0.87,0.424,192,0,0,0,0,0,0,0,0,0,1709547993,0, 2024-03-04 15:56:33.187
211,-93265.00067,-48774.88151,-23423.10827,-31554.80701,-27980.04782,-42398.59937,-50228.48251,-75008.81106,0.056,0.866,0.424,192,1,192,27,16,13,64,0,0,0,1709547993,0, 2024-03-04 15:56:33.187
212,-93277.78587,-48772.82515,-23396.5991,-31569.42505,-27927.70003,-42414.15619,-50206.06371,-75016.12008,0.056,0.866,0.424,192,0,0,0,0,0,0,0,0,0,1709547993,0, 2024-03-04 15:56:33.187
213,-93237.30686,-48754.00499,-23403.81872,-31552.54949,-27973.00702,-42409.05999,-50244.21814,-75079.55433,0.056,0.866,0.424,192,0,0,0,0,0,0,0,0,0,1709547993,0, 2024-03-04 15:56:33.187
214,-93196.31376,-48743.38791,-23439.96149,-31528.85664,-28055.66377,-42390.26217,-50296.14124,-75113.35017,0.056,0.866,0.424,192,0,0,0,0,0,0,0,0,0,1709547993,0, 2024-03-04 15:56:33.187
215,-93216.11741,-48757.29069,-23456.41237,-31534.66809,-28066.07968,-42386.50708,-50293.34727,-75078.92848,0.056,0.866,0.424,192,0,0,0,0,0,0,0,0,0,1709547993,0, 2024-03-04 15:56:33.187
216,-93259.90448,-48768.77949,-23423.64471,-31554.49409,-27981.88066,-42397.14651,-50236.46208,-75027.81004,0.056,0.866,0.424,192,0,0,0,0,0,0,0,0,0,1709547993,0, 2024-03-04 15:56:33.187
217,-93267.28055,-48764.4656,-23386.67493,-31563.88182,-27920.65923,-42410.02112,-50210.10938,-75027.74299,0.056,0.866,0.424,192,0,0,0,0,0,0,0,0,0,1709547993,0, 2024-03-04 15:56:33.187
218,-93216.58679,-48740.03515,-23383.97037,-31538.51259,-27954.63389,-42399.44874,-50246.36391,-75089.63497,0.056,0.866,0.424,192,0,0,0,0,0,0,0,0,0,1709547993,0, 2024-03-04 15:56:33.187
219,-93171.88331,-48724.47833,-23415.1734,-31508.56125,-28031.81446,-42376.04646,-50292.85554,-75129.89046,0.056,0.866,0.424,192,0,0,0,0,0,0,0,0,0,1709547993,0, 2024-03-04 15:56:33.187
220,-93188.80358,-48734.53662,-23427.69038,-31510.4388,-28037.71532,-42367.77632,-50284.27247,-75091.11018,0.056,0.866,0.424,192,0,0,0,0,0,0,0,0,0,1709547993,0, 2024-03-04 15:56:33.187
221,-93243.14067,-48751.70276,-23404.57867,-31536.63505,-27959.9983,-42383.31078,-50232.55053,-75046.18317,0.058,0.866,0.424,192,1,208,27,16,13,64,0,0,0,1709547993,0, 2024-03-04 15:56:33.187
222,-93259.83742,-48749.37817,-23369.82171,-31543.1394,-27895.80409,-42391.93855,-50201.77218,-75037.62246,0.058,0.866,0.424,192,0,0,0,0,0,0,0,0,0,1709547993,0, 2024-03-04 15:56:33.187
223,-93217.2797,-48728.59105,-23369.53114,-31518.44073,-27932.01392,-42379.42158,-50230.80709,-75077.58738,0.058,0.866,0.424,192,0,0,0,0,0,0,0,0,0,1709547993,0, 2024-03-04 15:56:33.187
224,-93177.80652,-48726.53469,-23409.74193,-31503.06273,-28019.36454,-42370.83851,-50285.70298,-75120.27921,0.058,0.866,0.424,192,0,0,0,0,0,0,0,0,0,1709547993,0, 2024-03-04 15:56:33.187
225,-93196.98431,-48744.10316,-23432.02662,-31514.39506,-28031.81446,-42373.85599,-50278.21514,-75097.1228,0.058,0.866,0.424,192,0,0,0,0,0,0,0,0,0,1709547993,0, 2024-03-04 15:56:33.187
226,-93248.41568,-48761.80574,-23406.2327,-31536.90327,-27950.32,-42383.15432,-50223.96746,-75024.01024,0.058,0.866,0.424,192,0,0,0,0,0,0,0,0,0,1709547993,0, 2024-03-04 15:56:33.187
227,-93264.82186,-48763.59388,-23373.30858,-31547.92268,-27887.35514,-42396.3642,-50190.70806,-75012.32028,0.058,0.866,0.424,192,0,0,0,0,0,0,0,0,0,1709547993,0, 2024-03-04 15:56:33.187
228,-93230.51193,-48749.13231,-23377.64482,-31530.9577,-27926.94007,-42392.00561,-50212.90335,-75068.24435,0.058,0.866,0.424,192,0,0,0,0,0,0,0,0,0,1709547993,0, 2024-03-04 15:56:33.187
229,-93191.6646,-48743.14204,-23416.71567,-31512.18224,-28014.80478,-42379.55569,-50269.945,-75114.13248,0.058,0.866,0.424,192,0,0,0,0,0,0,0,0,0,1709547993,0, 2024-03-04 15:56:33.187
230,-93207.57904,-48753.55795,-23436.31815,-31516.76434,-28030.33924,-42375.48767,-50286.08296,-75085.11991,0.058,0.866,0.424,192,0,0,0,0,0,0,0,0,0,1709547993,0, 2024-03-04 15:56:33.187
231,-93254.09302,-48768.71243,-23410.50189,-31540.94893,-27949.80591,-42384.94246,-50226.53791,-75014.08607,0.064,0.868,0.426,192,2,0,27,32,13,80,0,0,0,1709547993,0, 2024-03-04 15:56:33.187
232,-93279.95399,-48776.28967,-23388.99951,-31563.27832,-27899.26862,-42405.66253,-50204.83437,-75016.20949,0.064,0.868,0.426,192,0,0,0,0,0,0,0,0,0,1709547993,0, 2024-03-04 15:56:33.187
233,-93245.73347,-48762.43159,-23402.00822,-31551.90129,-27949.24712,-42405.88604,-50246.98976,-75074.14521,0.064,0.868,0.426,192,0,0,0,0,0,0,0,0,0,1709547993,0, 2024-03-04 15:56:33.187
234,-93199.97945,-48747.27711,-23436.11699,-31524.54275,-28034.2508,-42382.17084,-50294.93425,-75092.65245,0.064,0.868,0.426,192,0,0,0,0,0,0,0,0,0,1709547993,0, 2024-03-04 15:56:33.187
235,-93220.87833,-48760.53169,-23458.98282,-31531.74001,-28051.55105,-42380.62857,-50298.48818,-75069.25017,0.064,0.868,0.426,192,0,0,0,0,0,0,0,0,0,1709547993,0, 2024-03-04 15:56:33.187
236,-93268.53225,-48778.52485,-23437.72631,-31562.33955,-27977.94676,-42401.30394,-50256.82452,-75028.23472,0.064,0.868,0.426,192,0,0,0,0,0,0,0,0,0,1709547993,0, 2024-03-04 15:56:33.187
237,-93279.37284,-48775.52972,-23402.36585,-31572.77782,-27913.2161,-42414.58087,-50224.25803,-75031.811,0.064,0.868,0.426,192,0,0,0,0,0,0,0,0,0,1709547993,0, 2024-03-04 15:56:33.187
238,-93240.19024,-48758.74356,-23402.72348,-31552.59419,-27949.26947,-42407.60713,-50259.32792,-75075.82159,0.064,0.868,0.426,192,0,0,0,0,0,0,0,0,0,1709547993,0, 2024-03-04 15:56:33.187
239,-93199.66652,-48749.0876,-23439.38034,-31525.8615,-28034.92135,-42388.04935,-50307.20536,-75098.21804,0.064,0.868,0.426,192,0,0,0,0,0,0,0,0,0,1709547993,0, 2024-03-04 15:56:33.187
240,-93214.79865,-48759.25765,-23459.4075,-31528.67782,-28052.60158,-42385.36714,-50306.98184,-75085.61165,0.064,0.868,0.426,192,0,0,0,0,0,0,0,0,0,1709547993,0, 2024-03-04 15:56:33.187
241,-93262.49728,-48771.5511,-23434.03827,-31549.91198,-27976.82917,-42397.16886,-50254.47759,-75042.0481,0.064,0.868,0.426,192,0,0,0,0,0,0,0,0,0,1709547993,0, 2024-03-04 15:56:33.187
242,-93278.03174,-48768.93595,-23399.77305,-31557.7798,-27912.54555,-42408.12122,-50223.8557,-75041.08698,0.06,0.868,0.426,192,1,224,27,32,13,80,0,0,0,1709547993,0, 2024-03-04 15:56:33.187
243,-93229.88608,-48743.61142,-23393.62632,-31529.99658,-27938.98767,-42393.30201,-50238.47374,-75090.70785,0.06,0.868,0.426,192,0,0,0,0,0,0,0,0,0,1709547993,0, 2024-03-04 15:56:33.187
244,-93183.46151,-48728.38989,-23422.52713,-31498.16769,-28016.65998,-42370.0562,-50287.49112,-75124.079,0.06,0.868,0.426,192,0,0,0,0,0,0,0,0,0,1709547993,0, 2024-03-04 15:56:33.187
245,-93200.98528,-48742.20326,-23439.26858,-31505.47671,-28033.93788,-42369.78798,-50303.60673,-75111.1597,0.06,0.868,0.426,192,0,0,0,0,0,0,0,0,0,1709547993,0, 2024-03-04 15:56:33.187
246,-93246.87341,-48758.27417,-23408.84786,-31528.87899,-27946.65431,-42379.62274,-50237.71378,-75047.12195,0.06,0.868,0.426,192,0,0,0,0,0,0,0,0,0,1709547993,0, 2024-03-04 15:56:33.187
247,-93258.04928,-48749.40053,-23369.0841,-31532.54468,-27876.15691,-42382.19319,-50198.64293,-75029.8664,0.06,0.868,0.426,192,0,0,0,0,0,0,0,0,0,1709547993,0, 2024-03-04 15:56:33.187
248,-93226.55567,-48737.10707,-23375.09672,-31519.96064,-27916.59122,-42379.15336,-50233.46695,-75086.59513,0.06,0.868,0.426,192,0,0,0,0,0,0,0,0,0,1709547993,0, 2024-03-04 15:56:33.187
249,-93190.05527,-48734.08958,-23417.92267,-31505.65553,-28005.26059,-42367.86573,-50289.45807,-75131.61154,0.06,0.868,0.426,192,0,0,0,0,0,0,0,0,0,1709547993,0, 2024-03-04 15:56:33.187
250,-93212.31761,-48753.69206,-23440.7885,-31520.31827,-28022.1138,-42371.15143,-50291.55913,-75108.09751,0.06,0.868,0.426,192,0,0,0,0,0,0,0,0,0,1709547993,0, 2024-03-04 15:56:33.187
251,-93268.33108,-48777.51902,-23424.27056,-31554.27057,-27954.00804,-42390.46334,-50241.67004,-75039.94704,0.06,0.868,0.426,192,0,0,0,0,0,0,0,0,0,1709547993,0, 2024-03-04 15:56:33.187
252,-93289.29702,-48778.81542,-23394.96742,-31570.07326,-27894.48534,-42406.57895,-50213.95388,-75036.34841,0.054,0.872,0.428,192,1,176,27,64,13,96,0,0,0,1709547993,0, 2024-03-04 15:56:33.187
253,-93250.71791,-48758.92237,-23402.36585,-31552.37067,-27936.30546,-42400.99101,-50250.90131,-75089.79143,0.054,0.872,0.428,192,0,0,0,0,0,0,0,0,0,1709547993,0, 2024-03-04 15:56:33.187
254,-93206.77438,-48749.6464,-23440.65439,-31528.67782,-28022.0244,-42382.10379,-50303.20439,-75111.78554,0.054,0.872,0.428,192,0,0,0,0,0,0,0,0,0,1709547993,0, 2024-03-04 15:56:33.187
255,-93222.24179,-48761.60458,-23464.16843,-31534.86926,-28040.53164,-42380.49446,-50303.51732,-75082.12478,0.054,0.872,0.428,192,0,0,0,0,0,0,0,0,0,1709547993,0, 2024-03-04 15:56:33.187
0,-93274.50016,-48779.46362,-23442.57664,-31559.52323,-27967.30733,-42393.97256,-50246.58743,-75008.31932,0.054,0.872,0.428,192,0,0,0,0,0,0,0,0,0,1709547993,0, 2024-03-04 15:56:33.187
1,-93290.30285,-48778.56955,-23409.18313,-31569.73798,-27904.38716,-42407.42831,-50209.21531,-74993.94715,0.054,0.872,0.428,192,0,0,0,0,0,0,0,0,0,1709547993,0, 2024-03-04 15:56:33.187
2,-93257.78106,-48766.27609,-23419.17436,-31557.01984,-27948.28599,-42409.08234,-50246.81094,-75059.08013,0.054,0.872,0.428,192,0,0,0,0,0,0,0,0,0,1709547993,0, 2024-03-04 15:56:33.187
3,-93219.49252,-48759.48116,-23462.06736,-31538.08791,-28040.06225,-42395.62659,-50309.23936,-75094.93233,0.054,0.872,0.428,192,0,0,0,0,0,0,0,0,0,1709547993,0, 2024-03-04 15:56:33.187
4,-93233.52942,-48771.97579,-23488.71064,-31547.94503,-28063.7104,-42395.29132,-50313.30738,-75076.44744,0.054,0.872,0.428,192,0,0,0,0,0,0,0,0,0,1709547993,0, 2024-03-04 15:56:33.187
5,-93277.85293,-48783.73281,-23467.29767,-31568.84391,-27989.56966,-42404.07555,-50264.98291,-75020.85865,0.054,0.872,0.428,192,0,0,0,0,0,0,0,0,0,1709547993,0, 2024-03-04 15:56:33.187
6,-93287.7771,-48778.48015,-23430.39494,-31577.60579,-27923.11793,-42416.68194,-50236.32797,-75026.96067,0.064,0.866,0.424,192,2,0,27,16,13,64,0,0,0,1709547993,0, 2024-03-04 15:56:33.187
7,-93246.87341,-48759.65998,-23429.2997,-31560.4173,-27955.43855,-42412.90449,-50254.07526,-75093.52417,0.064,0.866,0.424,192,0,0,0,0,0,0,0,0,0,1709547993,0, 2024-03-04 15:56:33.187
8,-93202.72871,-48747.81355,-23465.21896,-31538.11026,-28044.28673,-42398.10764,-50334.07215,-75152.55513,0.064,0.866,0.424,192,0,0,0,0,0,0,0,0,0,1709547993,0, 2024-03-04 15:56:33.187
9,-93204.85213,-48751.85922,-23472.81855,-31534.7128,-28048.75708,-42389.16694,-50332.41812,-75133.75731,0.064,0.866,0.424,192,0,0,0,0,0,0,0,0,0,1709547993,0, 2024-03-04 15:56:33.187
10,-93249.82384,-48766.34315,-23446.71171,-31556.10342,-27970.81655,-42400.63338,-50269.11798,-75089.3891,0.064,0.866,0.424,192,0,0,0,0,0,0,0,0,0,1709547993,0, 2024-03-04 15:56:33.187
11,-93262.18435,-48760.68816,-23401.82941,-31560.84198,-27897.81575,-42406.19897,-50228.81779,-75079.28611,0.064,0.866,0.424,192,0,0,0,0,0,0,0,0,0,1709547993,0, 2024-03-04 15:56:33.187
12,-93222.24179,-48741.68917,-23397.51552,-31538.6467,-27925.59897,-42394.28549,-50258.99264,-75102.66603,0.064,0.866,0.424,192,0,0,0,0,0,0,0,0,0,1709547993,0, 2024-03-04 15:56:33.187
13,-93183.95325,-48735.11776,-23437.50279,-31520.81001,-28015.0283,-42383.579,-50318.78356,-75154.29856,0.064,0.866,0.424,192,0,0,0,0,0,0,0,0,0,1709547993,0, 2024-03-04 15:56:33.187
14,-93195.5091,-48744.68431,-23451.6291,-31523.49222,-28026.07006,-42376.64996,-50312.03333,-75135.81367,0.064,0.866,0.424,192,0,0,0,0,0,0,0,0,0,1709547993,0, 2024-03-04 15:56:33.187
15,-93251.05318,-48769.5171,-23434.9547,-31553.9353,-27957.98665,-42394.77723,-50260.11023,-75081.65539,0.064,0.866,0.424,192,0,0,0,0,0,0,0,0,0,1709547993,0, 2024-03-04 15:56:33.187
16,-93270.25333,-48769.62885,-23396.5991,-31564.30651,-27887.95863,-42403.94144,-50223.8557,-75049.37947,0.06,0.868,0.418,192,1,224,27,32,13,16,0,0,0,1709547993,0, 2024-03-04 15:56:33.187
17,-93230.53428,-48751.25572,-23393.78278,-31545.84396,-27917.7088,-42397.48179,-50255.61753,-75103.62716,0.06,0.868,0.418,192,0,0,0,0,0,0,0,0,0,1709547993,0, 2024-03-04 15:56:33.187
18,-93191.0611,-48746.69597,-23430.23848,-31525.92856,-28004.63474,-42383.93663,-50310.62517,-75147.16836,0.06,0.868,0.418,192,0,0,0,0,0,0,0,0,0,1709547993,0, 2024-03-04 15:56:33.187
19,-93202.16992,-48754.51908,-23451.60674,-31527.7167,-28025.08658,-42376.71702,-50310.78164,-75107.98575,0.06,0.868,0.418,192,0,0,0,0,0,0,0,0,0,1709547993,0, 2024-03-04 15:56:33.187
20,-93255.70235,-48775.21679,-23435.75936,-31558.31624,-27957.94194,-42393.74905,-50264.73704,-75058.0743,0.06,0.868,0.418,192,0,0,0,0,0,0,0,0,0,1709547993,0, 2024-03-04 15:56:33.187
21,-93274.88014,-48777.9437,-23407.4397,-31575.95176,-27899.02275,-42412.97155,-50233.4893,-75063.61754,0.06,0.868,0.418,192,0,0,0,0,0,0,0,0,0,1709547993,0, 2024-03-04 15:56:33.187
22,-93237.68684,-48762.09632,-23410.05485,-31557.71274,-27930.82928,-42406.22132,-50269.25209,-75101.81667,0.06,0.868,0.418,192,0,0,0,0,0,0,0,0,0,1709547993,0, 2024-03-04 15:56:33.187
23,-93196.1573,-48751.12161,-23442.75545,-31530.73419,-28011.31791,-42384.51778,-50322.91863,-75124.74956,0.06,0.868,0.418,192,0,0,0,0,0,0,0,0,0,1709547993,0, 2024-03-04 15:56:33.187
24,-93211.73647,-48766.09728,-23470.56102,-31536.07625,-28034.2061,-42380.49446,-50320.66111,-75085.47754,0.06,0.868,0.418,192,0,0,0,0,0,0,0,0,0,1709547993,0, 2024-03-04 15:56:33.187
25,-93263.63722,-48787.51025,-23459.42986,-31569.73798,-27970.39187,-42403.42735,-50275.59999,-75050.22884,0.06,0.868,0.418,192,0,0,0,0,0,0,0,0,0,1709547993,0, 2024-03-04 15:56:33.187
26,-93286.39129,-48791.31005,-23423.89058,-31587.44056,-27901.41438,-42420.83936,-50229.37658,-75046.38434,0.052,0.872,0.422,192,1,160,27,64,13,48,0,0,0,1709547993,0, 2024-03-04 15:56:33.187
27,-93245.15232,-48767.86307,-23416.55921,-31562.2725,-27925.84484,-42404.47788,-50252.48829,-75056.24146,0.052,0.872,0.422,192,0,0,0,0,0,0,0,0,0,1709547993,0, 2024-03-04 15:56:33.187
28,-93205.45563,-48762.02926,-23454.93715,-31543.34057,-28019.38689,-42392.78792,-50327.67955,-75091.66897,0.052,0.872,0.422,192,0,0,0,0,0,0,0,0,0,1709547993,0, 2024-03-04 15:56:33.187
29,-93222.13003,-48780.55886,-23485.64845,-31559.23266,-28050.43346,-42402.77915,-50332.52988,-75096.5193,0.052,0.872,0.422,192,0,0,0,0,0,0,0,0,0,1709547993,0, 2024-03-04 15:56:33.187
30,-93273.06965,-48799.24492,-23472.50563,-31590.30158,-27985.524,-42424.10271,-50282.57373,-75051.10056,0.052,0.872,0.422,192,0,0,0,0,0,0,0,0,0,1709547993,0, 2024-03-04 15:56:33.187
31,-93293.65561,-48800.42956,-23443.11308,-31606.64071,-27923.67672,-42443.90636,-50258.25504,-75059.41541,0.052,0.872,0.422,192,0,0,0,0,0,0,0,0,0,1709547993,0, 2024-03-04 15:56:33.187
32,-93251.00848,-48780.02242,-23436.96635,-31585.51831,-27949.09065,-42437.44671,-50289.90511,-75118.15579,0.052,0.872,0.422,192,0,0,0,0,0,0,0,0,0,1709547993,0, 2024-03-04 15:56:33.187
33,-93208.65193,-48769.83002,-23471.36569,-31562.98775,-28035.39074,-42423.81214,-50346.09739,-75175.55507,0.052,0.872,0.422,192,0,0,0,0,0,0,0,0,0,1709547993,0, 2024-03-04 15:56:33.187
34,-93218.01731,-48777.58608,-23490.65524,-31563.70301,-28056.17786,-42417.64306,-50348.55608,-75166.10028,0.052,0.872,0.422,192,0,0,0,0,0,0,0,0,0,1709547993,0, 2024-03-04 15:56:33.187
35,-93260.66443,-48788.24786,-23464.12372,-31582.07614,-27978.28203,-42424.48269,-50289.05574,-75101.90607,0.052,0.872,0.422,192,0,0,0,0,0,0,0,0,0,1709547993,0, 2024-03-04 15:56:33.187
36,-93268.95693,-48775.77558,-23413.60878,-31578.90219,-27896.60876,-42422.06871,-50244.75458,-75070.41247,0.06,0.87,0.428,192,1,224,27,48,13,96,0,0,0,1709547993,0, 2024-03-04 15:56:33.187
37,-93228.90261,-48754.8767,-23406.25506,-31553.55532,-27921.77682,-42407.65183,-50276.24819,-75104.96826,0.06,0.87,0.428,192,0,0,0,0,0,0,0,0,0,1709547993,0, 2024-03-04 15:56:33.187
38,-93186.63546,-48746.60656,-23442.0402,-31529.03545,-28007.3393,-42390.10571,-50326.38315,-75145.2014,0.06,0.87,0.428,192,0,0,0,0,0,0,0,0,0,1709547993,0, 2024-03-04 15:56:33.187
39,-93200.65,-48760.46464,-23472.148,-31535.49511,-28038.81056,-42388.54109,-50336.84377,-75135.09841,0.06,0.87,0.428,192,0,0,0,0,0,0,0,0,0,1709547993,0, 2024-03-04 15:56:33.187
40,-93255.32237,-48783.82221,-23460.74861,-31565.64761,-27975.19749,-42404.43318,-50290.62036,-75081.7895,0.06,0.87,0.428,192,0,0,0,0,0,0,0,0,0,1709547993,0, 2024-03-04 15:56:33.187
41,-93270.63331,-48783.26342,-23419.84492,-31576.77878,-27901.0344,-42414.69263,-50243.7264,-75065.00334,0.06,0.87,0.428,192,0,0,0,0,0,0,0,0,0,1709547993,0, 2024-03-04 15:56:33.187
42,-93228.165,-48759.83879,-23414.21228,-31552.81771,-27924.97312,-42399.11346,-50255.10344,-75091.62427,0.06,0.87,0.428,192,0,0,0,0,0,0,0,0,0,1709547993,0, 2024-03-04 15:56:33.187
43,-93182.61214,-48745.95836,-23449.70685,-31526.39795,-28011.16145,-42377.94636,-50324.86323,-75119.31808,0.06,0.87,0.428,192,0,0,0,0,0,0,0,0,0,1709547993,0, 2024-03-04 15:56:33.187
44,-93193.49744,-48756.28486,-23473.64556,-31529.30367,-28035.88248,-42371.41965,-50346.835,-75084.47171,0.06,0.87,0.428,192,0,0,0,0,0,0,0,0,0,1709547993,0, 2024-03-04 15:56:33.187
45,-93240.45846,-48771.84168,-23454.71364,-31555.58932,-27963.86516,-42385.30009,-50286.52999,-75027.00538,0.06,0.87,0.428,192,0,0,0,0,0,0,0,0,0,1709547993,0, 2024-03-04 15:56:33.187
46,-93260.53032,-48771.68522,-23416.78273,-31569.78268,-27893.92655,-42399.00171,-50243.0782,-75012.94613,0.062,0.872,0.422,192,1,240,27,64,13,48,0,0,0,1709547993,0, 2024-03-04 15:56:33.187
47,-93229.79668,-48758.81061,-23418.52616,-31556.46104,-27927.92355,-42398.24175,-50277.58929,-75057.06847,0.062,0.872,0.422,192,0,0,0,0,0,0,0,0,0,1709547993,0, 2024-03-04 15:56:33.187
48,-93188.35654,-48752.48507,-23451.15971,-31535.42805,-28011.89906,-42383.73546,-50330.33941,-75097.59219,0.062,0.872,0.422,192,0,0,0,0,0,0,0,0,0,1709547993,0, 2024-03-04 15:56:33.187
49,-93202.10286,-48767.81836,-23479.16645,-31543.72055,-28039.41405,-42385.03187,-50336.28498,-75086.25985,0.062,0.872,0.422,192,0,0,0,0,0,0,0,0,0,1709547993,0, 2024-03-04 15:56:33.187
50,-93259.25627,-48794.08166,-23469.71166,-31578.92455,-27974.14696,-42407.31655,-50286.75351,-75041.4446,0.062,0.872,0.422,192,0,0,0,0,0,0,0,0,0,1709547993,0, 2024-03-04 15:56:33.187
51,-93276.86945,-48791.19829,-23437.25692,-31588.24522,-27906.51058,-42414.60322,-50245.26867,-75007.89464,0.062,0.872,0.422,192,0,0,0,0,0,0,0,0,0,1709547993,0, 2024-03-04 15:56:33.187
52,-93242.51482,-48773.85333,-23422.34831,-31568.41923,-27924.61549,-42404.20966,-50272.13547,-75031.1181,0.062,0.872,0.422,192,0,0,0,0,0,0,0,0,0,1709547993,0, 2024-03-04 15:56:33.187
53,-93206.48381,-48770.2547,-23470.42691,-31557.48922,-28022.47143,-42400.34281,-50338.27428,-75099.96147,0.062,0.872,0.422,192,0,0,0,0,0,0,0,0,0,1709547993,0, 2024-03-04 15:56:33.187
54,-93214.39632,-48778.03311,-23501.16056,-31563.32303,-28054.25561,-42398.82289,-50345.91858,-75088.49503,0.062,0.872,0.422,192,0,0,0,0,0,0,0,0,0,1709547993,0, 2024-03-04 15:56:33.187
55,-93259.09981,-48791.24299,-23485.6708,-31588.06641,-27989.39085,-42413.48564,-50297.41529,-75043.41156,0.062,0.872,0.422,192,0,0,0,0,0,0,0,0,0,1709547993,0, 2024-03-04 15:56:33.187
56,-93278.23291,-48792.65115,-23452.21024,-31606.19367,-27922.53678,-42436.32912,-50268.71565,-75058.74485,0.062,0.87,0.428,192,1,240,27,48,13,96,0,0,0,1709547993,0, 2024-03-04 15:56:33.187
57,-93238.04447,-48771.5511,-23446.39879,-31586.56884,-27950.49881,-42430.74118,-50302.0421,-75116.52411,0.062,0.87,0.428,192,0,0,0,0,0,0,0,0,0,1709547993,0, 2024-03-04 15:56:33.187
58,-93200.91822,-48766.3208,-23479.03234,-31562.87599,-28032.93205,-42414.91615,-50355.97686,-75145.82725,0.062,0.87,0.428,192,0,0,0,0,0,0,0,0,0,1709547993,0, 2024-03-04 15:56:33.187
59,-93204.20393,-48776.35673,-23499.46183,-31558.85268,-28056.55784,-42405.21549,-50354.54635,-75110.71266,0.062,0.87,0.428,192,0,0,0,0,0,0,0,0,0,1709547993,0, 2024-03-04 15:56:33.187
60,-93248.95212,-48790.01365,-23475.29959,-31576.17528,-27978.32674,-42410.78107,-50283.98189,-75052.26285,0.062,0.87,0.428,192,0,0,0,0,0,0,0,0,0,1709547993,0, 2024-03-04 15:56:33.187
61,-93274.07548,-48788.24786,-23432.71952,-31584.37837,-27905.75062,-42417.79952,-50278.3269,-75042.49514,0.062,0.87,0.428,192,0,0,0,0,0,0,0,0,0,1709547993,0, 2024-03-04 15:56:33.187
62,-93236.92688,-48768.93595,-23423.10827,-31560.68552,-27931.27631,-42403.47205,-50298.17525,-75083.17531,0.062,0.87,0.428,192,0,0,0,0,0,0,0,0,0,1709547993,0, 2024-03-04 15:56:33.187
63,-93187.57423,-48752.46272,-23454.40071,-31529.79541,-28012.36844,-42379.0863,-50343.21402,-75121.55326,0.062,0.87,0.428,192,0,0,0,0,0,0,0,0,0,1709547993,0, 2024-03-04 15:56:33.187
64,-93191.15051,-48759.30235,-23475.389,-31526.55441,-28033.71436,-42366.81519,-50341.24706,-75091.84779,0.062,0.87,0.428,192,0,0,0,0,0,0,0,0,0,1709547993,0, 2024-03-04 15:56:33.187
65,-93238.20093,-48776.89317,-23458.58049,-31550.85076,-27964.53571,-42379.10865,-50295.06836,-75039.18708,0.062,0.87,0.428,192,0,0,0,0,0,0,0,0,0,1709547993,0, 2024-03-04 15:56:33.187
66,-93260.84325,-48777.74254,-23419.75551,-31563.05481,-27891.13258,-42390.35158,-50258.92559,-75022.08799,0.062,0.874,0.428,192,1,240,27,80,13,96,0,0,0,1709547993,0, 2024-03-04 15:56:33.187
67,-93218.59845,-48752.37331,-23403.90812,-31536.56799,-27905.79532,-42373.45366,-50275.35412,-75043.72448,0.062,0.874,0.428,192,0,0,0,0,0,0,0,0,0,1709547993,0, 2024-03-04 15:56:33.187
68,-93176.01838,-48744.39374,-23440.76615,-31515.84792,-27992.006,-42360.10967,-50331.07702,-75084.44936,0.062,0.874,0.428,192,0,0,0,0,0,0,0,0,0,1709547993,0, 2024-03-04 15:56:33.187
69,-93184.86967,-48754.45202,-23465.46483,-31516.60788,-28018.42576,-42353.87353,-50332.41812,-75060.86827,0.062,0.874,0.428,192,0,0,0,0,0,0,0,0,0,1709547993,0, 2024-03-04 15:56:33.187
70,-93240.88314,-48780.80473,-23456.39002,-31552.01305,-27957.13728,-42376.24763,-50286.55234,-75009.90629,0.062,0.874,0.428,192,0,0,0,0,0,0,0,0,0,1709547993,0, 2024-03-04 15:56:33.187
71,-93262.89961,-48782.70463,-23421.49894,-31568.17336,-27884.40471,-42390.39628,-50247.21327,-74985.56524,0.062,0.874,0.428,192,0,0,0,0,0,0,0,0,0,1709547993,0, 2024-03-04 15:56:33.187
72,-93231.96479,-48769.98648,-23423.64471,-31556.81867,-27914.95954,-42389.54692,-50277.47754,-75034.60497,0.062,0.874,0.428,192,0,0,0,0,0,0,0,0,0,1709547993,0, 2024-03-04 15:56:33.187
73,-93190.81523,-48761.96221,-23458.62519,-31537.32795,-28001.23727,-42378.54986,-50336.28498,-75084.69523,0.062,0.874,0.428,192,0,0,0,0,0,0,0,0,0,1709547993,0, 2024-03-04 15:56:33.187
74,-93201.14174,-48776.02145,-23488.37536,-31543.92171,-28034.69783,-42378.81808,-50345.31508,-75068.75844,0.062,0.874,0.428,192,0,0,0,0,0,0,0,0,0,1709547994,0, 2024-03-04 15:56:33.668
75,-93240.59257,-48792.6735,-23471.5892,-31571.9508,-27969.14017,-42394.57606,-50292.90024,-75015.67304,0.062,0.874,0.428,192,0,0,0,0,0,0,0,0,0,1709547994,0, 2024-03-04 15:56:33.668
76,-93260.48562,-48791.89119,-23434.26179,-31589.31811,-27897.25696,-42412.23394,-50260.04318,-75002.75373,0.066,0.87,0.432,192,2,16,27,48,13,128,0,0,0,1709547994,0, 2024-03-04 15:56:33.668
77,-93230.82486,-48778.03311,-23435.37938,-31579.79626,-27925.57662,-42415.27378,-50279.17627,-75054.29686,0.066,0.87,0.432,192,0,0,0,0,0,0,0,0,0,1709547994,0, 2024-03-04 15:56:33.668
78,-93189.04945,-48766.72313,-23475.63487,-31557.93626,-28020.50448,-42402.84621,-50366.45983,-75108.58924,0.066,0.87,0.432,192,0,0,0,0,0,0,0,0,0,1709547994,0, 2024-03-04 15:56:33.668
79,-93198.01249,-48773.83098,-23501.92052,-31558.65151,-28053.36154,-42396.76653,-50375.06525,-75088.71854,0.066,0.87,0.432,192,0,0,0,0,0,0,0,0,0,1709547994,0, 2024-03-04 15:56:33.668
80,-93239.67615,-48780.60356,-23473.73497,-31574.72242,-27973.56581,-42399.85107,-50306.04307,-75035.6108,0.066,0.87,0.432,192,0,0,0,0,0,0,0,0,0,1709547994,0, 2024-03-04 15:56:33.668
81,-93260.68679,-48777.69783,-23433.36772,-31584.40072,-27899.98387,-42410.28934,-50268.26862,-75032.83918,0.066,0.87,0.432,192,0,0,0,0,0,0,0,0,0,1709547994,0, 2024-03-04 15:56:33.668
82,-93223.24761,-48757.49186,-23426.79631,-31561.11021,-27922.40267,-42399.18052,-50297.52705,-75070.72539,0.066,0.87,0.432,192,0,0,0,0,0,0,0,0,0,1709547994,0, 2024-03-04 15:56:33.668
83,-93173.80556,-48741.71153,-23457.28409,-31530.57772,-28004.97001,-42379.51098,-50353.83109,-75123.67667,0.066,0.87,0.432,192,0,0,0,0,0,0,0,0,0,1709547994,0, 2024-03-04 15:56:33.668
84,-93176.62188,-48747.1877,-23478.04886,-31525.30271,-28028.90873,-42369.54211,-50356.06627,-75101.12376,0.066,0.87,0.432,192,0,0,0,0,0,0,0,0,0,1709547994,0, 2024-03-04 15:56:33.668
85,-93226.2204,-48767.12546,-23461.41916,-31551.72247,-27963.97692,-42383.84722,-50303.31615,-75042.0481,0.066,0.87,0.432,192,0,0,0,0,0,0,0,0,0,1709547994,0, 2024-03-04 15:56:33.668
86,-93247.65572,-48768.98065,-23425.00817,-31566.25111,-27890.26086,-42395.82776,-50265.4523,-75027.58652,0.068,0.866,0.43,192,2,32,27,16,13,112,0,0,0,1709547994,0, 2024-03-04 15:56:33.668
87,-93212.09409,-48752.66388,-23422.23655,-31550.8284,-27912.76907,-42391.15624,-50291.82736,-75081.7001,0.068,0.866,0.43,192,0,0,0,0,0,0,0,0,0,1709547994,0, 2024-03-04 15:56:33.668
88,-93168.08351,-48739.85633,-23456.52413,-31526.57676,-27998.89034,-42373.02898,-50346.43267,-75133.42203,0.068,0.866,0.43,192,0,0,0,0,0,0,0,0,0,1709547994,0, 2024-03-04 15:56:33.668
89,-93177.20302,-48750.65222,-23478.63,-31527.82846,-28024.10311,-42364.71413,-50350.92537,-75104.78945,0.068,0.866,0.43,192,0,0,0,0,0,0,0,0,0,1709547994,0, 2024-03-04 15:56:33.668
90,-93229.70727,-48771.08172,-23464.88368,-31554.65055,-27957.42785,-42375.8453,-50300.90216,-75030.71577,0.068,0.866,0.43,192,0,0,0,0,0,0,0,0,0,1709547994,0, 2024-03-04 15:56:33.668
91,-93252.95308,-48771.37229,-23430.05966,-31569.51446,-27884.9635,-42388.16111,-50267.41925,-75014.84603,0.068,0.866,0.43,192,0,0,0,0,0,0,0,0,0,1709547994,0, 2024-03-04 15:56:33.668
92,-93218.77727,-48756.21781,-23421.6107,-31555.54462,-27905.79532,-42384.49542,-50292.74378,-75058.54369,0.068,0.866,0.43,192,0,0,0,0,0,0,0,0,0,1709547994,0, 2024-03-04 15:56:33.668
93,-93175.6384,-48748.70762,-23456.05474,-31535.78568,-27992.34128,-42370.65969,-50349.58426,-75094.79822,0.068,0.866,0.43,192,0,0,0,0,0,0,0,0,0,1709547994,0, 2024-03-04 15:56:33.668
94,-93186.63546,-48763.05744,-23482.22863,-31542.26769,-28021.62206,-42368.11159,-50339.52598,-75060.17537,0.068,0.866,0.43,192,0,0,0,0,0,0,0,0,0,1709547994,0, 2024-03-04 15:56:33.668
95,-93231.00367,-48777.74254,-23465.08485,-31568.28512,-27958.16546,-42380.04743,-50309.90992,-75001.23382,0.068,0.866,0.43,192,0,0,0,0,0,0,0,0,0,1709547994,0, 2024-03-04 15:56:33.668
96,-93257.04345,-48779.1954,-23427.64567,-31587.82054,-27884.71763,-42398.44291,-50276.18113,-74993.20954,0.068,0.872,0.43,192,2,32,27,64,13,112,0,0,0,1709547994,0, 2024-03-04 15:56:33.668
97,-93223.69465,-48762.27513,-23425.99165,-31576.59996,-27909.05868,-42398.21939,-50296.2083,-75045.2891,0.068,0.872,0.43,192,0,0,0,0,0,0,0,0,0,1709547994,0, 2024-03-04 15:56:33.668
98,-93176.77834,-48747.72415,-23456.88176,-31553.2871,-27993.3024,-42382.2379,-50349.24899,-75081.81186,0.068,0.872,0.43,192,0,0,0,0,0,0,0,0,0,1709547994,0, 2024-03-04 15:56:33.668
99,-93185.67433,-48759.9282,-23484.3297,-31559.41147,-28026.67356,-42382.19319,-50361.74361,-75067.77496,0.068,0.872,0.43,192,0,0,0,0,0,0,0,0,0,1709547994,0, 2024-03-04 15:56:33.668
100,-93230.40017,-48775.01563,-23469.24227,-31586.18886,-27962.97109,-42396.3195,-50309.77581,-75017.46118,0.068,0.872,0.43,192,0,0,0,0,0,0,0,0,0,1709547994,0, 2024-03-04 15:56:33.668
101,-93253.8248,-48776.49084,-23428.24917,-31600.04694,-27887.5563,-42409.21645,-50266.07815,-74993.18719,0.068,0.872,0.43,192,0,0,0,0,0,0,0,0,0,1709547994,0, 2024-03-04 15:56:33.668
102,-93226.06393,-48763.97386,-23424.98582,-31587.84289,-27911.45032,-42409.17175,-50290.28509,-75045.15499,0.068,0.872,0.43,192,0,0,0,0,0,0,0,0,0,1709547994,0, 2024-03-04 15:56:33.668
103,-93186.70251,-48756.66484,-23460.27922,-31567.16753,-27999.82911,-42397.10181,-50345.67271,-75101.50374,0.068,0.872,0.43,192,0,0,0,0,0,0,0,0,0,1709547994,0, 2024-03-04 15:56:33.668
104,-93193.45274,-48768.33245,-23490.43172,-31572.75546,-28039.23524,-42397.97353,-50366.0575,-75103.5601,0.068,0.872,0.43,192,0,0,0,0,0,0,0,0,0,1709547994,0, 2024-03-04 15:56:33.668
105,-93237.50803,-48784.96215,-23474.65139,-31596.29185,-27973.90109,-42406.98128,-50316.36957,-75041.26579,0.068,0.872,0.43,192,0,0,0,0,0,0,0,0,0,1709547994,0, 2024-03-04 15:56:33.668
106,-93253.15425,-48780.08947,-23425.76813,-31599.48815,-27887.46689,-42408.45649,-50265.87698,-75001.21146,0.07,0.872,0.43,192,2,48,27,64,13,112,0,0,0,1709547994,0, 2024-03-04 15:56:33.668
107,-93223.26997,-48765.56084,-23419.84492,-31584.91481,-27907.29289,-42407.09304,-50288.85457,-75058.76721,0.07,0.872,0.43,192,0,0,0,0,0,0,0,0,0,1709547994,0, 2024-03-04 15:56:33.668
108,-93174.78903,-48749.62404,-23448.5222,-31555.99166,-27987.64741,-42386.50708,-50344.48807,-75111.62908,0.07,0.872,0.43,192,0,0,0,0,0,0,0,0,0,1709547994,0, 2024-03-04 15:56:33.668
109,-93181.20398,-48755.10022,-23473.04207,-31549.91198,-28019.76687,-42370.54793,-50356.37919,-75084.58347,0.07,0.872,0.43,192,0,0,0,0,0,0,0,0,0,1709547994,0, 2024-03-04 15:56:33.668
110,-93224.34285,-48768.42186,-23454.78069,-31569.08978,-27953.89628,-42376.85113,-50304.76902,-75026.60305,0.07,0.872,0.43,192,0,0,0,0,0,0,0,0,0,1709547994,0, 2024-03-04 15:56:33.668
111,-93249.2874,-48770.70174,-23416.11217,-31584.95952,-27874.6817,-42392.40794,-50253.3153,-75027.47476,0.07,0.872,0.43,192,0,0,0,0,0,0,0,0,0,1709547994,0, 2024-03-04 15:56:33.668
112,-93219.13489,-48754.16145,-23410.61365,-31566.94401,-27892.54074,-42384.09309,-50273.29776,-75066.29974,0.07,0.872,0.43,192,0,0,0,0,0,0,0,0,0,1709547994,0, 2024-03-04 15:56:33.668
113,-93174.74433,-48742.42678,-23444.14126,-31539.51842,-27981.7689,-42363.12716,-50358.61437,-75102.93425,0.07,0.872,0.43,192,0,0,0,0,0,0,0,0,0,1709547994,0, 2024-03-04 15:56:33.668
114,-93176.2866,-48748.23824,-23466.58241,-31536.32212,-28009.90975,-42352.26421,-50360.80484,-75084.56112,0.07,0.872,0.43,192,0,0,0,0,0,0,0,0,0,1709547994,0, 2024-03-04 15:56:33.668
115,-93224.00757,-48769.42769,-23457.90994,-31565.11117,-27949.00125,-42366.97166,-50308.01002,-75028.59235,0.07,0.872,0.43,192,0,0,0,0,0,0,0,0,0,1709547994,0, 2024-03-04 15:56:33.668
116,-93257.11051,-48782.45876,-23430.88668,-31589.85455,-27882.32599,-42389.9716,-50274.68357,-75018.75758,0.072,0.866,0.43,192,2,64,27,16,13,112,0,0,0,1709547994,0, 2024-03-04 15:56:33.668
117,-93225.6616,-48765.56084,-23425.23169,-31573.91776,-27901.88377,-42382.9755,-50296.83415,-75055.4368,0.072,0.866,0.43,192,0,0,0,0,0,0,0,0,0,1709547994,0, 2024-03-04 15:56:33.668
118,-93178.81235,-48754.36261,-23457.77583,-31548.97321,-27984.09349,-42365.16116,-50351.12653,-75088.22681,0.072,0.866,0.43,192,0,0,0,0,0,0,0,0,0,1709547994,0, 2024-03-04 15:56:33.668
119,-93186.99308,-48767.52779,-23493.15864,-31554.65055,-28023.85724,-42363.14951,-50364.53758,-75075.17339,0.072,0.866,0.43,192,0,0,0,0,0,0,0,0,0,1709547994,0, 2024-03-04 15:56:33.668
120,-93242.44776,-48791.53356,-23488.75534,-31586.79236,-27970.41422,-42382.8861,-50327.59015,-75027.40771,0.072,0.866,0.43,192,0,0,0,0,0,0,0,0,0,1709547994,0, 2024-03-04 15:56:33.668
121,-93266.81116,-48791.57827,-23448.4328,-31601.03042,-27890.57379,-42397.81706,-50287.06643,-75007.82758,0.072,0.866,0.43,192,0,0,0,0,0,0,0,0,0,1709547994,0, 2024-03-04 15:56:33.668
122,-93233.93175,-48771.08172,-23440.76615,-31583.84193,-27908.00815,-42390.68686,-50306.73597,-75037.22012,0.072,0.866,0.43,192,0,0,0,0,0,0,0,0,0,1709547994,0, 2024-03-04 15:56:33.668
123,-93191.82106,-48762.02926,-23476.57364,-31564.32886,-27994.5541,-42380.80739,-50367.75623,-75093.9712,0.072,0.866,0.43,192,0,0,0,0,0,0,0,0,0,1709547994,0, 2024-03-04 15:56:33.668
124,-93192.22339,-48769.33828,-23504.8039,-31564.17239,-28029.8028,-42375.68884,-50380.7426,-75087.71272,0.072,0.866,0.43,192,0,0,0,0,0,0,0,0,0,1709547994,0, 2024-03-04 15:56:33.668
125,-93239.83261,-48787.64436,-23489.4706,-31588.96048,-27965.47448,-42386.1718,-50329.24418,-75016.88004,0.072,0.866,0.43,192,0,0,0,0,0,0,0,0,0,1709547994,0, 2024-03-04 15:56:33.668
126,-93266.69941,-48792.78526,-23448.61161,-31605.8584,-27890.1044,-42403.51676,-50284.60774,-74993.23189,0.072,0.866,0.43,192,0,0,0,0,0,0,0,0,0,1709547994,0, 2024-03-04 15:56:33.668
127,-93239.31852,-48784.85039,-23442.66605,-31598.52703,-27907.65052,-42410.62461,-50304.27728,-75052.44166,0.074,0.874,0.434,192,2,80,27,80,13,144,0,0,0,1709547994,0, 2024-03-04 15:56:33.668
128,-93190.01057,-48771.86403,-23471.43274,-31573.13544,-27987.80387,-42396.3195,-50349.67367,-75108.14221,0.074,0.874,0.434,192,0,0,0,0,0,0,0,0,0,1709547994,0, 2024-03-04 15:56:33.668
129,-93191.93282,-48779.10599,-23499.37242,-31572.35313,-28028.68522,-42389.45751,-50392.70078,-75101.28022,0.074,0.874,0.434,192,0,0,0,0,0,0,0,0,0,1709547994,0, 2024-03-04 15:56:33.668
130,-93235.42932,-48794.34988,-23481.20045,-31595.17426,-27961.62998,-42400.34281,-50341.0906,-75049.20066,0.074,0.874,0.434,192,0,0,0,0,0,0,0,0,0,1709547994,0, 2024-03-04 15:56:33.668
131,-93254.83063,-48785.99033,-23434.06063,-31602.10331,-27876.78276,-42405.43901,-50291.51443,-75016.65652,0.074,0.874,0.434,192,0,0,0,0,0,0,0,0,0,1709547994,0, 2024-03-04 15:56:33.668
132,-93215.24569,-48758.29652,-23416.93919,-31574.70007,-27887.10927,-42391.17859,-50308.50176,-75045.62438,0.074,0.874,0.434,192,0,0,0,0,0,0,0,0,0,1709547994,0, 2024-03-04 15:56:33.668
133,-93167.74823,-48742.22562,-23447.94106,-31547.52035,-27971.42005,-42375.01828,-50360.51427,-75103.5154,0.074,0.874,0.434,192,0,0,0,0,0,0,0,0,0,1709547994,0, 2024-03-04 15:56:33.668
134,-93167.3012,-48746.22658,-23471.27628,-31540.90423,-28003.36069,-42364.84824,-50370.84077,-75095.13349,0.074,0.874,0.434,192,0,0,0,0,0,0,0,0,0,1709547994,0, 2024-03-04 15:56:33.668
135,-93212.787,-48762.20808,-23454.64658,-31559.88086,-27940.50758,-42374.79477,-50326.69608,-75048.66422,0.074,0.874,0.434,192,0,0,0,0,0,0,0,0,0,1709547994,0, 2024-03-04 15:56:33.668
136,-93238.93854,-48765.82906,-23416.49215,-31574.23068,-27863.17055,-42389.23399,-50283.02077,-75037.57775,0.074,0.874,0.434,192,0,0,0,0,0,0,0,0,0,1709547994,0, 2024-03-04 15:56:33.668
137,-93208.76368,-48749.80286,-23410.41248,-31557.80215,-27880.42609,-42383.19902,-50303.07028,-75072.91586,0.064,0.874,0.428,192,2,0,27,80,13,96,0,0,0,1709547994,0, 2024-03-04 15:56:33.668
138,-93162.2497,-48733.86606,-23442.66605,-31527.7614,-27964.58041,-42360.71317,-50354.97103,-75106.86816,0.064,0.874,0.428,192,0,0,0,0,0,0,0,0,0,1709547994,0, 2024-03-04 15:56:33.668
139,-93169.26815,-48748.70762,-23473.4444,-31531.96353,-28005.03707,-42357.76274,-50373.81355,-75104.38712,0.064,0.874,0.428,192,0,0,0,0,0,0,0,0,0,1709547994,0, 2024-03-04 15:56:33.668
140,-93221.52653,-48772.02049,-23468.52702,-31562.45131,-27948.86714,-42372.24667,-50328.46187,-75048.30659,0.064,0.874,0.428,192,0,0,0,0,0,0,0,0,0,1709547994,0, 2024-03-04 15:56:33.668
141,-93244.63823,-48769.74061,-23429.50087,-31574.27538,-27868.53497,-42377.70049,-50277.20931,-75002.59727,0.064,0.874,0.428,192,0,0,0,0,0,0,0,0,0,1709547994,0, 2024-03-04 15:56:33.668
142,-93215.40215,-48754.00499,-23422.75064,-31562.83129,-27884.69528,-42374.43714,-50300.34337,-75037.01896,0.064,0.874,0.428,192,0,0,0,0,0,0,0,0,0,1709547994,0, 2024-03-04 15:56:33.668
143,-93173.33617,-48745.75719,-23458.91577,-31545.97807,-27972.7388,-42363.90947,-50362.74944,-75085.00815,0.064,0.874,0.428,192,0,0,0,0,0,0,0,0,0,1709547994,0, 2024-03-04 15:56:33.668
144,-93179.86288,-48762.05161,-23491.54931,-31554.13646,-28016.86114,-42364.9153,-50383.84949,-75078.99554,0.064,0.874,0.428,192,0,0,0,0,0,0,0,0,0,1709547994,0, 2024-03-04 15:56:33.668
145,-93228.88025,-48780.20123,-23474.51728,-31580.8468,-27953.67276,-42380.51681,-50332.93221,-75042.94217,0.064,0.874,0.428,192,0,0,0,0,0,0,0,0,0,1709547994,0, 2024-03-04 15:56:33.668
146,-93257.19991,-48783.93397,-23436.47461,-31599.68932,-27871.93243,-42398.66643,-50277.14226,-75036.50487,0.064,0.874,0.428,192,0,0,0,0,0,0,0,0,0,1709547994,0, 2024-03-04 15:56:33.668
147,-93221.88416,-48763.59388,-23427.3104,-31580.17624,-27887.95863,-42389.43516,-50321.10814,-75062.05291,0.06,0.876,0.432,192,1,224,27,96,13,128,0,0,0,1709547994,0, 2024-03-04 15:56:33.668
148,-93177.6277,-48753.22267,-23460.14511,-31556.99748,-27975.9798,-42373.74423,-50385.74939,-75100.00618,0.06,0.876,0.432,192,0,0,0,0,0,0,0,0,0,1709547994,0, 2024-03-04 15:56:33.668
149,-93178.94646,-48760.48699,-23485.40258,-31553.3765,-28010.24503,-42363.46243,-50395.62886,-75080.98484,0.06,0.876,0.432,192,0,0,0,0,0,0,0,0,0,1709547994,0, 2024-03-04 15:56:33.668
150,-93227.40504,-48781.29647,-23477.9818,-31582.67964,-27954.00804,-42380.11448,-50347.23733,-75029.62053,0.06,0.876,0.432,192,0,0,0,0,0,0,0,0,0,1709547994,0, 2024-03-04 15:56:33.668
151,-93251.20965,-48781.76585,-23441.68257,-31599.64461,-27876.40278,-42396.69948,-50296.2083,-75011.47092,0.06,0.876,0.432,192,0,0,0,0,0,0,0,0,0,1709547994,0, 2024-03-04 15:56:33.668
152,-93222.53236,-48768.51127,-23437.41339,-31587.95465,-27893.3454,-42399.15817,-50317.64362,-75052.17344,0.06,0.876,0.432,192,0,0,0,0,0,0,0,0,0,1709547994,0, 2024-03-04 15:56:33.668
153,-93178.14179,-48758.78826,-23475.16548,-31566.49698,-27984.42876,-42388.45168,-50377.07691,-75093.68063,0.06,0.876,0.432,192,0,0,0,0,0,0,0,0,0,1709547994,0, 2024-03-04 15:56:33.668
154,-93183.55092,-48773.02632,-23506.68144,-31572.39784,-28027.23235,-42391.69269,-50396.18765,-75099.44738,0.06,0.876,0.432,192,0,0,0,0,0,0,0,0,0,1709547994,0, 2024-03-04 15:56:33.668
155,-93230.93661,-48790.75125,-23493.65038,-31599.95754,-27963.35107,-42409.39527,-50349.85248,-75067.14911,0.06,0.876,0.432,192,0,0,0,0,0,0,0,0,0,1709547994,0, 2024-03-04 15:56:33.668
156,-93259.5692,-48793.74639,-23456.01004,-31617.01192,-27883.33182,-42424.54975,-50304.88077,-75047.36782,0.06,0.876,0.432,192,0,0,0,0,0,0,0,0,0,1709547994,0, 2024-03-04 15:56:33.668
157,-93227.82972,-48774.90387,-23445.39296,-31596.20244,-27894.46299,-42413.01625,-50319.61057,-75075.12868,0.066,0.872,0.428,192,2,16,27,64,13,96,0,0,0,1709547994,0, 2024-03-04 15:56:33.668
158,-93179.08057,-48759.68233,-23473.15383,-31565.84878,-27978.25968,-42393.14555,-50373.50063,-75129.91281,0.066,0.872,0.428,192,0,0,0,0,0,0,0,0,0,1709547994,0, 2024-03-04 15:56:33.668
159,-93177.09126,-48766.4102,-23495.9079,-31561.75841,-28014.20129,-42384.09309,-50387.1799,-75129.15285,0.066,0.872,0.428,192,0,0,0,0,0,0,0,0,0,1709547994,0, 2024-03-04 15:56:33.668
160,-93225.90747,-48785.45389,-23483.56974,-31584.44543,-27951.39288,-42391.96091,-50340.04007,-75065.47273,0.066,0.872,0.428,192,0,0,0,0,0,0,0,0,0,1709547994,0, 2024-03-04 15:56:33.668
161,-93248.43803,-48779.57538,-23438.97801,-31591.03919,-27862.83527,-42392.60911,-50283.82543,-75026.73716,0.066,0.872,0.428,192,0,0,0,0,0,0,0,0,0,1709547994,0, 2024-03-04 15:56:33.668
162,-93220.29718,-48764.04092,-23426.97512,-31574.52125,-27870.45722,-42382.72964,-50288.72046,-75055.72737,0.066,0.872,0.428,192,0,0,0,0,0,0,0,0,0,1709547994,0, 2024-03-04 15:56:33.668
163,-93177.35948,-48754.34026,-23464.23548,-31550.11315,-27958.43368,-42364.78118,-50342.27524,-75096.94399,0.066,0.872,0.428,192,0,0,0,0,0,0,0,0,0,1709547994,0, 2024-03-04 15:56:33.668
164,-93174.07378,-48757.29069,-23494.07506,-31542.20063,-28003.09247,-42351.25838,-50391.58319,-75075.3969,0.066,0.872,0.428,192,0,0,0,0,0,0,0,0,0,1709547994,0, 2024-03-04 15:56:33.668
165,-93223.26997,-48778.74837,-23485.26847,-31571.48142,-27947.99542,-42367.37399,-50342.9905,-75034.47086,0.066,0.872,0.428,192,0,0,0,0,0,0,0,0,0,1709547994,0, 2024-03-04 15:56:33.668
166,-93255.47883,-48781.63174,-23448.14222,-31589.09459,-27871.10542,-42379.55569,-50298.7564,-75011.64973,0.066,0.872,0.428,192,0,0,0,0,0,0,0,0,0,1709547994,0, 2024-03-04 15:56:33.668
167,-93222.84528,-48760.86697,-23436.85459,-31571.16849,-27885.16466,-42370.0562,-50321.73399,-75034.82849,0.066,0.876,0.432,192,2,16,27,96,13,128,0,0,0,1709547994,0, 2024-03-04 15:56:33.668
168,-93174.29729,-48746.60656,-23466.00127,-31545.6875,-27969.07311,-42354.14175,-50382.15076,-75090.81961,0.066,0.876,0.432,192,0,0,0,0,0,0,0,0,0,1709547994,0, 2024-03-04 15:56:33.668
169,-93176.35365,-48756.24016,-23501.0488,-31545.75456,-28013.48603,-42348.17384,-50400.43448,-75079.66609,0.066,0.876,0.432,192,0,0,0,0,0,0,0,0,0,1709547994,0, 2024-03-04 15:56:33.668
170,-93221.88416,-48770.63468,-23487.25778,-31567.77103,-27951.72816,-42356.80161,-50356.93799,-75023.89849,0.066,0.876,0.432,192,0,0,0,0,0,0,0,0,0,1709547994,0, 2024-03-04 15:56:33.668
171,-93250.00265,-48772.55693,-23444.76711,-31584.33367,-27865.20456,-42371.24084,-50303.8973,-75004.02778,0.066,0.876,0.432,192,0,0,0,0,0,0,0,0,0,1709547994,0, 2024-03-04 15:56:33.668
172,-93219.67134,-48752.79799,-23440.98967,-31569.51446,-27882.43775,-42365.42939,-50326.76313,-75034.67203,0.066,0.876,0.432,192,0,0,0,0,0,0,0,0,0,1709547994,0, 2024-03-04 15:56:33.668
173,-93171.99506,-48739.52106,-23474.45023,-31543.72055,-27968.64843,-42348.3303,-50386.88933,-75070.70304,0.066,0.876,0.432,192,0,0,0,0,0,0,0,0,0,1709547994,0, 2024-03-04 15:56:33.668
174,-93167.97175,-48748.86408,-23503.5969,-31544.14523,-28011.7873,-42346.40805,-50401.70853,-75065.6739,0.066,0.876,0.432,192,0,0,0,0,0,0,0,0,0,1709547994,0, 2024-03-04 15:56:33.668
175,-93215.35745,-48769.27123,-23494.43269,-31572.71076,-27952.66693,-42364.9153,-50352.35588,-75014.35429,0.066,0.876,0.432,192,0,0,0,0,0,0,0,0,0,1709547994,0, 2024-03-04 15:56:33.668
176,-93245.80052,-48774.23331,-23454.33366,-31595.30837,-27868.08793,-42388.47403,-50308.23354,-75005.83828,0.066,0.876,0.432,192,0,0,0,0,0,0,0,0,0,1709547994,0, 2024-03-04 15:56:33.668
177,-93220.00661,-48761.9175,-23445.10239,-31585.74183,-27880.13552,-42391.73739,-50325.1091,-75046.18317,0.066,0.866,0.428,192,2,16,27,16,13,96,0,0,0,1709547994,0, 2024-03-04 15:56:33.668
178,-93172.3974,-48743.72318,-23470.82924,-31554.40468,-27959.37246,-42371.55376,-50376.69693,-75090.37257,0.066,0.866,0.428,192,0,0,0,0,0,0,0,0,0,1709547994,0, 2024-03-04 15:56:33.668
179,-93169.17874,-48746.24893,-23494.99148,-31545.82161,-27997.48218,-42359.34971,-50389.1245,-75086.70689,0.066,0.866,0.428,192,0,0,0,0,0,0,0,0,0,1709547994,0, 2024-03-04 15:56:33.668
180,-93223.85111,-48772.73575,-23487.86127,-31576.42115,-27943.56977,-42377.25346,-50349.58426,-75046.16082,0.066,0.866,0.428,192,0,0,0,0,0,0,0,0,0,1709547994,0, 2024-03-04 15:56:33.668
181,-93252.50605,-48773.33924,-23441.72727,-31584.33367,-27854.36396,-42379.60039,-50295.6495,-74997.34461,0.066,0.866,0.428,192,0,0,0,0,0,0,0,0,0,1709547994,0, 2024-03-04 15:56:33.668
182,-93223.58289,-48754.85435,-23429.2103,-31565.66996,-27859.57192,-42370.68205,-50297.41529,-75034.00147,0.066,0.866,0.428,192,0,0,0,0,0,0,0,0,0,1709547994,0, 2024-03-04 15:56:33.668
183,-93181.3828,-48746.67361,-23468.52702,-31544.63697,-27950.45411,-42360.53435,-50360.06723,-75100.38615,0.066,0.866,0.428,192,0,0,0,0,0,0,0,0,0,1709547994,0, 2024-03-04 15:56:33.668
184,-93185.36141,-48758.40828,-23503.06046,-31544.50286,-27998.55506,-42355.95225,-50400.14391,-75105.95174,0.066,0.866,0.428,192,0,0,0,0,0,0,0,0,0,1709547994,0, 2024-03-04 15:56:33.668
185,-93228.41087,-48776.40143,-23488.7777,-31565.69231,-27938.8312,-42361.92016,-50344.46571,-75036.72839,0.066,0.866,0.428,192,0,0,0,0,0,0,0,0,0,1709547994,0, 2024-03-04 15:56:33.668
186,-93257.26697,-48779.21775,-23446.04116,-31580.95855,-27852.70993,-42371.95609,-50293.79431,-75001.79261,0.066,0.866,0.428,192,0,0,0,0,0,0,0,0,0,1709547994,0, 2024-03-04 15:56:33.668
187,-93230.64604,-48765.0244,-23437.39104,-31567.27929,-27865.15985,-42365.02705,-50314.60378,-75039.00826,0.064,0.872,0.43,192,2,0,27,64,13,112,0,0,0,1709547994,0, 2024-03-04 15:56:33.668
188,-93193.45274,-48759.3247,-23477.69123,-31547.49799,-27961.8535,-42351.90658,-50381.01082,-75089.61261,0.064,0.872,0.43,192,0,0,0,0,0,0,0,0,0,1709547994,0, 2024-03-04 15:56:33.668
189,-93193.96683,-48768.89125,-23515.21981,-31547.43094,-28012.81548,-42346.83273,-50404.03311,-75083.24237,0.064,0.872,0.43,192,0,0,0,0,0,0,0,0,0,1709547994,0, 2024-03-04 15:56:33.668
190,-93237.97741,-48783.5987,-23499.64064,-31567.4581,-27951.0129,-42352.80065,-50359.64255,-75019.5846,0.064,0.872,0.43,192,0,0,0,0,0,0,0,0,0,1709547994,0, 2024-03-04 15:56:33.668
191,-93271.21446,-48786.99616,-23456.09945,-31585.29479,-27866.27744,-42367.66456,-50309.82051,-74989.16387,0.064,0.872,0.43,192,0,0,0,0,0,0,0,0,0,1709547994,0, 2024-03-04 15:56:33.668
192,-93239.07265,-48762.81157,-23442.95662,-31567.61456,-27876.64865,-42359.28266,-50324.10327,-75015.44953,0.064,0.872,0.43,192,0,0,0,0,0,0,0,0,0,1709547994,0, 2024-03-04 15:56:33.668
193,-93194.07859,-48753.06621,-23483.10035,-31549.93433,-27971.10712,-42351.88423,-50401.77559,-75081.40952,0.064,0.872,0.43,192,0,0,0,0,0,0,0,0,0,1709547994,0, 2024-03-04 15:56:33.668
194,-93197.07372,-48764.64442,-23518.21494,-31551.67777,-28019.27513,-42349.20202,-50424.3285,-75077.2074,0.064,0.872,0.43,192,0,0,0,0,0,0,0,0,0,1709547994,0, 2024-03-04 15:56:34.149
195,-93247.29809,-48786.34796,-23502.79224,-31571.43671,-27955.59501,-42355.9746,-50370.52785,-75009.66042,0.064,0.872,0.43,192,0,0,0,0,0,0,0,0,0,1709547994,0, 2024-03-04 15:56:34.149
196,-93285.09489,-48796.92033,-23463.54258,-31592.89439,-27871.5301,-42377.81225,-50319.34235,-74988.78389,0.064,0.872,0.43,192,0,0,0,0,0,0,0,0,0,1709547994,0, 2024-03-04 15:56:34.149
197,-93264.55364,-48789.4325,-23462.5591,-31590.88273,-27889.76912,-42389.34575,-50346.45502,-75049.35712,0.062,0.872,0.434,192,1,240,27,64,13,144,0,0,0,1709547994,0, 2024-03-04 15:56:34.150
198,-93218.44199,-48774.79211,-23496.35494,-31566.7652,-27977.34326,-42377.63344,-50410.69393,-75118.11109,0.062,0.872,0.434,192,0,0,0,0,0,0,0,0,0,1709547994,0, 2024-03-04 15:56:34.150
199,-93216.78796,-48779.57538,-23523.06527,-31559.61264,-28017.93403,-42364.80354,-50425.96017,-75095.8711,0.062,0.872,0.434,192,0,0,0,0,0,0,0,0,0,1709547994,0, 2024-03-04 15:56:34.150
200,-93268.33108,-48802.15064,-23510.01185,-31585.13833,-27954.52213,-42376.15822,-50362.48122,-75028.6147,0.062,0.872,0.434,192,0,0,0,0,0,0,0,0,0,1709547994,0, 2024-03-04 15:56:34.150
201,-93299.73528,-48813.7065,-23471.18687,-31606.88658,-27866.74683,-42395.82776,-50306.17718,-75011.47092,0.062,0.872,0.434,192,0,0,0,0,0,0,0,0,0,1709547994,0, 2024-03-04 15:56:34.150
202,-93275.57305,-48801.32363,-23458.28992,-31592.89439,-27876.55924,-42392.74322,-50351.9312,-75049.91592,0.062,0.872,0.434,192,0,0,0,0,0,0,0,0,0,1709547994,0, 2024-03-04 15:56:34.150
203,-93222.33119,-48780.93884,-23484.03913,-31560.4173,-27957.58432,-42371.66552,-50395.33828,-75110.93618,0.062,0.872,0.434,192,0,0,0,0,0,0,0,0,0,1709547994,0, 2024-03-04 15:56:34.150
204,-93214.75395,-48781.27411,-23509.43071,-31549.46495,-27998.75623,-42355.70638,-50406.82708,-75101.012,0.062,0.872,0.434,192,0,0,0,0,0,0,0,0,0,1709547994,0, 2024-03-04 15:56:34.150
205,-93265.3583,-48803.00001,-23497.45017,-31573.69424,-27936.59603,-42364.87059,-50359.53079,-75030.11227,0.062,0.872,0.434,192,0,0,0,0,0,0,0,0,0,1709547994,0, 2024-03-04 15:56:34.150
206,-93298.6624,-48803.87173,-23460.72626,-31590.94978,-27852.15114,-42379.48863,-50307.65239,-75008.14051,0.062,0.872,0.434,192,0,0,0,0,0,0,0,0,0,1709547994,0, 2024-03-04 15:56:34.150
207,-93272.46616,-48783.5987,-23451.87497,-31574.61066,-27863.90816,-42372.96192,-50319.9682,-75038.98591,0.064,0.866,0.434,192,2,0,27,16,13,144,0,0,0,1709547994,0, 2024-03-04 15:56:34.150
208,-93225.37103,-48769.85237,-23480.59696,-31545.08401,-27948.48716,-42352.30891,-50381.41315,-75073.49701,0.064,0.866,0.434,192,0,0,0,0,0,0,0,0,0,1709547994,0, 2024-03-04 15:56:34.150
209,-93219.64898,-48779.53068,-23515.82331,-31541.48537,-27998.21979,-42343.65879,-50405.12835,-75071.82063,0.064,0.866,0.434,192,0,0,0,0,0,0,0,0,0,1709547994,0, 2024-03-04 15:56:34.150
210,-93268.44284,-48804.22936,-23509.11778,-31569.80503,-27942.09456,-42357.9192,-50358.16733,-75025.99955,0.064,0.866,0.434,192,0,0,0,0,0,0,0,0,0,1709547994,0, 2024-03-04 15:56:34.150
211,-93296.56134,-48807.53741,-23464.19078,-31587.57467,-27852.19584,-42370.77145,-50303.62908,-74995.04238,0.064,0.866,0.434,192,0,0,0,0,0,0,0,0,0,1709547994,0, 2024-03-04 15:56:34.150
212,-93278.94816,-48800.83189,-23457.77583,-31584.66894,-27865.20456,-42376.26998,-50325.0644,-75039.83528,0.064,0.866,0.434,192,0,0,0,0,0,0,0,0,0,1709547994,0, 2024-03-04 15:56:34.150
213,-93235.76459,-48791.9806,-23497.67369,-31570.09561,-27957.38315,-42369.83268,-50378.37331,-75108.90217,0.064,0.866,0.434,192,0,0,0,0,0,0,0,0,0,1709547994,0, 2024-03-04 15:56:34.150
214,-93230.31077,-48795.84745,-23531.04484,-31565.71467,-28006.06525,-42359.28266,-50409.5987,-75094.75352,0.064,0.866,0.434,192,0,0,0,0,0,0,0,0,0,1709547994,0, 2024-03-04 15:56:34.150
215,-93278.94816,-48812.92418,-23512.4929,-31583.37254,-27945.76024,-42361.27196,-50375.19936,-75014.39899,0.064,0.866,0.434,192,0,0,0,0,0,0,0,0,0,1709547994,0, 2024-03-04 15:56:34.150
216,-93311.35819,-48819.45089,-23473.62321,-31603.22089,-27863.32701,-42375.91235,-50320.05761,-74976.60219,0.064,0.866,0.434,192,0,0,0,0,0,0,0,0,0,1709547994,0, 2024-03-04 15:56:34.150
217,-93287.95591,-48804.67639,-23462.06736,-31591.21801,-27872.02184,-42373.07368,-50338.78837,-75008.31932,0.062,0.866,0.432,192,1,240,27,16,13,128,0,0,0,1709547994,0, 2024-03-04 15:56:34.150
218,-93237.61979,-48789.25369,-23493.80684,-31565.89348,-27959.59597,-42358.85797,-50398.26636,-75070.61363,0.062,0.866,0.432,192,0,0,0,0,0,0,0,0,0,1709547994,0, 2024-03-04 15:56:34.150
219,-93233.3506,-48797.68029,-23530.01666,-31564.84295,-28011.8767,-42354.43233,-50426.02723,-75073.78758,0.062,0.866,0.432,192,0,0,0,0,0,0,0,0,0,1709547994,0, 2024-03-04 15:56:34.150
220,-93284.35728,-48822.91541,-23521.63476,-31593.7661,-27953.24808,-42371.57612,-50383.26834,-75022.04329,0.062,0.866,0.432,192,0,0,0,0,0,0,0,0,0,1709547994,0, 2024-03-04 15:56:34.150
221,-93319.226,-48827.9222,-23478.5853,-31612.251,-27862.38824,-42387.84819,-50329.13242,-74990.54968,0.062,0.866,0.432,192,0,0,0,0,0,0,0,0,0,1709547994,0, 2024-03-04 15:56:34.150
222,-93288.29119,-48804.89991,-23461.03918,-31593.92257,-27864.01991,-42380.40505,-50340.50946,-75008.20756,0.062,0.866,0.432,192,0,0,0,0,0,0,0,0,0,1709547994,0, 2024-03-04 15:56:34.150
223,-93237.77625,-48790.81831,-23490.94581,-31568.53098,-27953.09162,-42369.4527,-50403.09434,-75057.13553,0.062,0.866,0.432,192,0,0,0,0,0,0,0,0,0,1709547994,0, 2024-03-04 15:56:34.150
224,-93228.45557,-48794.61811,-23521.36654,-31562.54072,-28001.19257,-42364.64707,-50424.19439,-75069.83132,0.062,0.866,0.432,192,0,0,0,0,0,0,0,0,0,1709547994,0, 2024-03-04 15:56:34.150
225,-93271.7509,-48811.98541,-23510.10126,-31587.44056,-27942.72041,-42381.56734,-50379.5356,-75041.71283,0.062,0.866,0.432,192,0,0,0,0,0,0,0,0,0,1709547994,0, 2024-03-04 15:56:34.150
226,-93302.59631,-48813.7959,-23469.68931,-31606.4619,-27856.06269,-42398.82289,-50330.54058,-75024.94902,0.062,0.866,0.432,192,0,0,0,0,0,0,0,0,0,1709547994,0, 2024-03-04 15:56:34.150
227,-93279.50696,-48797.38972,-23457.73112,-31593.60964,-27864.4446,-42396.52066,-50345.44919,-75064.91394,0.064,0.872,0.434,192,2,0,27,64,13,144,0,0,0,1709547994,0, 2024-03-04 15:56:34.150
228,-93231.62952,-48782.48111,-23489.38119,-31567.63692,-27951.52699,-42381.99203,-50403.04964,-75129.55518,0.064,0.872,0.434,192,0,0,0,0,0,0,0,0,0,1709547994,0, 2024-03-04 15:56:34.150
229,-93218.50904,-48784.47041,-23518.14789,-31560.95374,-27999.6503,-42372.42548,-50428.08359,-75139.47936,0.064,0.872,0.434,192,0,0,0,0,0,0,0,0,0,1709547994,0, 2024-03-04 15:56:34.150
230,-93258.65278,-48796.4286,-23504.62508,-31578.11988,-27939.03237,-42375.89,-50374.05942,-75084.13644,0.064,0.872,0.434,192,0,0,0,0,0,0,0,0,0,1709547994,0, 2024-03-04 15:56:34.150
231,-93299.77999,-48801.39068,-23463.98961,-31594.61547,-27845.9597,-42387.24469,-50300.52218,-75035.6555,0.064,0.872,0.434,192,0,0,0,0,0,0,0,0,0,1709547994,0, 2024-03-04 15:56:34.150
232,-93273.74021,-48783.77751,-23451.47263,-31581.31618,-27854.43102,-42382.41671,-50339.41422,-75060.75651,0.064,0.872,0.434,192,0,0,0,0,0,0,0,0,0,1709547994,0, 2024-03-04 15:56:34.150
233,-93229.21553,-48773.67452,-23483.05565,-31558.00331,-27941.91574,-42367.79867,-50403.65313,-75116.43471,0.064,0.872,0.434,192,0,0,0,0,0,0,0,0,0,1709547994,0, 2024-03-04 15:56:34.150
234,-93229.23788,-48786.1915,-23520.78539,-31557.98096,-27994.19647,-42361.719,-50421.10985,-75104.1636,0.064,0.872,0.434,192,0,0,0,0,0,0,0,0,0,1709547994,0, 2024-03-04 15:56:34.150
235,-93273.76256,-48803.96113,-23514.79513,-31581.09267,-27936.9313,-42369.72092,-50367.68918,-75041.13168,0.064,0.872,0.434,192,0,0,0,0,0,0,0,0,0,1709547994,0, 2024-03-04 15:56:34.150
236,-93310.93351,-48814.01942,-23480.28403,-31607.28891,-27855.23568,-42389.43516,-50314.53673,-75019.5846,0.064,0.872,0.434,192,0,0,0,0,0,0,0,0,0,1709547994,0, 2024-03-04 15:56:34.150
237,-93290.83929,-48802.32946,-23476.23837,-31600.04694,-27869.38433,-42390.0163,-50334.25097,-75060.13066,0.062,0.866,0.444,192,1,240,27,16,13,224,0,0,0,1709547994,0, 2024-03-04 15:56:34.150
238,-93243.02891,-48788.1361,-23507.53081,-31572.86722,-27955.19268,-42371.17378,-50394.44421,-75106.30937,0.062,0.866,0.444,192,0,0,0,0,0,0,0,0,0,1709547994,0, 2024-03-04 15:56:34.150
239,-93238.80443,-48800.72013,-23543.53947,-31570.47559,-28008.79216,-42362.38955,-50418.07001,-75083.17531,0.062,0.866,0.444,192,0,0,0,0,0,0,0,0,0,1709547994,0, 2024-03-04 15:56:34.150
240,-93280.33397,-48813.52768,-23531.64834,-31587.73113,-27948.44245,-42363.12716,-50367.68918,-75010.0404,0.062,0.866,0.444,192,0,0,0,0,0,0,0,0,0,1709547994,0, 2024-03-04 15:56:34.150
241,-93310.55353,-48813.41592,-23487.36954,-31602.25977,-27857.04617,-42373.47601,-50317.95655,-74980.55845,0.062,0.866,0.444,192,0,0,0,0,0,0,0,0,0,1709547994,0, 2024-03-04 15:56:34.150
242,-93287.24066,-48799.93782,-23478.47354,-31591.91091,-27867.55149,-42370.12325,-50339.16835,-75009.63807,0.062,0.866,0.444,192,0,0,0,0,0,0,0,0,0,1709547994,0, 2024-03-04 15:56:34.150
243,-93233.32825,-48780.29064,-23503.5075,-31559.36677,-27947.43662,-42345.24576,-50394.77949,-75043.05393,0.062,0.866,0.444,192,0,0,0,0,0,0,0,0,0,1709547994,0, 2024-03-04 15:56:34.150
244,-93226.48862,-48785.52095,-23541.61722,-31555.49992,-28003.13717,-42335.88038,-50422.67447,-75038.91886,0.062,0.866,0.444,192,0,0,0,0,0,0,0,0,0,1709547994,0, 2024-03-04 15:56:34.150
245,-93265.91709,-48798.77553,-23529.07789,-31577.35992,-27946.09552,-42345.20106,-50388.00691,-74979.86555,0.062,0.866,0.444,192,0,0,0,0,0,0,0,0,0,1709547994,0, 2024-03-04 15:56:34.150
246,-93300.04821,-48806.03985,-23488.66594,-31603.39971,-27857.58261,-42368.62568,-50339.21305,-74955.27863,0.062,0.866,0.444,192,0,0,0,0,0,0,0,0,0,1709547994,0, 2024-03-04 15:56:34.150
247,-93274.65663,-48791.53356,-23474.49493,-31598.75054,-27860.46599,-42376.31468,-50350.79126,-75005.05596,0.064,0.87,0.436,192,2,0,27,48,13,160,0,0,0,1709547994,0, 2024-03-04 15:56:34.150
248,-93226.93565,-48779.48597,-23503.12752,-31580.35506,-27948.93419,-42373.76659,-50416.75126,-75084.06938,0.064,0.87,0.436,192,0,0,0,0,0,0,0,0,0,1709547994,0, 2024-03-04 15:56:34.150
249,-93214.99982,-48782.54816,-23528.58615,-31575.54943,-27997.66099,-42371.3526,-50446.16615,-75101.34728,0.064,0.87,0.436,192,0,0,0,0,0,0,0,0,0,1709547994,0, 2024-03-04 15:56:34.150
250,-93255.21061,-48799.58019,-23514.4822,-31600.82926,-27938.0936,-42388.40698,-50401.3062,-75070.39011,0.064,0.87,0.436,192,0,0,0,0,0,0,0,0,0,1709547994,0, 2024-03-04 15:56:34.150
251,-93285.94426,-48801.16717,-23467.16356,-31621.10229,-27844.5739,-42406.73541,-50346.32091,-75053.89453,0.064,0.87,0.436,192,0,0,0,0,0,0,0,0,0,1709547994,0, 2024-03-04 15:56:34.150
252,-93267.66053,-48788.29256,-23456.03239,-31611.6475,-27848.10547,-42406.66835,-50343.14696,-75091.95955,0.064,0.87,0.436,192,0,0,0,0,0,0,0,0,0,1709547994,0, 2024-03-04 15:56:34.150
253,-93218.77727,-48770.63468,-23485.13436,-31581.02561,-27935.00905,-42384.54013,-50419.14289,-75131.1198,0.064,0.87,0.436,192,0,0,0,0,0,0,0,0,0,1709547994,0, 2024-03-04 15:56:34.150
254,-93202.95223,-48765.35967,-23506.81555,-31563.07716,-27981.36657,-42360.64611,-50445.85323,-75119.45219,0.064,0.87,0.436,192,0,0,0,0,0,0,0,0,0,1709547994,0, 2024-03-04 15:56:34.150
255,-93249.17564,-48786.48207,-23498.4113,-31587.19469,-27929.91286,-42370.27971,-50390.91264,-75078.70496,0.064,0.87,0.436,192,0,0,0,0,0,0,0,0,0,1709547994,0, 2024-03-04 15:56:34.150
0,-93284.31258,-48796.4733,-23455.85358,-31607.82535,-27841.93639,-42384.62953,-50335.54737,-75047.189,0.064,0.87,0.436,192,0,0,0,0,0,0,0,0,0,1709547994,0, 2024-03-04 15:56:34.150
1,-93257.53519,-48777.899,-23439.40269,-31590.68156,-27839.41064,-42373.40896,-50344.19749,-75064.28809,0.064,0.87,0.436,192,0,0,0,0,0,0,0,0,0,1709547994,0, 2024-03-04 15:56:34.150
2,-93213.79283,-48766.58902,-23475.61252,-31568.79921,-27930.42695,-42359.79675,-50402.49084,-75116.09943,0.058,0.866,0.432,192,1,208,27,16,13,128,0,0,0,1709547994,0, 2024-03-04 15:56:34.150
3,-93205.098,-48774.21096,-23507.79903,-31565.24528,-27983.31117,-42352.01834,-50425.84842,-75114.35599,0.058,0.866,0.432,192,0,0,0,0,0,0,0,0,0,1709547994,0, 2024-03-04 15:56:34.150
4,-93246.24756,-48793.50052,-23495.05854,-31585.94299,-27925.55427,-42357.80744,-50374.48411,-75046.87608,0.058,0.866,0.432,192,0,0,0,0,0,0,0,0,0,1709547994,0, 2024-03-04 15:56:34.150
5,-93284.98313,-48798.99905,-23456.61354,-31605.83605,-27836.12494,-42371.82198,-50319.43176,-75011.13564,0.058,0.866,0.432,192,0,0,0,0,0,0,0,0,0,1709547994,0, 2024-03-04 15:56:34.150
6,-93265.60417,-48785.5433,-23450.69032,-31599.33169,-27842.53989,-42371.59847,-50333.20043,-75052.08403,0.058,0.866,0.432,192,0,0,0,0,0,0,0,0,0,1709547994,0, 2024-03-04 15:56:34.150
7,-93219.62663,-48771.26053,-23479.8817,-31574.20833,-27931.85746,-42353.20298,-50390.89029,-75093.16654,0.058,0.866,0.432,192,0,0,0,0,0,0,0,0,0,1709547994,0, 2024-03-04 15:56:34.150
8,-93218.46434,-48777.98841,-23511.8894,-31566.8546,-27985.68046,-42338.27202,-50417.24299,-75068.46786,0.058,0.866,0.432,192,0,0,0,0,0,0,0,0,0,1709547994,0, 2024-03-04 15:56:34.150
9,-93263.4584,-48795.48982,-23507.10613,-31588.84872,-27933.84676,-42347.52564,-50370.25963,-75020.67983,0.058,0.866,0.432,192,0,0,0,0,0,0,0,0,0,1709547994,0, 2024-03-04 15:56:34.150
10,-93299.55647,-48802.95531,-23467.94587,-31612.69803,-27844.93152,-42370.12325,-50318.44828,-75004.11719,0.058,0.866,0.432,192,0,0,0,0,0,0,0,0,0,1709547994,0, 2024-03-04 15:56:34.150
11,-93276.37771,-48787.08557,-23453.84192,-31600.91866,-27844.99858,-42366.03288,-50331.4123,-75022.71384,0.058,0.866,0.432,192,0,0,0,0,0,0,0,0,0,1709547994,0, 2024-03-04 15:56:34.150
12,-93227.76267,-48772.89221,-23485.31318,-31573.00133,-27931.32102,-42346.47511,-50391.49378,-75063.43872,0.056,0.866,0.43,192,1,192,27,16,13,112,0,0,0,1709547994,0, 2024-03-04 15:56:34.150
13,-93224.11933,-48787.73377,-23525.9263,-31576.4435,-27994.64351,-42346.85509,-50426.67543,-75075.50866,0.056,0.866,0.43,192,0,0,0,0,0,0,0,0,0,1709547994,0, 2024-03-04 15:56:34.150
14,-93260.2174,-48801.12246,-23509.87774,-31593.54259,-27934.13734,-42352.62184,-50376.80869,-75019.36108,0.056,0.866,0.43,192,0,0,0,0,0,0,0,0,0,1709547994,0, 2024-03-04 15:56:34.150
15,-93290.50401,-48801.83772,-23464.86133,-31611.044,-27837.82367,-42365.0047,-50323.14215,-74989.4768,0.056,0.866,0.43,192,0,0,0,0,0,0,0,0,0,1709547994,0, 2024-03-04 15:56:34.150
16,-93269.26986,-48788.1808,-23455.87593,-31603.98085,-27844.32803,-42368.71509,-50344.82334,-75033.0627,0.056,0.866,0.43,192,0,0,0,0,0,0,0,0,0,1709547994,0, 2024-03-04 15:56:34.150
17,-93217.45851,-48770.8582,-23484.3744,-31575.54943,-27930.80693,-42353.11357,-50407.40823,-75078.81672,0.056,0.866,0.43,192,0,0,0,0,0,0,0,0,0,1709547994,0, 2024-03-04 15:56:34.150
18,-93205.34387,-48773.69687,-23517.96907,-31569.29094,-27986.79805,-42345.06695,-50434.43149,-75079.30846,0.056,0.866,0.43,192,0,0,0,0,0,0,0,0,0,1709547994,0, 2024-03-04 15:56:34.150
19,-93245.4429,-48787.59966,-23508.60369,-31590.54745,-27933.31032,-42353.67237,-50392.83489,-75039.09767,0.056,0.866,0.43,192,0,0,0,0,0,0,0,0,0,1709547994,0, 2024-03-04 15:56:34.150
20,-93283.68673,-48795.66864,-23467.40943,-31613.12272,-27845.3115,-42375.17475,-50347.01381,-75021.26098,0.056,0.866,0.43,192,0,0,0,0,0,0,0,0,0,1709547994,0, 2024-03-04 15:56:34.150
21,-93255.83646,-48775.23914,-23444.49889,-31595.59895,-27837.5331,-42370.27971,-50352.53469,-75049.84886,0.056,0.866,0.43,192,0,0,0,0,0,0,0,0,0,1709547994,0, 2024-03-04 15:56:34.150
22,-93202.10286,-48755.27904,-23468.3482,-31563.81477,-27916.79238,-42352.823,-50401.46266,-75104.43182,0.068,0.872,0.418,192,2,32,27,64,13,16,0,0,0,1709547994,0, 2024-03-04 15:56:34.150
23,-93187.46247,-48757.80478,-23497.02549,-31549.01791,-27967.10616,-42334.91925,-50425.24492,-75079.44257,0.068,0.872,0.418,192,0,0,0,0,0,0,0,0,0,1709547994,0, 2024-03-04 15:56:34.150
24,-93225.70631,-48774.32272,-23484.66497,-31567.72632,-27910.19862,-42340.39543,-50379.24503,-75026.13366,0.068,0.872,0.418,192,0,0,0,0,0,0,0,0,0,1709547994,0, 2024-03-04 15:56:34.150
25,-93254.69652,-48779.12835,-23444.43183,-31587.44056,-27818.02002,-42356.82396,-50320.63875,-75011.73914,0.068,0.872,0.418,192,0,0,0,0,0,0,0,0,0,1709547994,0, 2024-03-04 15:56:34.150
26,-93238.98324,-48769.80767,-23433.61359,-31580.55622,-27817.84121,-42357.47216,-50328.32775,-75042.27162,0.068,0.872,0.418,192,0,0,0,0,0,0,0,0,0,1709547994,0, 2024-03-04 15:56:34.150
27,-93193.09511,-48757.67067,-23463.65433,-31555.83519,-27903.85072,-42342.09416,-50387.47047,-75090.84196,0.068,0.872,0.418,192,0,0,0,0,0,0,0,0,0,1709547994,0, 2024-03-04 15:56:34.150
28,-93188.15538,-48765.51613,-23502.38991,-31552.21421,-27963.26166,-42333.6452,-50415.00782,-75096.20638,0.068,0.872,0.418,192,0,0,0,0,0,0,0,0,0,1709547994,0, 2024-03-04 15:56:34.150
29,-93241.33018,-48793.76874,-23499.32772,-31583.70782,-27916.70298,-42350.85605,-50376.83104,-75050.47471,0.068,0.872,0.418,192,0,0,0,0,0,0,0,0,0,1709547994,0, 2024-03-04 15:56:34.150
30,-93278.72464,-48798.75318,-23458.13345,-31604.13731,-27822.1551,-42364.62472,-50321.19755,-75010.75566,0.068,0.872,0.418,192,0,0,0,0,0,0,0,0,0,1709547994,0, 2024-03-04 15:56:34.150
31,-93258.22809,-48782.25759,-23444.76711,-31594.14608,-27819.94227,-42360.66846,-50318.80591,-75040.30467,0.068,0.872,0.418,192,0,0,0,0,0,0,0,0,0,1709547994,0, 2024-03-04 15:56:34.150
32,-93208.71898,-48768.44421,-23475.90309,-31570.76616,-27907.47171,-42346.92214,-50374.4394,-75100.65438,0.068,0.872,0.424,192,2,32,27,64,13,64,0,0,0,1709547994,0, 2024-03-04 15:56:34.150
33,-93199.97945,-48778.5025,-23517.29852,-31567.86043,-27971.73297,-42337.51206,-50425.58019,-75097.21221,0.068,0.872,0.424,192,0,0,0,0,0,0,0,0,0,1709547994,0, 2024-03-04 15:56:34.150
34,-93245.28643,-48799.15551,-23508.40253,-31589.8769,-27914.95954,-42343.07764,-50370.97488,-75017.17061,0.068,0.872,0.424,192,0,0,0,0,0,0,0,0,0,1709547994,0, 2024-03-04 15:56:34.150
35,-93289.69935,-48808.6103,-23470.09164,-31613.18977,-27825.70902,-42363.37302,-50315.81078,-74985.74406,0.068,0.872,0.424,192,0,0,0,0,0,0,0,0,0,1709547994,0, 2024-03-04 15:56:34.150
36,-93267.48172,-48797.97087,-23461.10624,-31607.04304,-27829.01708,-42372.24667,-50327.70191,-75040.30467,0.068,0.872,0.424,192,0,0,0,0,0,0,0,0,0,1709547994,0, 2024-03-04 15:56:34.150
37,-93217.81614,-48782.70463,-23494.32093,-31578.67868,-27917.7088,-42357.18159,-50381.50255,-75091.78073,0.068,0.872,0.424,192,0,0,0,0,0,0,0,0,0,1709547994,0, 2024-03-04 15:56:34.150
38,-93205.098,-48786.1915,-23528.47439,-31566.38522,-27980.09252,-42340.41778,-50416.28187,-75075.26279,0.068,0.872,0.424,192,0,0,0,0,0,0,0,0,0,1709547994,0, 2024-03-04 15:56:34.150
39,-93248.43803,-48804.98931,-23520.67364,-31591.48623,-27930.11402,-42352.46537,-50378.21685,-75034.42616,0.068,0.872,0.424,192,0,0,0,0,0,0,0,0,0,1709547994,0, 2024-03-04 15:56:34.150
40,-93283.86555,-48811.71719,-23480.4852,-31618.48713,-27837.06371,-42374.57125,-50323.45507,-75013.77314,0.068,0.872,0.424,192,0,0,0,0,0,0,0,0,0,1709547994,0, 2024-03-04 15:56:34.150
41,-93261.02206,-48798.48496,-23465.26366,-31613.23447,-27835.27557,-42379.71215,-50334.74271,-75045.66908,0.068,0.872,0.424,192,0,0,0,0,0,0,0,0,0,1709547994,0, 2024-03-04 15:56:34.150
42,-93208.58487,-48782.72698,-23490.43172,-31586.88177,-27919.25107,-42369.16213,-50397.43935,-75109.70683,0.068,0.87,0.424,192,2,32,27,48,13,64,0,0,0,1709547994,0, 2024-03-04 15:56:34.150
43,-93195.17382,-48784.09043,-23521.34419,-31577.49403,-27974.41518,-42359.30501,-50425.75901,-75115.98767,0.068,0.87,0.424,192,0,0,0,0,0,0,0,0,0,1709547994,0, 2024-03-04 15:56:34.150
44,-93233.32825,-48798.3732,-23510.23537,-31597.78942,-27920.27925,-42369.00566,-50382.93307,-75078.5485,0.068,0.87,0.424,192,0,0,0,0,0,0,0,0,0,1709547994,0, 2024-03-04 15:56:34.150
45,-93265.9618,-48801.77066,-23464.41429,-31617.10133,-27824.16675,-42383.86957,-50320.95168,-75053.67101,0.068,0.87,0.424,192,0,0,0,0,0,0,0,0,0,1709547994,0, 2024-03-04 15:56:34.150
46,-93248.30392,-48786.86205,-23446.86817,-31608.4065,-27816.72362,-42383.42254,-50328.41716,-75088.8303,0.068,0.87,0.424,192,0,0,0,0,0,0,0,0,0,1709547994,0, 2024-03-04 15:56:34.150
47,-93197.4537,-48767.48309,-23473.51145,-31576.75643,-27899.31332,-42362.94834,-50388.96804,-75148.28594,0.068,0.87,0.424,192,0,0,0,0,0,0,0,0,0,1709547994,0, 2024-03-04 15:56:34.150
48,-93183.79679,-48767.34898,-23509.87774,-31563.25597,-27961.40646,-42346.00572,-50419.09819,-75140.99927,0.068,0.87,0.424,192,0,0,0,0,0,0,0,0,0,1709547994,0, 2024-03-04 15:56:34.150
49,-93230.51193,-48790.10305,-23504.91566,-31585.78653,-27912.27733,-42355.01347,-50379.91558,-75079.10729,0.068,0.87,0.424,192,0,0,0,0,0,0,0,0,0,1709547994,0, 2024-03-04 15:56:34.150
50,-93274.9919,-48802.08359,-23467.72235,-31609.41233,-27821.68571,-42371.75493,-50325.7126,-75042.09281,0.068,0.87,0.424,192,0,0,0,0,0,0,0,0,0,1709547994,0, 2024-03-04 15:56:34.150
51,-93254.80828,-48787.71142,-23454.49012,-31599.95754,-27820.41166,-42367.86573,-50328.9089,-75063.1258,0.068,0.87,0.424,192,0,0,0,0,0,0,0,0,0,1709547994,0, 2024-03-04 15:56:34.150
52,-93205.7462,-48773.49571,-23484.64262,-31574.4542,-27906.33177,-42350.76664,-50370.63961,-75117.30643,0.064,0.878,0.424,192,2,0,27,112,13,64,0,0,0,1709547994,0, 2024-03-04 15:56:34.150
53,-93191.39638,-48775.73088,-23518.86314,-31563.52419,-27965.29567,-42335.70157,-50410.55982,-75121.06152,0.064,0.878,0.424,192,0,0,0,0,0,0,0,0,0,1709547994,0, 2024-03-04 15:56:34.150
54,-93231.33895,-48791.19829,-23511.37531,-31580.2433,-27916.3677,-42338.24966,-50380.98846,-75062.00821,0.064,0.878,0.424,192,0,0,0,0,0,0,0,0,0,1709547994,0, 2024-03-04 15:56:34.150
55,-93269.22515,-48795.55688,-23469.5999,-31598.75054,-27820.9034,-42348.75498,-50314.42497,-75012.61085,0.064,0.878,0.424,192,0,0,0,0,0,0,0,0,0,1709547994,0, 2024-03-04 15:56:34.150
56,-93247.47691,-48776.49084,-23453.0149,-31584.98187,-27815.33781,-42341.11069,-50320.34818,-75027.47476,0.064,0.878,0.424,192,0,0,0,0,0,0,0,0,0,1709547994,0, 2024-03-04 15:56:34.150
57,-93199.53241,-48761.64928,-23483.79326,-31556.14812,-27902.84489,-42321.84348,-50381.07787,-75071.70887,0.064,0.878,0.424,192,0,0,0,0,0,0,0,0,0,1709547994,0, 2024-03-04 15:56:34.150
58,-93186.65781,-48764.82323,-23518.25965,-31545.55339,-27962.12172,-42308.99123,-50410.35866,-75071.12772,0.064,0.878,0.424,192,0,0,0,0,0,0,0,0,0,1709547994,0, 2024-03-04 15:56:34.150
59,-93233.44001,-48789.85718,-23515.15275,-31572.48724,-27915.54069,-42324.14571,-50365.23048,-75017.6847,0.064,0.878,0.424,192,0,0,0,0,0,0,0,0,0,1709547995,0, 2024-03-04 15:56:34.629
60,-93271.7956,-48801.32363,-23475.389,-31597.49885,-27823.4515,-42342.11652,-50309.70875,-74972.71299,0.064,0.878,0.424,192,0,0,0,0,0,0,0,0,0,1709547995,0, 2024-03-04 15:56:34.629
61,-93251.00848,-48786.50442,-23459.45221,-31587.86524,-27816.20953,-42337.89204,-50320.90698,-74981.02784,0.064,0.878,0.424,192,0,0,0,0,0,0,0,0,0,1709547995,0, 2024-03-04 15:56:34.629
62,-93197.38665,-48769.58415,-23480.39579,-31561.93722,-27894.95473,-42323.29635,-50378.8874,-75031.7216,0.062,0.874,0.428,192,1,240,27,80,13,96,0,0,0,1709547995,0, 2024-03-04 15:56:34.629
63,-93179.25938,-48769.6065,-23512.67171,-31550.11315,-27951.70581,-42308.67831,-50406.13418,-75026.93832,0.062,0.874,0.428,192,0,0,0,0,0,0,0,0,0,1709547995,0, 2024-03-04 15:56:34.629
64,-93222.62177,-48790.50538,-23512.71641,-31577.20346,-27911.71854,-42323.94455,-50371.51132,-74986.50402,0.062,0.874,0.428,192,0,0,0,0,0,0,0,0,0,1709547995,0, 2024-03-04 15:56:34.629
65,-93261.69261,-48798.64142,-23472.55033,-31604.91962,-27819.67405,-42349.51494,-50319.05178,-74972.44477,0.062,0.874,0.428,192,0,0,0,0,0,0,0,0,0,1709547995,0, 2024-03-04 15:56:34.629
66,-93241.62075,-48780.60356,-23456.23356,-31597.5212,-27814.37669,-42351.99599,-50326.76313,-75015.40482,0.062,0.874,0.428,192,0,0,0,0,0,0,0,0,0,1709547995,0, 2024-03-04 15:56:34.629
67,-93192.46926,-48762.92333,-23487.03426,-31572.86722,-27902.30845,-42340.52954,-50393.21487,-75073.3629,0.062,0.874,0.428,192,0,0,0,0,0,0,0,0,0,1709547995,0, 2024-03-04 15:56:34.629
68,-93180.89106,-48771.03701,-23531.1566,-31571.81669,-27970.16835,-42341.51302,-50434.05151,-75099.89442,0.062,0.874,0.428,192,0,0,0,0,0,0,0,0,0,1709547995,0, 2024-03-04 15:56:34.629
69,-93221.19125,-48789.76778,-23528.25088,-31595.10721,-27922.00034,-42354.7676,-50395.27123,-75071.68651,0.062,0.874,0.428,192,0,0,0,0,0,0,0,0,0,1709547995,0, 2024-03-04 15:56:34.629
70,-93256.21644,-48793.85815,-23477.62418,-31611.20047,-27817.57299,-42366.05523,-50330.45117,-75040.17056,0.062,0.874,0.428,192,0,0,0,0,0,0,0,0,0,1709547995,0, 2024-03-04 15:56:34.629
71,-93236.30103,-48781.14,-23457.95464,-31600.35987,-27806.55358,-42363.30597,-50336.5979,-75063.32696,0.062,0.874,0.428,192,0,0,0,0,0,0,0,0,0,1709547995,0, 2024-03-04 15:56:34.629
72,-93186.85897,-48767.63955,-23487.12367,-31572.64371,-27891.87019,-42344.91048,-50394.33246,-75114.22188,0.064,0.876,0.43,192,2,0,27,96,13,112,0,0,0,1709547995,0, 2024-03-04 15:56:34.629
73,-93175.83956,-48773.02632,-23526.21687,-31562.65248,-27956.89141,-42333.06406,-50416.05835,-75119.16162,0.064,0.876,0.43,192,0,0,0,0,0,0,0,0,0,1709547995,0, 2024-03-04 15:56:34.629
74,-93219.67134,-48793.09819,-23524.0711,-31582.99256,-27908.00815,-42338.16026,-50365.52106,-75056.91201,0.064,0.876,0.43,192,0,0,0,0,0,0,0,0,0,1709547995,0, 2024-03-04 15:56:34.629
75,-93258.94335,-48800.34015,-23479.47937,-31602.25977,-27811.73918,-42350.16314,-50340.93414,-75017.41648,0.064,0.876,0.43,192,0,0,0,0,0,0,0,0,0,1709547995,0, 2024-03-04 15:56:34.629
76,-93240.63727,-48784.22454,-23460.6592,-31590.14512,-27801.43503,-42345.80455,-50336.5979,-75035.78961,0.064,0.876,0.43,192,0,0,0,0,0,0,0,0,0,1709547995,0, 2024-03-04 15:56:34.629
77,-93192.82689,-48767.12546,-23488.75534,-31561.87017,-27885.99168,-42329.53248,-50386.01761,-75091.91484,0.064,0.876,0.43,192,0,0,0,0,0,0,0,0,0,1709547995,0, 2024-03-04 15:56:34.629
78,-93181.60631,-48773.00397,-23530.93309,-31555.76814,-27953.40454,-42321.70937,-50420.05931,-75115.71945,0.064,0.876,0.43,192,0,0,0,0,0,0,0,0,0,1709547995,0, 2024-03-04 15:56:34.629
79,-93222.77823,-48789.3878,-23522.39472,-31573.09074,-27902.66608,-42322.40228,-50374.77468,-75041.60107,0.064,0.876,0.43,192,0,0,0,0,0,0,0,0,0,1709547995,0, 2024-03-04 15:56:34.629
80,-93263.63722,-48797.79205,-23478.5406,-31592.64852,-27806.97826,-42333.33228,-50311.98863,-74992.31547,0.064,0.876,0.43,192,0,0,0,0,0,0,0,0,0,1709547995,0, 2024-03-04 15:56:34.629
81,-93247.65572,-48783.77751,-23458.44638,-31582.09849,-27798.5293,-42328.81723,-50318.49299,-75005.90533,0.064,0.876,0.43,192,0,0,0,0,0,0,0,0,0,1709547995,0, 2024-03-04 15:56:34.629
82,-93190.32349,-48762.521,-23485.87197,-31550.67194,-27884.18119,-42307.47131,-50382.59779,-75043.92565,0.062,0.876,0.428,192,1,240,27,96,13,96,0,0,0,1709547995,0, 2024-03-04 15:56:34.629
83,-93175.30312,-48765.78435,-23524.24991,-31541.50773,-27952.06344,-42299.31293,-50422.45095,-75072.06649,0.062,0.876,0.428,192,0,0,0,0,0,0,0,0,0,1709547995,0, 2024-03-04 15:56:34.629
84,-93217.21264,-48784.42571,-23518.66198,-31562.3172,-27903.24723,-42308.85712,-50382.10605,-75032.90624,0.062,0.876,0.428,192,0,0,0,0,0,0,0,0,0,1709547995,0, 2024-03-04 15:56:34.629
85,-93254.11537,-48790.55009,-23478.85352,-31580.35506,-27808.90051,-42319.27303,-50324.99734,-74972.40007,0.062,0.876,0.428,192,0,0,0,0,0,0,0,0,0,1709547995,0, 2024-03-04 15:56:34.629
86,-93236.90453,-48777.22845,-23456.72529,-31571.23555,-27796.49529,-42316.41201,-50330.49587,-74982.23483,0.062,0.876,0.428,192,0,0,0,0,0,0,0,0,0,1709547995,0, 2024-03-04 15:56:34.629
87,-93188.75887,-48759.9729,-23480.10522,-31541.82065,-27874.74875,-42298.37415,-50385.16824,-75028.14532,0.062,0.876,0.428,192,0,0,0,0,0,0,0,0,0,1709547995,0, 2024-03-04 15:56:34.629
88,-93168.75406,-48759.28,-23515.97977,-31530.53302,-27937.33364,-42287.57826,-50417.69003,-75040.03644,0.062,0.876,0.428,192,0,0,0,0,0,0,0,0,0,1709547995,0, 2024-03-04 15:56:34.629
89,-93211.87058,-48780.24593,-23512.82817,-31555.45521,-27893.23364,-42301.5034,-50376.96515,-74990.95201,0.062,0.876,0.428,192,0,0,0,0,0,0,0,0,0,1709547995,0, 2024-03-04 15:56:34.629
90,-93250.44969,-48789.41015,-23469.89047,-31579.12571,-27796.78587,-42321.99995,-50313.03916,-74953.37873,0.062,0.876,0.428,192,0,0,0,0,0,0,0,0,0,1709547995,0, 2024-03-04 15:56:34.629
91,-93231.27189,-48775.75323,-23453.66311,-31572.91193,-27786.05703,-42327.8561,-50324.86323,-74985.34173,0.062,0.876,0.428,192,0,0,0,0,0,0,0,0,0,1709547995,0, 2024-03-04 15:56:34.629
92,-93175.86192,-48756.59779,-23478.78647,-31546.60392,-27869.98783,-42316.79199,-50382.41898,-75051.14526,0.064,0.868,0.43,192,2,0,27,32,13,112,0,0,0,1709547995,0, 2024-03-04 15:56:34.629
93,-93155.27596,-48754.8767,-23511.04003,-31533.43875,-27929.64464,-42305.61612,-50396.61233,-75061.71764,0.064,0.868,0.43,192,0,0,0,0,0,0,0,0,0,1709547995,0, 2024-03-04 15:56:34.629
94,-93199.19714,-48775.55207,-23507.70962,-31556.95278,-27883.82356,-42318.93776,-50367.37625,-75024.54669,0.064,0.868,0.43,192,0,0,0,0,0,0,0,0,0,1709547995,0, 2024-03-04 15:56:34.629
95,-93240.72668,-48785.38683,-23465.08485,-31580.73504,-27788.58278,-42337.24384,-50328.17129,-74994.26007,0.064,0.868,0.43,192,0,0,0,0,0,0,0,0,0,1709547995,0, 2024-03-04 15:56:34.629
96,-93222.68882,-48770.74644,-23443.82834,-31574.09657,-27776.40108,-42338.27202,-50321.48812,-75014.84603,0.064,0.868,0.43,192,0,0,0,0,0,0,0,0,0,1709547995,0, 2024-03-04 15:56:34.629
97,-93175.34783,-48757.40245,-23473.3997,-31551.96834,-27862.29883,-42327.54318,-50378.50742,-75085.07521,0.064,0.868,0.43,192,0,0,0,0,0,0,0,0,0,1709547995,0, 2024-03-04 15:56:34.629
98,-93156.17003,-48759.03413,-23510.74946,-31540.05486,-27927.52122,-42313.0369,-50408.52581,-75087.5339,0.064,0.868,0.43,192,0,0,0,0,0,0,0,0,0,1709547995,0, 2024-03-04 15:56:34.629
99,-93194.68208,-48776.26732,-23507.93314,-31557.10924,-27885.23172,-42316.03203,-50369.27615,-75031.60984,0.064,0.868,0.43,192,0,0,0,0,0,0,0,0,0,1709547995,0, 2024-03-04 15:56:34.629
100,-93241.33018,-48788.96311,-23469.21992,-31580.77974,-27790.72854,-42332.68408,-50309.99932,-75000.71973,0.064,0.868,0.43,192,0,0,0,0,0,0,0,0,0,1709547995,0, 2024-03-04 15:56:34.629
101,-93230.62369,-48780.42475,-23455.36184,-31574.16362,-27781.29611,-42331.09711,-50312.81564,-75015.27071,0.064,0.868,0.43,192,0,0,0,0,0,0,0,0,0,1709547995,0, 2024-03-04 15:56:34.629
102,-93181.49456,-48762.61041,-23483.1227,-31548.2356,-27865.96452,-42315.6297,-50372.38304,-75067.86437,0.066,0.87,0.432,192,2,16,27,48,13,128,0,0,0,1709547995,0, 2024-03-04 15:56:34.629
103,-93165.96009,-48766.79018,-23526.17216,-31541.17245,-27933.93617,-42306.86781,-50405.28481,-75081.83421,0.066,0.87,0.432,192,0,0,0,0,0,0,0,0,0,1709547995,0, 2024-03-04 15:56:34.629
104,-93211.84822,-48793.79109,-23529.23435,-31571.10144,-27894.68651,-42323.16224,-50375.7358,-75042.09281,0.066,0.87,0.432,192,0,0,0,0,0,0,0,0,0,1709547995,0, 2024-03-04 15:56:34.629
105,-93251.52257,-48802.2624,-23481.26751,-31591.28506,-27792.67315,-42334.11459,-50311.04986,-74984.20179,0.066,0.87,0.432,192,0,0,0,0,0,0,0,0,0,1709547995,0, 2024-03-04 15:56:34.629
106,-93237.1951,-48788.02434,-23463.252,-31581.83027,-27779.73149,-42328.79488,-50308.21118,-74986.61578,0.066,0.87,0.432,192,0,0,0,0,0,0,0,0,0,1709547995,0, 2024-03-04 15:56:34.629
107,-93193.36333,-48773.65217,-23492.39868,-31555.79049,-27863.50582,-42311.94166,-50364.78345,-75028.81587,0.066,0.87,0.432,192,0,0,0,0,0,0,0,0,0,1709547995,0, 2024-03-04 15:56:34.629
108,-93180.37697,-48780.84943,-23536.8563,-31549.71082,-27935.18787,-42304.52088,-50405.8436,-75044.88677,0.066,0.87,0.432,192,0,0,0,0,0,0,0,0,0,1709547995,0, 2024-03-04 15:56:34.629
109,-93219.09019,-48798.48496,-23538.30916,-31569.55917,-27896.04996,-42310.37704,-50369.36556,-74989.34269,0.066,0.87,0.432,192,0,0,0,0,0,0,0,0,0,1709547995,0, 2024-03-04 15:56:34.629
110,-93260.9103,-48806.17396,-23495.61733,-31590.63686,-27800.63037,-42324.34688,-50302.62325,-74947.03084,0.066,0.87,0.432,192,0,0,0,0,0,0,0,0,0,1709547995,0, 2024-03-04 15:56:34.629
111,-93245.12997,-48792.60645,-23475.94779,-31584.24426,-27787.37578,-42325.41976,-50304.50079,-74976.35632,0.066,0.87,0.432,192,0,0,0,0,0,0,0,0,0,1709547995,0, 2024-03-04 15:56:34.629
112,-93185.56257,-48766.969,-23493.56097,-31549.26378,-27867.90912,-42300.96695,-50385.57057,-75018.57877,0.064,0.868,0.428,192,2,0,27,32,13,96,0,0,0,1709547995,0, 2024-03-04 15:56:34.629
113,-93161.6015,-48763.95151,-23529.27906,-31536.0092,-27933.86912,-42288.51703,-50413.35379,-75024.99372,0.064,0.868,0.428,192,0,0,0,0,0,0,0,0,0,1709547995,0, 2024-03-04 15:56:34.629
114,-93194.27975,-48779.55303,-23524.13816,-31558.38329,-27892.89837,-42303.55976,-50376.67458,-74990.50498,0.064,0.868,0.428,192,0,0,0,0,0,0,0,0,0,1709547995,0, 2024-03-04 15:56:34.629
115,-93233.75293,-48789.11958,-23484.64262,-31586.70295,-27799.7363,-42329.42073,-50325.31027,-74971.77422,0.064,0.868,0.428,192,0,0,0,0,0,0,0,0,0,1709547995,0, 2024-03-04 15:56:34.629
116,-93218.37493,-48775.32855,-23465.1072,-31583.30549,-27784.89474,-42336.93091,-50333.75923,-75004.34071,0.064,0.868,0.428,192,0,0,0,0,0,0,0,0,0,1709547995,0, 2024-03-04 15:56:34.629
117,-93172.59856,-48764.04092,-23492.30927,-31565.31233,-27867.75266,-42333.08641,-50399.49571,-75071.39594,0.064,0.868,0.428,192,0,0,0,0,0,0,0,0,0,1709547995,0, 2024-03-04 15:56:34.629
118,-93159.12046,-48771.93108,-23532.05067,-31558.02567,-27937.13247,-42327.99021,-50432.73275,-75092.51834,0.064,0.868,0.428,192,0,0,0,0,0,0,0,0,0,1709547995,0, 2024-03-04 15:56:34.629
119,-93197.63252,-48789.54426,-23525.3675,-31576.15293,-27894.35123,-42336.39447,-50390.24209,-75047.97131,0.064,0.868,0.428,192,0,0,0,0,0,0,0,0,0,1709547995,0, 2024-03-04 15:56:34.629
120,-93238.33504,-48797.47913,-23485.55904,-31599.15287,-27799.62454,-42355.46051,-50337.64843,-75029.35231,0.064,0.868,0.428,192,0,0,0,0,0,0,0,0,0,1709547995,0, 2024-03-04 15:56:34.629
121,-93224.58872,-48784.62688,-23461.66503,-31591.93326,-27784.26889,-42356.28752,-50335.74853,-75052.15109,0.064,0.868,0.428,192,0,0,0,0,0,0,0,0,0,1709547995,0, 2024-03-04 15:56:34.629
122,-93175.6831,-48766.83489,-23487.14602,-31564.01593,-27866.00922,-42339.74723,-50391.65025,-75104.09654,0.064,0.868,0.428,192,2,0,27,32,13,96,0,0,0,1709547995,0, 2024-03-04 15:56:34.629
123,-93158.22639,-48770.43352,-23531.1566,-31555.67873,-27939.39,-42332.48291,-50430.87756,-75134.9643,0.064,0.868,0.428,192,0,0,0,0,0,0,0,0,0,1709547995,0, 2024-03-04 15:56:34.629
124,-93203.39927,-48792.76291,-23533.34707,-31576.55526,-27903.94013,-42339.70253,-50396.96996,-75082.37065,0.064,0.868,0.428,192,0,0,0,0,0,0,0,0,0,1709547995,0, 2024-03-04 15:56:34.629
125,-93241.0396,-48802.77649,-23492.17516,-31600.58339,-27806.2183,-42356.30987,-50340.21888,-75040.21526,0.064,0.868,0.428,192,0,0,0,0,0,0,0,0,0,1709547995,0, 2024-03-04 15:56:34.629
126,-93225.52749,-48790.34892,-23471.92448,-31593.81081,-27786.07938,-42355.19229,-50331.59111,-75051.23467,0.064,0.868,0.428,192,0,0,0,0,0,0,0,0,0,1709547995,0, 2024-03-04 15:56:34.629
127,-93178.20885,-48771.59581,-23494.38798,-31564.32886,-27862.16472,-42333.77932,-50369.81259,-75095.91581,0.064,0.868,0.428,192,0,0,0,0,0,0,0,0,0,1709547995,0, 2024-03-04 15:56:34.629
128,-93160.28275,-48772.60164,-23535.80577,-31551.87894,-27936.70779,-42319.74242,-50426.78719,-75110.71266,0.064,0.868,0.428,192,0,0,0,0,0,0,0,0,0,1709547995,0, 2024-03-04 15:56:34.629
129,-93197.11843,-48786.54913,-23531.38012,-31563.09951,-27895.13354,-42316.68023,-50397.10407,-75048.57481,0.064,0.868,0.428,192,0,0,0,0,0,0,0,0,0,1709547995,0, 2024-03-04 15:56:34.629
130,-93241.01725,-48798.28379,-23492.59984,-31585.36185,-27797.16585,-42329.01839,-50327.54544,-74998.86453,0.064,0.868,0.428,192,0,0,0,0,0,0,0,0,0,1709547995,0, 2024-03-04 15:56:34.629
131,-93231.96479,-48789.61131,-23476.79716,-31581.27148,-27780.33498,-42329.77835,-50327.009,-75014.01901,0.064,0.868,0.428,192,0,0,0,0,0,0,0,0,0,1709547995,0, 2024-03-04 15:56:34.629
132,-93187.19425,-48774.83681,-23506.16735,-31553.39885,-27860.01895,-42309.08064,-50382.0837,-75055.74972,0.064,0.868,0.428,192,0,0,0,0,0,0,0,0,0,1709547995,0, 2024-03-04 15:56:34.629
133,-93172.3974,-48780.04477,-23553.50835,-31541.48537,-27939.01002,-42293.2109,-50423.61324,-75052.44166,0.068,0.866,0.432,192,2,32,27,16,13,128,0,0,0,1709547995,0, 2024-03-04 15:56:34.629
134,-93209.61305,-48797.18856,-23548.88154,-31558.4727,-27897.45812,-42295.66959,-50394.98066,-74989.05212,0.068,0.866,0.432,192,0,0,0,0,0,0,0,0,0,1709547995,0, 2024-03-04 15:56:34.629
