Sample Index, EXG Channel 0, EXG Channel 1, EXG Channel 2, EXG Channel 3, EXG Channel 4, EXG Channel 5, EXG Channel 6, EXG Channel 7, Accel Channel 0, Accel Channel 1, Accel Channel 2, Other, Other.1, Other.2, Other.3, Other.4, Other.5, Other.6, Analog Channel 0, Analog Channel 1, Analog Channel 2, Timestamp, Other.7, Timestamp (Formatted)
0,-69900.52103,-34881.4842,-15938.38077,-17603.87631,-19254.7091,-30499.84938,-32028.86516,-60508.78739,0.072,0.788,0.584,192,2,64,24,160,18,64,0,0,0,1709547556,0, 2024-03-04 15:49:15.514
1,-69822.04405,-34836.15486,-16397.17268,-17542.23019,-19352.29681,-30437.62212,-32211.72478,-60504.45116,0.072,0.788,0.584,192,0,0,0,0,0,0,0,0,0,1709547556,0, 2024-03-04 15:49:15.514
2,-69785.99069,-34826.14128,-16743.17768,-17513.08352,-19399.72721,-30404.85447,-32302.78579,-60493.85643,0.072,0.788,0.584,192,0,0,0,0,0,0,0,0,0,1709547556,0, 2024-03-04 15:49:15.514
3,-69841.33361,-34860.89824,-16490.11123,-17553.56253,-19328.31339,-30442.65126,-32143.08258,-60487.19561,0.072,0.788,0.584,192,0,0,0,0,0,0,0,0,0,1709547556,0, 2024-03-04 15:49:15.514
4,-69908.79117,-34894.09058,-15986.61584,-17608.43606,-19237.72177,-30502.24102,-31988.00617,-60512.58719,0.072,0.788,0.584,192,0,0,0,0,0,0,0,0,0,1709547556,0, 2024-03-04 15:49:15.514
5,-69889.30045,-34871.71648,-15943.09699,-17594.26505,-19255.58081,-30491.51218,-32031.34621,-60520.38795,0.072,0.788,0.584,192,0,0,0,0,0,0,0,0,0,1709547556,0, 2024-03-04 15:49:15.514
6,-69818.15485,-34834.72435,-16400.65955,-17541.55964,-19358.77882,-30439.09734,-32215.72575,-60528.99337,0.072,0.788,0.584,192,0,0,0,0,0,0,0,0,0,1709547556,0, 2024-03-04 15:49:15.514
7,-69794.75257,-34834.05379,-16754.19709,-17520.01256,-19416.1781,-30412.9458,-32306.29501,-60514.12946,0.072,0.788,0.584,192,0,0,0,0,0,0,0,0,0,1709547556,0, 2024-03-04 15:49:15.514
8,-69851.90598,-34869.25779,-16497.42025,-17558.50226,-19343.57963,-30444.68527,-32167.17776,-60484.62516,0.072,0.788,0.584,192,0,0,0,0,0,0,0,0,0,1709547556,0, 2024-03-04 15:49:15.514
9,-69919.52001,-34899.4103,-15997.747,-17608.70428,-19249.92582,-30495.73666,-31983.93816,-60484.4687,0.072,0.788,0.584,192,0,0,0,0,0,0,0,0,0,1709547556,0, 2024-03-04 15:49:15.514
10,-69901.21393,-34878.80199,-15956.28452,-17597.17078,-19264.58857,-30490.17107,-32021.15381,-60516.31993,0.064,0.782,0.584,192,2,0,24,112,18,64,0,0,0,1709547556,0, 2024-03-04 15:49:15.514
11,-69832.41526,-34840.22288,-16423.01129,-17544.44302,-19376.81668,-30439.96906,-32225.85109,-60545.3325,0.064,0.782,0.584,192,0,0,0,0,0,0,0,0,0,1709547556,0, 2024-03-04 15:49:15.514
12,-69804.0956,-34835.41725,-16768.97159,-17518.91732,-19429.49974,-30410.26359,-32318.78964,-60528.14401,0.064,0.782,0.584,192,0,0,0,0,0,0,0,0,0,1709547556,0, 2024-03-04 15:49:15.514
13,-69855.21404,-34865.12272,-16513.22293,-17550.34388,-19353.59321,-30436.59394,-32171.6034,-60484.22283,0.064,0.782,0.584,192,0,0,0,0,0,0,0,0,0,1709547556,0, 2024-03-04 15:49:15.514
14,-69915.5414,-34890.06727,-16004.51958,-17595.67321,-19253.14447,-30484.29256,-31986.06157,-60479.86424,0.064,0.782,0.584,192,0,0,0,0,0,0,0,0,0,1709547556,0, 2024-03-04 15:49:15.514
15,-69908.63471,-34877.41618,-15974.70236,-17595.11442,-19280.23479,-30488.49469,-32022.58432,-60499.06439,0.064,0.782,0.584,192,0,0,0,0,0,0,0,0,0,1709547556,0, 2024-03-04 15:49:15.514
16,-69841.8924,-34841.60868,-16437.45052,-17547.95224,-19387.12083,-30444.10413,-32220.97841,-60516.99048,0.064,0.782,0.584,192,0,0,0,0,0,0,0,0,0,1709547556,0, 2024-03-04 15:49:15.514
17,-69818.15485,-34843.35212,-16789.46814,-17536.37404,-19445.83886,-30432.70474,-32323.30469,-60544.93017,0.064,0.782,0.584,192,0,0,0,0,0,0,0,0,0,1709547556,0, 2024-03-04 15:49:15.514
18,-69874.5036,-34876.47741,-16533.20539,-17578.39532,-19372.52514,-30469.47336,-32187.96488,-60528.50163,0.064,0.782,0.584,192,0,0,0,0,0,0,0,0,0,1709547556,0, 2024-03-04 15:49:15.514
19,-69930.78529,-34896.3034,-16027.02779,-17621.24361,-19267.98603,-30511.02525,-31996.36573,-60500.94193,0.064,0.782,0.584,192,0,0,0,0,0,0,0,0,0,1709547556,0, 2024-03-04 15:49:15.514
20,-69912.36745,-34878.15379,-15981.94432,-17611.96764,-19278.5137,-30502.84451,-32009.79912,-60505.36758,0.068,0.782,0.586,192,2,32,24,112,18,80,0,0,0,1709547556,0, 2024-03-04 15:49:15.514
21,-69846.58627,-34845.29672,-16444.44662,-17565.09603,-19388.43958,-30455.68233,-32222.38657,-60526.40057,0.068,0.782,0.586,192,0,0,0,0,0,0,0,0,0,1709547556,0, 2024-03-04 15:49:15.514
22,-69817.14902,-34846.07903,-16794.92197,-17547.50521,-19449.07987,-30436.90687,-32346.59521,-60550.13812,0.068,0.782,0.586,192,0,0,0,0,0,0,0,0,0,1709547556,0, 2024-03-04 15:49:15.514
23,-69879.13041,-34886.28982,-16547.17523,-17594.42152,-19380.81764,-30480.2022,-32198.53725,-60554.72023,0.068,0.782,0.586,192,0,0,0,0,0,0,0,0,0,1709547556,0, 2024-03-04 15:49:15.514
24,-69941.51413,-34907.00989,-16033.53215,-17631.36895,-19268.8354,-30511.58404,-32001.61839,-60498.72911,0.068,0.782,0.586,192,0,0,0,0,0,0,0,0,0,1709547556,0, 2024-03-04 15:49:15.514
25,-69922.11281,-34881.19362,-15986.07939,-17609.55365,-19278.55841,-30491.62394,-32032.82142,-60472.84579,0.068,0.782,0.586,192,0,0,0,0,0,0,0,0,0,1709547556,0, 2024-03-04 15:49:15.514
26,-69850.85545,-34843.59799,-16435.77414,-17557.42938,-19384.59508,-30443.61239,-32227.2816,-60499.8914,0.068,0.782,0.586,192,0,0,0,0,0,0,0,0,0,1709547556,0, 2024-03-04 15:49:15.514
27,-69834.82925,-34850.86231,-16792.44093,-17548.98042,-19453.66197,-30433.77762,-32332.71478,-60522.75723,0.068,0.782,0.586,192,0,0,0,0,0,0,0,0,0,1709547556,0, 2024-03-04 15:49:15.514
28,-69890.14982,-34883.89818,-16541.78846,-17585.92785,-19381.33173,-30468.31107,-32188.54602,-60508.8768,0.068,0.782,0.586,192,0,0,0,0,0,0,0,0,0,1709547556,0, 2024-03-04 15:49:15.514
29,-69951.12538,-34906.62991,-16031.02875,-17631.90539,-19282.67113,-30517.26139,-32007.74276,-60513.59302,0.068,0.782,0.586,192,0,0,0,0,0,0,0,0,0,1709547556,0, 2024-03-04 15:49:15.514
30,-69926.15848,-34878.35495,-15978.72567,-17615.70038,-19292.17062,-30505.45967,-32040.35396,-60529.90979,0.07,0.776,0.588,192,2,48,24,64,18,96,0,0,0,1709547556,0, 2024-03-04 15:49:15.514
31,-69854.99052,-34839.86525,-16438.61281,-17562.7938,-19403.3482,-30451.61431,-32242.88312,-60534.20133,0.07,0.776,0.588,192,0,0,0,0,0,0,0,0,0,1709547556,0, 2024-03-04 15:49:15.514
32,-69820.7253,-34834.16555,-16790.60808,-17538.27394,-19455.53952,-30424.12167,-32341.9684,-60530.37918,0.07,0.776,0.588,192,0,0,0,0,0,0,0,0,0,1709547556,0, 2024-03-04 15:49:15.514
33,-69878.05752,-34873.8846,-16532.57955,-17578.90941,-19377.97897,-30460.01857,-32196.95028,-60511.35785,0.07,0.776,0.588,192,0,0,0,0,0,0,0,0,0,1709547556,0, 2024-03-04 15:49:15.514
34,-69951.3936,-34911.6367,-16029.39707,-17634.83347,-19285.37569,-30517.35079,-32025.26653,-60523.13721,0.07,0.776,0.588,192,0,0,0,0,0,0,0,0,0,1709547556,0, 2024-03-04 15:49:15.514
35,-69940.03891,-34893.37532,-15988.56044,-17622.65177,-19305.71578,-30510.51116,-32053.98852,-60540.2363,0.07,0.776,0.588,192,0,0,0,0,0,0,0,0,0,1709547556,0, 2024-03-04 15:49:15.514
36,-69871.50846,-34856.47259,-16454.5049,-17570.41574,-19415.55225,-30461.22556,-32250.61682,-60555.34608,0.07,0.776,0.588,192,0,0,0,0,0,0,0,0,0,1709547556,0, 2024-03-04 15:49:15.514
37,-69849.22377,-34856.31613,-16805.85197,-17551.84144,-19471.47631,-30440.25963,-32349.59034,-60551.7698,0.07,0.776,0.588,192,0,0,0,0,0,0,0,0,0,1709547556,0, 2024-03-04 15:49:15.514
38,-69903.27029,-34892.12363,-16544.56008,-17590.86759,-19388.86427,-30475.1954,-32198.11257,-60526.8476,0.07,0.776,0.588,192,0,0,0,0,0,0,0,0,0,1709547556,0, 2024-03-04 15:49:15.514
39,-69961.45188,-34916.26351,-16025.84315,-17637.44863,-19280.4136,-30523.8775,-31986.26274,-60513.03423,0.07,0.776,0.588,192,0,0,0,0,0,0,0,0,0,1709547556,0, 2024-03-04 15:49:15.514
40,-69943.63754,-34896.37046,-15983.48659,-17627.90443,-19297.19976,-30517.93194,-32048.60175,-60515.15764,0.074,0.778,0.582,192,2,80,24,80,18,48,0,0,0,1709547556,0, 2024-03-04 15:49:15.514
41,-69869.34034,-34858.86423,-16443.01611,-17577.32243,-19408.5785,-30471.48502,-32261.43506,-60545.48896,0.074,0.778,0.582,192,0,0,0,0,0,0,0,0,0,1709547556,0, 2024-03-04 15:49:15.514
42,-69839.38901,-34854.84092,-16794.09496,-17558.43521,-19462.87089,-30450.67554,-32353.5019,-60555.77076,0.074,0.778,0.582,192,0,0,0,0,0,0,0,0,0,1709547556,0, 2024-03-04 15:49:15.514
43,-69891.1333,-34883.49585,-16527.17042,-17591.6052,-19380.10238,-30479.21872,-32198.06787,-60522.10903,0.074,0.778,0.582,192,0,0,0,0,0,0,0,0,0,1709547556,0, 2024-03-04 15:49:15.514
44,-69960.06608,-34913.11191,-15944.79572,-17640.91315,-19285.80037,-30526.91734,-32016.59405,-60507.5357,0.074,0.778,0.582,192,0,0,0,0,0,0,0,0,0,1709547556,0, 2024-03-04 15:49:15.514
45,-69943.63754,-34895.5658,-15841.39655,-17630.76545,-19301.82657,-30518.6919,-32055.10611,-60520.65617,0.074,0.778,0.582,192,0,0,0,0,0,0,0,0,0,1709547556,0, 2024-03-04 15:49:15.514
46,-69871.03908,-34858.05957,-16300.27786,-17580.00464,-19414.79229,-30470.50154,-32259.13283,-60550.62986,0.074,0.778,0.582,192,0,0,0,0,0,0,0,0,0,1709547556,0, 2024-03-04 15:49:15.514
47,-69845.82631,-34859.24421,-16650.97674,-17560.42451,-19471.92335,-30448.68624,-32359.69333,-60554.49671,0.074,0.778,0.582,192,0,0,0,0,0,0,0,0,0,1709547556,0, 2024-03-04 15:49:15.514
48,-69898.44232,-34890.91663,-16392.56822,-17596.85786,-19393.04404,-30480.71629,-32208.55084,-60539.72221,0.074,0.778,0.582,192,0,0,0,0,0,0,0,0,0,1709547556,0, 2024-03-04 15:49:15.514
49,-69961.6307,-34917.40345,-15887.35174,-17644.84705,-19294.09287,-30529.26427,-32036.88944,-60547.43356,0.074,0.778,0.582,192,0,0,0,0,0,0,0,0,0,1709547556,0, 2024-03-04 15:49:15.514
50,-69947.25853,-34898.76209,-15842.17886,-17636.4875,-19315.97523,-30521.21765,-32075.35679,-60557.35774,0.072,0.776,0.582,192,2,64,24,64,18,48,0,0,0,1709547556,0, 2024-03-04 15:49:15.514
51,-69869.92149,-34852.44928,-16290.59956,-17572.78503,-19413.80881,-30457.20225,-32259.73633,-60545.10898,0.072,0.776,0.582,192,0,0,0,0,0,0,0,0,0,1709547556,0, 2024-03-04 15:49:15.514
52,-69842.76412,-34847.39779,-16640.58317,-17548.22046,-19467.47535,-30429.57549,-32358.32988,-60545.64542,0.072,0.776,0.582,192,0,0,0,0,0,0,0,0,0,1709547556,0, 2024-03-04 15:49:15.514
53,-69892.94379,-34878.71258,-16384.99098,-17581.39045,-19393.60284,-30457.11284,-32209.66842,-60510.28496,0.072,0.776,0.582,192,0,0,0,0,0,0,0,0,0,1709547556,0, 2024-03-04 15:49:15.514
54,-69949.80662,-34897.68921,-15870.47617,-17620.93069,-19286.73915,-30498.57533,-32022.07023,-60499.55612,0.072,0.776,0.582,192,0,0,0,0,0,0,0,0,0,1709547556,0, 2024-03-04 15:49:15.514
55,-69937.06613,-34879.87487,-15823.71632,-17614.53809,-19307.9733,-30496.74249,-32055.59785,-60518.89038,0.072,0.776,0.582,192,0,0,0,0,0,0,0,0,0,1709547556,0, 2024-03-04 15:49:15.514
56,-69877.34227,-34852.53869,-16290.75602,-17573.90262,-19424.33648,-30455.83879,-32254.37191,-60535.49773,0.072,0.776,0.582,192,0,0,0,0,0,0,0,0,0,1709547556,0, 2024-03-04 15:49:15.514
57,-69858.4774,-34854.10331,-16648.22747,-17559.5975,-19487.70368,-30437.62212,-32359.38041,-60543.74552,0.072,0.776,0.582,192,0,0,0,0,0,0,0,0,0,1709547556,0, 2024-03-04 15:49:15.514
58,-69908.67941,-34883.04882,-16389.81895,-17591.47109,-19405.42691,-30465.27123,-32217.53624,-60512.22956,0.072,0.776,0.582,192,0,0,0,0,0,0,0,0,0,1709547556,0, 2024-03-04 15:49:15.514
59,-69963.55295,-34902.07015,-15862.42954,-17625.95983,-19285.95683,-30501.19048,-31996.74571,-60483.32876,0.072,0.776,0.582,192,0,0,0,0,0,0,0,0,0,1709547556,0, 2024-03-04 15:49:15.514
60,-69953.49466,-34889.41907,-15820.63178,-17620.57306,-19308.10741,-30504.18562,-32041.4939,-60523.62895,0.074,0.776,0.586,192,2,80,24,64,18,80,0,0,0,1709547556,0, 2024-03-04 15:49:15.514
61,-69881.81262,-34855.84675,-16285.41395,-17569.85695,-19425.02939,-30458.63276,-32275.04728,-60555.83782,0.074,0.776,0.586,192,0,0,0,0,0,0,0,0,0,1709547556,0, 2024-03-04 15:49:15.514
62,-69840.81952,-34840.82637,-16623.64055,-17536.37404,-19464.72609,-30424.65811,-32351.78081,-60533.06139,0.074,0.776,0.586,192,0,0,0,0,0,0,0,0,0,1709547556,0, 2024-03-04 15:49:15.514
63,-69896.85534,-34877.79616,-16369.43416,-17577.61301,-19393.89341,-30463.99718,-32205.39924,-60516.81167,0.074,0.776,0.586,192,0,0,0,0,0,0,0,0,0,1709547556,0, 2024-03-04 15:49:15.514
64,-69961.6754,-34908.52981,-15865.71525,-17630.51958,-19291.09774,-30518.13311,-32018.24808,-60522.53372,0.074,0.776,0.586,192,0,0,0,0,0,0,0,0,0,1709547556,0, 2024-03-04 15:49:15.514
65,-69952.01945,-34893.55414,-15827.2926,-17626.13864,-19317.13752,-30516.45673,-32056.89425,-60539.78926,0.074,0.776,0.586,192,0,0,0,0,0,0,0,0,0,1709547556,0, 2024-03-04 15:49:15.514
66,-69886.55119,-34860.47356,-16293.79586,-17582.0163,-19434.37242,-30475.06129,-32268.05118,-60578.41308,0.074,0.776,0.586,192,0,0,0,0,0,0,0,0,0,1709547556,0, 2024-03-04 15:49:15.514
67,-69858.27623,-34853.34335,-16647.78044,-17561.96678,-19490.02826,-30452.84366,-32370.48922,-60594.37222,0.074,0.776,0.586,192,0,0,0,0,0,0,0,0,0,1709547556,0, 2024-03-04 15:49:15.514
68,-69910.4005,-34883.56291,-16392.36705,-17595.65086,-19412.17714,-30478.72698,-32228.35448,-60547.34415,0.074,0.776,0.586,192,0,0,0,0,0,0,0,0,0,1709547556,0, 2024-03-04 15:49:15.514
69,-69968.17976,-34906.02641,-15878.72396,-17635.72754,-19304.06175,-30515.62971,-32039.37048,-60504.18294,0.074,0.776,0.586,192,0,0,0,0,0,0,0,0,0,1709547556,0, 2024-03-04 15:49:15.514
70,-69952.33237,-34888.45794,-15837.37324,-17625.62455,-19316.46697,-30508.61126,-32075.73677,-60518.06337,0.072,0.78,0.59,192,2,64,24,96,18,112,0,0,0,1709547556,0, 2024-03-04 15:49:15.514
71,-69881.99143,-34851.30934,-16303.76474,-17575.69076,-19423.8671,-30460.06327,-32289.91119,-60543.92434,0.072,0.78,0.59,192,0,0,0,0,0,0,0,0,0,1709547556,0, 2024-03-04 15:49:15.514
72,-69857.06924,-34849.65531,-16663.51606,-17558.9493,-19482.74159,-30438.6056,-32397.93717,-60553.28972,0.072,0.78,0.59,192,0,0,0,0,0,0,0,0,0,1709547556,0, 2024-03-04 15:49:15.514
73,-69913.88737,-34892.28009,-16410.2261,-17604.88213,-19405.87394,-30477.96702,-32259.87044,-60538.89519,0.072,0.78,0.59,192,0,0,0,0,0,0,0,0,0,1709547556,0, 2024-03-04 15:49:15.514
74,-69967.88919,-34913.64836,-15892.38088,-17645.51761,-19297.13271,-30516.47908,-32073.16632,-60510.37437,0.072,0.78,0.59,192,0,0,0,0,0,0,0,0,0,1709547556,0, 2024-03-04 15:49:15.514
75,-69949.82898,-34892.14598,-15833.037,-17632.37478,-19316.51167,-30505.88435,-32118.74153,-60518.68922,0.072,0.78,0.59,192,0,0,0,0,0,0,0,0,0,1709547556,0, 2024-03-04 15:49:15.514
76,-69885.07597,-34859.95947,-16299.16028,-17583.15624,-19425.23055,-30458.4763,-32326.29983,-60540.90685,0.072,0.78,0.59,192,0,0,0,0,0,0,0,0,0,1709547556,0, 2024-03-04 15:49:15.514
77,-69858.90208,-34857.07609,-16655.89412,-17564.00079,-19484.59679,-30438.96323,-32432.35885,-60548.59585,0.072,0.78,0.59,192,0,0,0,0,0,0,0,0,0,1709547556,0, 2024-03-04 15:49:15.514
78,-69909.84171,-34885.61927,-16403.11824,-17600.00945,-19407.61738,-30472.28968,-32287.5866,-60543.4326,0.072,0.78,0.59,192,0,0,0,0,0,0,0,0,0,1709547556,0, 2024-03-04 15:49:15.514
79,-69970.59375,-34909.37917,-15899.28757,-17640.75668,-19293.91406,-30513.03691,-32089.68426,-60520.27619,0.072,0.78,0.59,192,0,0,0,0,0,0,0,0,0,1709547556,0, 2024-03-04 15:49:15.514
80,-69958.88143,-34892.81653,-15871.45965,-17631.05603,-19314.34355,-30505.862,-32123.63656,-60523.29368,0.068,0.778,0.582,192,2,32,24,80,18,48,0,0,0,1709547556,0, 2024-03-04 15:49:15.514
81,-69892.09442,-34856.562,-16348.78115,-17582.97742,-19421.22959,-30460.06327,-32307.12203,-60557.84947,0.068,0.778,0.582,192,0,0,0,0,0,0,0,0,0,1709547556,0, 2024-03-04 15:49:15.514
82,-69861.58429,-34848.40361,-16707.97368,-17555.97652,-19475.85725,-30429.59785,-32418.50077,-60531.07208,0.068,0.778,0.582,192,0,0,0,0,0,0,0,0,0,1709547556,0, 2024-03-04 15:49:15.514
83,-69914.9379,-34884.05465,-16458.41646,-17594.1533,-19402.72235,-30463.28193,-32288.48067,-60496.0469,0.068,0.778,0.582,192,0,0,0,0,0,0,0,0,0,1709547556,0, 2024-03-04 15:49:15.514
84,-69973.32066,-34911.25672,-15958.34088,-17642.99186,-19297.55739,-30515.74147,-32095.56277,-60507.22277,0.068,0.778,0.582,192,0,0,0,0,0,0,0,0,0,1709547556,0, 2024-03-04 15:49:15.514
85,-69961.85421,-34898.40447,-15926.33318,-17641.0249,-19322.88192,-30520.34593,-32128.97863,-60544.41608,0.068,0.778,0.582,192,0,0,0,0,0,0,0,0,0,1709547556,0, 2024-03-04 15:49:15.514
86,-69903.56087,-34875.11395,-16400.41368,-17604.27864,-19438.95452,-30486.30422,-32338.30271,-60583.71044,0.068,0.778,0.582,192,0,0,0,0,0,0,0,0,0,1709547556,0, 2024-03-04 15:49:15.514
87,-69862.88069,-34857.74664,-16742.21656,-17568.15822,-19476.08077,-30446.92045,-32421.65237,-60565.53847,0.068,0.778,0.582,192,0,0,0,0,0,0,0,0,0,1709547556,0, 2024-03-04 15:49:15.514
88,-69919.63177,-34892.28009,-16478.73419,-17604.56921,-19393.53578,-30476.76003,-32268.25235,-60524.88065,0.068,0.778,0.582,192,0,0,0,0,0,0,0,0,0,1709547556,0, 2024-03-04 15:49:15.514
89,-69985.88234,-34925.45008,-15985.94528,-17659.17452,-19302.34066,-30531.32064,-32093.43935,-60522.46666,0.068,0.778,0.582,192,0,0,0,0,0,0,0,0,0,1709547556,0, 2024-03-04 15:49:15.514
90,-69972.47129,-34913.82717,-15953.40114,-17658.12399,-19324.5583,-30536.37213,-32133.7619,-60568.55596,0.06,0.778,0.584,192,1,224,24,80,18,64,0,0,0,1709547556,0, 2024-03-04 15:49:15.514
91,-69899.64931,-34876.03037,-16423.43598,-17608.57017,-19436.85346,-30487.82414,-32333.74296,-60601.16715,0.06,0.778,0.584,192,0,0,0,0,0,0,0,0,0,1709547556,0, 2024-03-04 15:49:15.995
92,-69877.34227,-34871.09064,-16771.98908,-17582.59744,-19490.69881,-30453.91654,-32434.12464,-60572.82514,0.06,0.778,0.584,192,0,0,0,0,0,0,0,0,0,1709547556,0, 2024-03-04 15:49:15.995
93,-69932.99811,-34907.27811,-16512.55238,-17621.35537,-19411.23836,-30487.06418,-32284.70323,-60542.24796,0.06,0.778,0.584,192,0,0,0,0,0,0,0,0,0,1709547556,0, 2024-03-04 15:49:15.995
94,-69991.98437,-34930.05454,-16007.55942,-17662.54963,-19305.80518,-30527.54319,-32092.32176,-60522.69018,0.06,0.778,0.584,192,0,0,0,0,0,0,0,0,0,1709547556,0, 2024-03-04 15:49:15.995
95,-69972.33718,-34906.09347,-15965.44873,-17645.22703,-19318.70214,-30513.72981,-32123.18952,-60529.41805,0.06,0.778,0.584,192,0,0,0,0,0,0,0,0,0,1709547556,0, 2024-03-04 15:49:15.995
96,-69906.13132,-34874.4434,-16431.86258,-17600.85882,-19431.42199,-30473.36256,-32333.34062,-60577.94369,0.06,0.778,0.584,192,0,0,0,0,0,0,0,0,0,1709547556,0, 2024-03-04 15:49:15.995
97,-69883.15372,-34878.31025,-16797.38066,-17587.1572,-19492.71047,-30457.7834,-32419.12662,-60604.11758,0.06,0.778,0.584,192,0,0,0,0,0,0,0,0,0,1709547556,0, 2024-03-04 15:49:15.995
98,-69932.88635,-34906.74167,-16534.01006,-17614.09105,-19408.4891,-30477.92232,-32286.91605,-60549.31111,0.06,0.778,0.584,192,0,0,0,0,0,0,0,0,0,1709547556,0, 2024-03-04 15:49:15.995
99,-70002.95907,-34937.2071,-16025.35141,-17658.23575,-19309.78379,-30521.06118,-32106.71629,-60507.40159,0.06,0.778,0.584,192,0,0,0,0,0,0,0,0,0,1709547556,0, 2024-03-04 15:49:15.995
100,-69985.18944,-34918.27517,-15986.68289,-17646.83636,-19324.62535,-30517.08257,-32128.17396,-60540.10219,0.064,0.778,0.588,192,2,0,24,80,18,96,0,0,0,1709547556,0, 2024-03-04 15:49:15.995
101,-69921.59872,-34885.52986,-16453.14145,-17599.13774,-19435.60176,-30472.75906,-32331.15015,-60563.45976,0.064,0.778,0.588,192,0,0,0,0,0,0,0,0,0,1709547556,0, 2024-03-04 15:49:15.995
102,-69892.45205,-34875.22571,-16800.28639,-17569.11934,-19487.52487,-30438.69501,-32420.98181,-60530.62505,0.064,0.778,0.588,192,0,0,0,0,0,0,0,0,0,1709547556,0, 2024-03-04 15:49:15.995
103,-69939.56953,-34905.64643,-16542.03433,-17603.36221,-19410.09842,-30471.64148,-32282.71392,-60520.92439,0.064,0.778,0.588,192,0,0,0,0,0,0,0,0,0,1709547556,0, 2024-03-04 15:49:15.995
104,-69999.89688,-34933.94374,-16039.03068,-17654.57006,-19316.60108,-30526.24679,-32102.80473,-60540.68333,0.064,0.778,0.588,192,0,0,0,0,0,0,0,0,0,1709547556,0, 2024-03-04 15:49:15.995
105,-69991.26911,-34920.44329,-15994.14837,-17651.28436,-19337.29879,-30526.24679,-32140.1545,-60559.97289,0.064,0.778,0.588,192,0,0,0,0,0,0,0,0,0,1709547556,0, 2024-03-04 15:49:15.995
106,-69929.26537,-34888.68146,-16464.07145,-17607.49729,-19448.74459,-30485.14193,-32344.24828,-60581.49762,0.064,0.778,0.588,192,0,0,0,0,0,0,0,0,0,1709547556,0, 2024-03-04 15:49:15.995
107,-69892.4297,-34877.59499,-16803.54974,-17579.35644,-19489.78239,-30456.46464,-32438.1256,-60581.18469,0.064,0.778,0.588,192,0,0,0,0,0,0,0,0,0,1709547556,0, 2024-03-04 15:49:15.995
108,-69951.14773,-34915.41414,-16540.67088,-17619.8578,-19418.61444,-30493.63559,-32293.82274,-60557.42479,0.064,0.778,0.588,192,0,0,0,0,0,0,0,0,0,1709547556,0, 2024-03-04 15:49:15.995
109,-70017.46536,-34946.86305,-16034.58268,-17669.65749,-19324.11126,-30542.87649,-32113.2877,-60538.62697,0.064,0.778,0.588,192,0,0,0,0,0,0,0,0,0,1709547556,0, 2024-03-04 15:49:15.995
110,-69993.75015,-34922.45494,-15980.13383,-17654.95004,-19333.85662,-30531.00771,-32142.34497,-60544.01374,0.076,0.784,0.588,192,2,96,24,128,18,96,0,0,0,1709547556,0, 2024-03-04 15:49:15.995
111,-69924.95148,-34891.1178,-16444.69249,-17611.20768,-19443.11195,-30489.67934,-32347.31047,-60574.99326,0.076,0.784,0.588,192,0,0,0,0,0,0,0,0,0,1709547556,0, 2024-03-04 15:49:15.995
112,-69893.41317,-34889.30731,-16800.10757,-17593.52745,-19500.1536,-30469.07103,-32445.70284,-60582.4811,0.076,0.784,0.588,192,0,0,0,0,0,0,0,0,0,1709547556,0, 2024-03-04 15:49:15.995
113,-69943.57049,-34922.25378,-16547.57757,-17632.19597,-19426.07992,-30503.89504,-32296.08027,-60570.58997,0.076,0.784,0.588,192,0,0,0,0,0,0,0,0,0,1709547556,0, 2024-03-04 15:49:15.995
114,-70000.29922,-34943.93497,-16033.88977,-17675.96068,-19322.79251,-30549.09027,-32118.36155,-60566.20903,0.076,0.784,0.588,192,0,0,0,0,0,0,0,0,0,1709547556,0, 2024-03-04 15:49:15.995
115,-69983.35659,-34921.44912,-15974.65765,-17659.12982,-19332.53787,-30534.87456,-32143.75313,-60551.83685,0.076,0.784,0.588,192,0,0,0,0,0,0,0,0,0,1709547556,0, 2024-03-04 15:49:15.995
116,-69924.25858,-34892.12363,-16446.54768,-17612.59349,-19449.95158,-30490.70752,-32348.91979,-60573.31688,0.076,0.784,0.588,192,0,0,0,0,0,0,0,0,0,1709547556,0, 2024-03-04 15:49:15.995
117,-69902.59974,-34892.43655,-16808.40007,-17593.63921,-19513.05056,-30470.74741,-32449.92732,-60586.86204,0.076,0.784,0.588,192,0,0,0,0,0,0,0,0,0,1709547556,0, 2024-03-04 15:49:15.995
118,-69952.53354,-34925.62889,-16549.38806,-17627.03271,-19431.31023,-30499.5141,-32291.83344,-60553.13326,0.076,0.784,0.588,192,0,0,0,0,0,0,0,0,0,1709547556,0, 2024-03-04 15:49:15.995
119,-70009.86576,-34948.1818,-16037.33194,-17669.1881,-19326.01116,-30541.33422,-32093.21583,-60538.44816,0.076,0.784,0.588,192,0,0,0,0,0,0,0,0,0,1709547556,0, 2024-03-04 15:49:15.995
120,-69994.51011,-34931.35094,-15992.5167,-17665.05303,-19345.27836,-30539.63548,-32132.01846,-60568.84653,0.078,0.784,0.584,192,2,112,24,128,18,64,0,0,0,1709547556,0, 2024-03-04 15:49:15.995
121,-69924.66091,-34891.20721,-16445.07247,-17613.30874,-19450.91271,-30488.22647,-32330.88193,-60589.49954,0.078,0.784,0.584,192,0,0,0,0,0,0,0,0,0,1709547556,0, 2024-03-04 15:49:15.995
122,-69901.4151,-34887.07213,-16801.22516,-17590.01822,-19508.98254,-30459.70565,-32414.14218,-60588.80664,0.078,0.784,0.584,192,0,0,0,0,0,0,0,0,0,1709547556,0, 2024-03-04 15:49:15.995
123,-69956.86978,-34922.34319,-16545.05182,-17626.58568,-19432.13724,-30490.32754,-32290.02294,-60558.83295,0.078,0.784,0.584,192,0,0,0,0,0,0,0,0,0,1709547556,0, 2024-03-04 15:49:15.995
124,-70019.23114,-34947.82417,-16029.37472,-17672.27264,-19328.93924,-30533.80168,-32108.45972,-60539.5881,0.078,0.784,0.584,192,0,0,0,0,0,0,0,0,0,1709547556,0, 2024-03-04 15:49:15.995
125,-70000.43333,-34927.14881,-15988.53809,-17662.48258,-19348.00528,-30527.25262,-32143.88724,-60551.63569,0.078,0.784,0.584,192,0,0,0,0,0,0,0,0,0,1709547556,0, 2024-03-04 15:49:15.995
126,-69932.55108,-34894.91759,-16453.8567,-17617.68968,-19463.58615,-30486.59479,-32351.66906,-60585.38682,0.078,0.784,0.584,192,0,0,0,0,0,0,0,0,0,1709547556,0, 2024-03-04 15:49:15.995
127,-69910.82518,-34895.05171,-16810.32232,-17599.74123,-19525.85811,-30468.57929,-32458.06336,-60596.40623,0.078,0.784,0.584,192,0,0,0,0,0,0,0,0,0,1709547556,0, 2024-03-04 15:49:15.995
128,-69961.7201,-34926.43355,-16548.42693,-17634.22997,-19443.80485,-30502.6657,-32313.73815,-60581.25175,0.078,0.784,0.584,192,0,0,0,0,0,0,0,0,0,1709547556,0, 2024-03-04 15:49:15.995
129,-70015.23018,-34947.80182,-16031.38638,-17676.16185,-19335.73417,-30548.26326,-32122.8766,-60566.96899,0.078,0.784,0.584,192,0,0,0,0,0,0,0,0,0,1709547556,0, 2024-03-04 15:49:15.995
130,-69996.74529,-34926.21004,-15984.38066,-17663.62252,-19346.03832,-30540.28368,-32152.35855,-60561.38105,0.078,0.784,0.584,192,0,0,0,0,0,0,0,0,0,1709547556,0, 2024-03-04 15:49:15.995
131,-69928.25954,-34894.67173,-16444.46897,-17615.00747,-19451.73972,-30495.93782,-32347.86926,-60581.63173,0.074,0.788,0.586,192,2,80,24,160,18,80,0,0,0,1709547556,0, 2024-03-04 15:49:15.995
132,-69903.65027,-34893.6659,-16796.41954,-17591.87342,-19508.87078,-30469.00397,-32447.93802,-60573.07101,0.074,0.788,0.586,192,0,0,0,0,0,0,0,0,0,1709547556,0, 2024-03-04 15:49:15.995
133,-69962.3236,-34931.68621,-16537.29576,-17629.08907,-19434.88651,-30500.7211,-32306.00444,-60540.41511,0.074,0.788,0.586,192,0,0,0,0,0,0,0,0,0,1709547556,0, 2024-03-04 15:49:15.995
134,-70020.08051,-34960.85524,-16032.43691,-17676.96651,-19339.3775,-30550.85606,-32120.55202,-60538.17994,0.074,0.788,0.586,192,0,0,0,0,0,0,0,0,0,1709547556,0, 2024-03-04 15:49:15.995
135,-70005.44012,-34942.41505,-15994.21543,-17666.50589,-19356.92362,-30543.74821,-32148.51405,-60558.38592,0.074,0.788,0.586,192,0,0,0,0,0,0,0,0,0,1709547556,0, 2024-03-04 15:49:15.995
136,-69933.10987,-34902.94187,-16449.52046,-17614.04635,-19457.88645,-30491.7357,-32341.87899,-60583.33046,0.074,0.788,0.586,192,0,0,0,0,0,0,0,0,0,1709547556,0, 2024-03-04 15:49:15.995
137,-69906.24307,-34901.48901,-16805.85197,-17595.98614,-19519.28669,-30470.99328,-32453.48125,-60587.73376,0.074,0.788,0.586,192,0,0,0,0,0,0,0,0,0,1709547556,0, 2024-03-04 15:49:15.995
138,-69968.1127,-34939.06229,-16549.11984,-17639.75085,-19446.66588,-30511.33818,-32310.6536,-60584.20218,0.074,0.788,0.586,192,0,0,0,0,0,0,0,0,0,1709547556,0, 2024-03-04 15:49:15.995
139,-70033.62567,-34967.27019,-16036.50493,-17689.79641,-19348.94405,-30561.56255,-32123.07776,-60578.79306,0.074,0.788,0.586,192,0,0,0,0,0,0,0,0,0,1709547556,0, 2024-03-04 15:49:15.995
140,-70017.15243,-34948.83,-15990.46034,-17678.62054,-19365.81962,-30553.47121,-32153.61025,-60581.51997,0.074,0.788,0.586,192,0,0,0,0,0,0,0,0,0,1709547556,0, 2024-03-04 15:49:15.995
141,-69940.88828,-34909.31212,-16440.84799,-17625.28928,-19465.57545,-30501.88339,-32354.46302,-60604.87754,0.076,0.786,0.586,192,2,96,24,144,18,80,0,0,0,1709547556,0, 2024-03-04 15:49:15.995
142,-69908.12062,-34898.2033,-16787.0318,-17596.00849,-19512.2906,-30469.71923,-32447.04395,-60598.57435,0.076,0.786,0.586,192,0,0,0,0,0,0,0,0,0,1709547556,0, 2024-03-04 15:49:15.995
143,-69966.95041,-34932.17795,-16528.1986,-17628.57498,-19434.66299,-30494.79788,-32298.85188,-60549.64638,0.076,0.786,0.586,192,0,0,0,0,0,0,0,0,0,1709547556,0, 2024-03-04 15:49:15.995
144,-70038.36424,-34966.48788,-16025.73139,-17684.32023,-19342.05971,-30549.85023,-32125.35764,-60551.47923,0.076,0.786,0.586,192,0,0,0,0,0,0,0,0,0,1709547556,0, 2024-03-04 15:49:15.995
145,-70024.57321,-34950.75225,-15983.37483,-17678.62054,-19362.15393,-30547.95033,-32162.34978,-60583.66574,0.076,0.786,0.586,192,0,0,0,0,0,0,0,0,0,1709547556,0, 2024-03-04 15:49:15.995
146,-69947.63851,-34909.64739,-16436.15412,-17620.17073,-19462.58032,-30490.93103,-32354.93241,-60583.8669,0.076,0.786,0.586,192,0,0,0,0,0,0,0,0,0,1709547556,0, 2024-03-04 15:49:15.995
147,-69918.33537,-34903.61242,-16780.84037,-17596.38847,-19515.86688,-30464.35481,-32443.69119,-60576.33437,0.076,0.786,0.586,192,0,0,0,0,0,0,0,0,0,1709547556,0, 2024-03-04 15:49:15.995
148,-69978.28275,-34944.47141,-16529.91969,-17642.32131,-19445.12361,-30505.61613,-32304.03749,-60555.23432,0.076,0.786,0.586,192,0,0,0,0,0,0,0,0,0,1709547556,0, 2024-03-04 15:49:15.995
149,-70044.15334,-34976.72498,-16027.56423,-17699.31825,-19348.04998,-30565.38469,-32134.49951,-60574.94856,0.076,0.786,0.586,192,0,0,0,0,0,0,0,0,0,1709547556,0, 2024-03-04 15:49:15.995
150,-70023.67914,-34955.2673,-15978.39039,-17691.78572,-19364.97025,-30564.53533,-32167.96007,-60609.23613,0.076,0.786,0.586,192,0,0,0,0,0,0,0,0,0,1709547556,0, 2024-03-04 15:49:15.995
151,-69947.75026,-34913.5366,-16432.77901,-17635.884,-19471.92335,-30509.50533,-32362.73317,-60599.62488,0.07,0.784,0.586,192,2,48,24,128,18,80,0,0,0,1709547556,0, 2024-03-04 15:49:15.995
152,-69919.83294,-34909.22271,-16772.9055,-17610.1795,-19516.06804,-30479.01755,-32430.61542,-60571.84167,0.07,0.784,0.586,192,0,0,0,0,0,0,0,0,0,1709547556,0, 2024-03-04 15:49:15.995
153,-69971.28665,-34938.39174,-16513.82643,-17642.79069,-19438.77571,-30508.38775,-32294.73916,-60549.02053,0.07,0.784,0.586,192,0,0,0,0,0,0,0,0,0,1709547556,0, 2024-03-04 15:49:15.995
154,-70035.39145,-34968.16426,-16002.97731,-17692.70214,-19345.70305,-30561.20492,-32135.0583,-60558.22945,0.07,0.784,0.586,192,0,0,0,0,0,0,0,0,0,1709547556,0, 2024-03-04 15:49:15.995
155,-70021.68983,-34955.15555,-15956.57509,-17682.95678,-19364.72438,-30554.83467,-32161.52277,-60575.32854,0.07,0.784,0.586,192,0,0,0,0,0,0,0,0,0,1709547556,0, 2024-03-04 15:49:15.995
156,-69950.94656,-34916.30821,-16407.678,-17627.36799,-19463.54144,-30499.31294,-32354.7536,-60586.16913,0.07,0.784,0.586,192,0,0,0,0,0,0,0,0,0,1709547556,0, 2024-03-04 15:49:15.995
157,-69921.30815,-34907.92631,-16756.47697,-17603.63044,-19518.1244,-30473.94371,-32450.73199,-60594.93102,0.07,0.784,0.586,192,0,0,0,0,0,0,0,0,0,1709547556,0, 2024-03-04 15:49:15.995
158,-69980.87555,-34948.62884,-16504.90809,-17651.61963,-19453.21494,-30520.6812,-32313.157,-60597.65793,0.07,0.784,0.586,192,0,0,0,0,0,0,0,0,0,1709547556,0, 2024-03-04 15:49:15.995
159,-70042.34285,-34975.20506,-16002.26206,-17700.45819,-19362.51156,-30570.10091,-32139.17102,-60598.39554,0.07,0.784,0.586,192,0,0,0,0,0,0,0,0,0,1709547556,0, 2024-03-04 15:49:15.995
160,-70010.71513,-34944.09143,-15942.0241,-17674.17254,-19366.87015,-30543.03295,-32166.30604,-60569.78531,0.07,0.784,0.586,192,0,0,0,0,0,0,0,0,0,1709547556,0, 2024-03-04 15:49:15.995
161,-69949.04667,-34912.46371,-16394.91515,-17626.96566,-19473.82325,-30495.80371,-32358.6875,-60580.24592,0.076,0.784,0.584,192,2,96,24,128,18,64,0,0,0,1709547556,0, 2024-03-04 15:49:15.995
162,-69930.24885,-34917.89519,-16758.86861,-17615.05218,-19538.79977,-30484.20316,-32470.98267,-60608.61029,0.076,0.784,0.584,192,0,0,0,0,0,0,0,0,0,1709547556,0, 2024-03-04 15:49:15.995
163,-69991.31381,-34959.29062,-16507.09856,-17659.12982,-19469.86699,-30522.87168,-32330.92664,-60582.83872,0.076,0.784,0.584,192,0,0,0,0,0,0,0,0,0,1709547556,0, 2024-03-04 15:49:15.995
164,-70043.48279,-34973.86396,-15987.28639,-17688.94704,-19355.91779,-30550.0514,-32130.23032,-60542.58323,0.076,0.784,0.584,192,0,0,0,0,0,0,0,0,0,1709547556,0, 2024-03-04 15:49:15.995
165,-70025.132,-34951.02047,-15937.97844,-17672.04913,-19368.36772,-30538.20497,-32159.10878,-60556.55307,0.076,0.784,0.584,192,0,0,0,0,0,0,0,0,0,1709547556,0, 2024-03-04 15:49:15.995
166,-69952.33237,-34912.68723,-16401.68773,-17620.64011,-19479.38883,-30490.17107,-32360.6321,-60576.62494,0.076,0.784,0.584,192,0,0,0,0,0,0,0,0,0,1709547556,0, 2024-03-04 15:49:15.995
167,-69922.31398,-34907.47928,-16761.08143,-17600.34473,-19538.71036,-30468.26636,-32464.41125,-60581.9223,0.076,0.784,0.584,192,0,0,0,0,0,0,0,0,0,1709547556,0, 2024-03-04 15:49:15.995
168,-69986.41878,-34948.51708,-16514.09465,-17644.89176,-19467.58711,-30509.97472,-32328.15502,-60574.34506,0.076,0.784,0.584,192,0,0,0,0,0,0,0,0,0,1709547556,0, 2024-03-04 15:49:15.995
169,-70057.94436,-34984.43633,-16007.58177,-17700.72641,-19367.02661,-30567.91044,-32141.62971,-60578.61424,0.076,0.784,0.584,192,0,0,0,0,0,0,0,0,0,1709547556,0, 2024-03-04 15:49:15.995
170,-70051.64117,-34974.78038,-15965.31462,-17699.36296,-19387.59022,-30571.08439,-32150.90569,-60602.93294,0.076,0.784,0.584,192,0,0,0,0,0,0,0,0,0,1709547556,0, 2024-03-04 15:49:15.995
171,-69987.02228,-34946.37131,-16434.34363,-17656.67113,-19502.29937,-30530.09129,-32375.18309,-60626.24581,0.078,0.784,0.582,192,2,112,24,128,18,48,0,0,0,1709547556,0, 2024-03-04 15:49:15.995
172,-69946.14094,-34932.35677,-16783.00849,-17624.9093,-19550.35562,-30492.60741,-32485.33249,-60596.83092,0.078,0.784,0.582,192,0,0,0,0,0,0,0,0,0,1709547556,0, 2024-03-04 15:49:15.995
173,-69999.69572,-34968.43248,-16527.63981,-17666.08121,-19477.91362,-30530.20305,-32329.04909,-60584.24688,0.078,0.784,0.582,192,0,0,0,0,0,0,0,0,0,1709547556,0, 2024-03-04 15:49:15.995
174,-70063.19702,-34992.9747,-16015.53899,-17708.52717,-19370.91581,-30574.32539,-32134.83478,-60561.76103,0.078,0.784,0.582,192,0,0,0,0,0,0,0,0,0,1709547556,0, 2024-03-04 15:49:15.995
175,-70042.78988,-34971.1594,-15959.27965,-17692.27745,-19382.2258,-30562.38956,-32162.12626,-60562.72215,0.078,0.784,0.582,192,0,0,0,0,0,0,0,0,0,1709547556,0, 2024-03-04 15:49:15.995
176,-69970.99608,-34933.452,-16421.04434,-17642.9248,-19494.05157,-30516.7473,-32364.29779,-60598.84257,0.078,0.784,0.582,192,0,0,0,0,0,0,0,0,0,1709547556,0, 2024-03-04 15:49:15.995
177,-69942.72112,-34927.77466,-16774.1125,-17620.26013,-19550.40032,-30492.83093,-32464.65712,-60604.47521,0.078,0.784,0.582,192,0,0,0,0,0,0,0,0,0,1709547556,0, 2024-03-04 15:49:15.995
178,-69993.05725,-34958.68712,-16513.20058,-17658.01223,-19470.40343,-30527.94552,-32322.50003,-60579.24009,0.078,0.784,0.582,192,0,0,0,0,0,0,0,0,0,1709547556,0, 2024-03-04 15:49:15.995
179,-70048.66839,-34988.99609,-16005.3466,-17713.84689,-19373.48627,-30583.91429,-32143.3508,-60576.42377,0.078,0.784,0.582,192,0,0,0,0,0,0,0,0,0,1709547556,0, 2024-03-04 15:49:15.995
180,-70034.81031,-34971.00293,-15961.58188,-17703.34157,-19390.09361,-30576.76173,-32172.69864,-60597.68028,0.078,0.784,0.582,192,0,0,0,0,0,0,0,0,0,1709547556,0, 2024-03-04 15:49:15.995
181,-69980.76379,-34934.18961,-16421.58078,-17646.99282,-19495.7056,-30520.90472,-32365.30362,-60605.99513,0.068,0.782,0.584,192,2,32,24,112,18,64,0,0,0,1709547556,0, 2024-03-04 15:49:15.995
182,-69956.08746,-34926.70178,-16779.3428,-17621.42242,-19555.1836,-30491.40042,-32468.34516,-60595.17689,0.068,0.782,0.584,192,0,0,0,0,0,0,0,0,0,1709547556,0, 2024-03-04 15:49:15.995
183,-70002.51204,-34953.30035,-16519.10144,-17652.26783,-19465.93308,-30519.31775,-32314.43105,-60575.23913,0.068,0.782,0.584,192,0,0,0,0,0,0,0,0,0,1709547556,0, 2024-03-04 15:49:15.995
184,-70065.99099,-34976.92615,-16004.65369,-17697.26189,-19363.71855,-30565.80938,-32126.22936,-60574.16625,0.068,0.782,0.584,192,0,0,0,0,0,0,0,0,0,1709547556,0, 2024-03-04 15:49:15.995
185,-70049.11543,-34948.24886,-15953.4682,-17678.19586,-19379.54359,-30550.00669,-32152.9844,-60576.87081,0.068,0.782,0.584,192,0,0,0,0,0,0,0,0,0,1709547556,0, 2024-03-04 15:49:15.995
186,-69971.42076,-34899.54441,-16407.56624,-17615.87919,-19481.42284,-30489.43347,-32346.14817,-60569.40533,0.068,0.782,0.584,192,0,0,0,0,0,0,0,0,0,1709547556,0, 2024-03-04 15:49:15.995
187,-69941.55883,-34895.96813,-16760.0756,-17593.21452,-19536.45283,-30464.24305,-32445.50168,-60565.31496,0.068,0.782,0.584,192,0,0,0,0,0,0,0,0,0,1709547556,0, 2024-03-04 15:49:15.995
188,-69994.62187,-34933.07202,-16509.82547,-17634.29703,-19468.52588,-30502.0622,-32309.37955,-60562.56569,0.068,0.782,0.584,192,0,0,0,0,0,0,0,0,0,1709547556,0, 2024-03-04 15:49:15.995
189,-70054.68101,-34960.63172,-16004.72075,-17681.43686,-19368.61359,-30551.05723,-32130.96793,-60558.43062,0.068,0.782,0.584,192,0,0,0,0,0,0,0,0,0,1709547556,0, 2024-03-04 15:49:15.995
190,-70039.70534,-34940.51515,-15955.23399,-17671.71385,-19384.72919,-30545.67046,-32144.42368,-60571.037,0.068,0.782,0.584,192,0,0,0,0,0,0,0,0,0,1709547556,0, 2024-03-04 15:49:15.995
191,-69960.11078,-34893.44238,-16412.57303,-17613.08522,-19488.97773,-30491.46747,-32363.33667,-60594.26047,0.068,0.78,0.584,192,2,32,24,96,18,64,0,0,0,1709547556,0, 2024-03-04 15:49:15.995
192,-69935.83678,-34893.84471,-16770.64798,-17596.65669,-19551.3391,-30472.20027,-32472.97197,-60597.27795,0.068,0.78,0.584,192,0,0,0,0,0,0,0,0,0,1709547556,0, 2024-03-04 15:49:15.995
193,-69992.58786,-34933.85433,-16513.11118,-17638.65562,-19472.88447,-30509.63944,-32322.23181,-60569.20416,0.068,0.78,0.584,192,0,0,0,0,0,0,0,0,0,1709547556,0, 2024-03-04 15:49:15.995
194,-70059.28547,-34968.41013,-16007.91705,-17693.79737,-19379.16361,-30566.21171,-32137.71816,-60573.31688,0.068,0.78,0.584,192,0,0,0,0,0,0,0,0,0,1709547556,0, 2024-03-04 15:49:15.995
195,-70039.32536,-34945.43254,-15961.13485,-17681.21334,-19391.27825,-30558.32154,-32170.57522,-60595.46746,0.068,0.78,0.584,192,0,0,0,0,0,0,0,0,0,1709547556,0, 2024-03-04 15:49:15.995
196,-69972.96303,-34910.29559,-16422.63131,-17633.53707,-19502.56759,-30511.85227,-32374.08786,-60621.28372,0.068,0.78,0.584,192,0,0,0,0,0,0,0,0,0,1709547556,0, 2024-03-04 15:49:15.995
197,-69947.68321,-34907.41222,-16784.55076,-17610.58183,-19560.92799,-30485.11958,-32472.81551,-60612.5889,0.068,0.78,0.584,192,0,0,0,0,0,0,0,0,0,1709547556,0, 2024-03-04 15:49:15.995
198,-70000.38862,-34938.41409,-16523.84001,-17641.36018,-19471.2975,-30509.79591,-32314.22988,-60555.07786,0.068,0.78,0.584,192,0,0,0,0,0,0,0,0,0,1709547556,0, 2024-03-04 15:49:15.995
199,-70063.5323,-34967.13608,-16015.33783,-17692.23275,-19370.62524,-30560.51201,-32130.90088,-60545.26544,0.068,0.78,0.584,192,0,0,0,0,0,0,0,0,0,1709547556,0, 2024-03-04 15:49:15.995
200,-70042.49931,-34948.96411,-15969.51675,-17686.68952,-19388.59604,-30559.57324,-32162.86387,-60579.84359,0.068,0.78,0.584,192,0,0,0,0,0,0,0,0,0,1709547556,0, 2024-03-04 15:49:15.995
201,-69968.24681,-34908.4404,-16422.72072,-17630.34077,-19490.83292,-30504.0068,-32354.35126,-60587.55494,0.07,0.78,0.582,192,2,48,24,96,18,48,0,0,0,1709547556,0, 2024-03-04 15:49:15.995
202,-69938.6531,-34903.79124,-16783.16495,-17608.10078,-19548.70159,-30477.45293,-32454.95647,-60578.99422,0.07,0.78,0.582,192,0,0,0,0,0,0,0,0,0,1709547556,0, 2024-03-04 15:49:15.995
203,-70001.75208,-34945.5443,-16538.07807,-17652.29018,-19478.49476,-30519.45186,-32310.72066,-60575.19443,0.07,0.78,0.582,192,0,0,0,0,0,0,0,0,0,1709547556,0, 2024-03-04 15:49:15.995
204,-70075.35637,-34980.30126,-16029.24061,-17708.21425,-19378.58246,-30576.09118,-32131.03499,-60580.91647,0.07,0.78,0.582,192,0,0,0,0,0,0,0,0,0,1709547556,0, 2024-03-04 15:49:15.995
205,-70059.66545,-34958.55301,-15980.58086,-17694.33381,-19394.65337,-30564.31181,-32165.1661,-60579.03893,0.07,0.78,0.582,192,0,0,0,0,0,0,0,0,0,1709547556,0, 2024-03-04 15:49:15.995
206,-69986.79876,-34916.37527,-16442.43496,-17635.95106,-19499.12542,-30506.80077,-32364.58836,-60579.79889,0.07,0.78,0.582,192,0,0,0,0,0,0,0,0,0,1709547556,0, 2024-03-04 15:49:15.995
207,-69947.95143,-34904.01475,-16791.99389,-17601.64113,-19542.55486,-30469.16043,-32451.29078,-60561.17988,0.07,0.78,0.582,192,0,0,0,0,0,0,0,0,0,1709547556,0, 2024-03-04 15:49:15.995
208,-70000.20981,-34937.81059,-16534.99353,-17637.89566,-19466.00014,-30500.94461,-32278.13182,-60539.0293,0.07,0.78,0.582,192,0,0,0,0,0,0,0,0,0,1709547556,0, 2024-03-04 15:49:15.995
209,-70065.02987,-34967.00197,-16023.2727,-17686.80128,-19370.17821,-30551.21369,-32114.42764,-60536.70472,0.07,0.78,0.582,192,0,0,0,0,0,0,0,0,0,1709547556,0, 2024-03-04 15:49:15.995
210,-70057.38557,-34955.89315,-15979.35152,-17683.78379,-19389.82539,-30553.96295,-32165.36727,-60566.99134,0.07,0.78,0.582,192,0,0,0,0,0,0,0,0,0,1709547556,0, 2024-03-04 15:49:15.995
211,-69986.06115,-34916.46468,-16443.08316,-17629.53611,-19496.68908,-30502.73275,-32358.08401,-60590.2148,0.074,0.77,0.582,192,2,80,24,16,18,48,0,0,0,1709547556,0, 2024-03-04 15:49:15.995
212,-69960.20019,-34908.32864,-16806.03079,-17603.54103,-19554.80362,-30475.55303,-32456.92342,-60593.47815,0.074,0.77,0.582,192,0,0,0,0,0,0,0,0,0,1709547556,0, 2024-03-04 15:49:16.476
213,-70011.40803,-34939.95636,-16548.65045,-17641.04726,-19476.79603,-30510.53351,-32318.83434,-60577.3849,0.074,0.77,0.582,192,0,0,0,0,0,0,0,0,0,1709547556,0, 2024-03-04 15:49:16.476
214,-70073.63529,-34970.13121,-16036.32611,-17692.45627,-19379.58829,-30563.4848,-32134.67832,-60572.82514,0.074,0.77,0.582,192,0,0,0,0,0,0,0,0,0,1709547556,0, 2024-03-04 15:49:16.476
215,-70053.71988,-34948.20415,-15985.83352,-17679.71577,-19392.01586,-30554.52175,-32160.96397,-60583.64339,0.074,0.77,0.582,192,0,0,0,0,0,0,0,0,0,1709547556,0, 2024-03-04 15:49:16.476
216,-69982.44017,-34909.75915,-16445.45245,-17624.86459,-19496.13029,-30501.39165,-32363.96251,-60587.13026,0.074,0.77,0.582,192,0,0,0,0,0,0,0,0,0,1709547556,0, 2024-03-04 15:49:16.476
217,-69956.44509,-34906.69696,-16806.99191,-17603.27281,-19554.13306,-30475.84361,-32461.39377,-60580.42474,0.074,0.77,0.582,192,0,0,0,0,0,0,0,0,0,1709547556,0, 2024-03-04 15:49:16.476
218,-70013.30793,-34944.04673,-16558.44051,-17646.16581,-19480.50642,-30514.75799,-32317.80616,-60572.53457,0.074,0.77,0.582,192,0,0,0,0,0,0,0,0,0,1709547556,0, 2024-03-04 15:49:16.476
219,-70079.96083,-34977.50729,-16048.26195,-17701.10639,-19384.30451,-30570.23502,-32136.04178,-60584.38099,0.074,0.77,0.582,192,0,0,0,0,0,0,0,0,0,1709547556,0, 2024-03-04 15:49:16.476
220,-70061.99003,-34963.02336,-16004.54193,-17693.59621,-19400.75539,-30567.10578,-32172.09514,-60593.72402,0.074,0.77,0.582,192,0,0,0,0,0,0,0,0,0,1709547556,0, 2024-03-04 15:49:16.476
221,-69990.33034,-34925.02539,-16473.32507,-17637.7839,-19506.38974,-30513.61805,-32375.02663,-60590.75124,0.072,0.778,0.588,192,2,64,24,80,18,96,0,0,0,1709547556,0, 2024-03-04 15:49:16.476
222,-69961.83186,-34916.26351,-16840.89951,-17610.55948,-19562.80554,-30484.56079,-32472.92727,-60586.25854,0.072,0.778,0.588,192,0,0,0,0,0,0,0,0,0,1709547556,0, 2024-03-04 15:49:16.476
223,-70018.20296,-34951.71338,-16588.92829,-17651.262,-19484.79795,-30521.08354,-32328.62441,-60570.9923,0.072,0.778,0.588,192,0,0,0,0,0,0,0,0,0,1709547556,0, 2024-03-04 15:49:16.476
224,-70076.56337,-34976.05443,-16074.43584,-17698.15596,-19383.25398,-30570.19032,-32142.63554,-60576.7367,0.072,0.778,0.588,192,0,0,0,0,0,0,0,0,0,1709547556,0, 2024-03-04 15:49:16.476
225,-70061.49829,-34957.7707,-16033.37568,-17690.84694,-19403.81758,-30566.32347,-32185.7297,-60601.68124,0.072,0.778,0.588,192,0,0,0,0,0,0,0,0,0,1709547556,0, 2024-03-04 15:49:16.476
226,-69992.4761,-34919.61627,-16494.76039,-17635.66049,-19506.79207,-30509.79591,-32383.20737,-60606.21865,0.072,0.778,0.588,192,0,0,0,0,0,0,0,0,0,1709547556,0, 2024-03-04 15:49:16.476
227,-69962.48006,-34912.39666,-16850.86839,-17607.87727,-19554.89302,-30476.24594,-32472.74846,-60583.08459,0.072,0.778,0.588,192,0,0,0,0,0,0,0,0,0,1709547556,0, 2024-03-04 15:49:16.476
228,-70018.89587,-34947.4889,-16594.29271,-17645.11527,-19472.75036,-30508.70067,-32309.71483,-60560.28581,0.072,0.778,0.588,192,0,0,0,0,0,0,0,0,0,1709547556,0, 2024-03-04 15:49:16.476
229,-70083.53711,-34976.83674,-16078.79443,-17694.62439,-19373.35215,-30557.76275,-32158.95231,-60561.64927,0.072,0.778,0.588,192,0,0,0,0,0,0,0,0,0,1709547556,0, 2024-03-04 15:49:16.476
230,-70062.99586,-34958.82123,-16034.8509,-17685.52723,-19393.13345,-30552.06305,-32199.7219,-60584.71627,0.072,0.778,0.588,192,0,0,0,0,0,0,0,0,0,1709547556,0, 2024-03-04 15:49:16.476
231,-69992.76668,-34921.13619,-16500.16952,-17633.00063,-19500.57828,-30500.54228,-32405.69322,-60609.16908,0.064,0.784,0.586,192,2,0,24,128,18,80,0,0,0,1709547556,0, 2024-03-04 15:49:16.476
232,-69971.15254,-34922.41024,-16864.68176,-17615.49921,-19561.39738,-30478.01172,-32507.86305,-60600.98834,0.064,0.784,0.586,192,0,0,0,0,0,0,0,0,0,1709547556,0, 2024-03-04 15:49:16.476
233,-70021.64513,-34950.95342,-16610.49773,-17649.42916,-19479.90292,-30506.13022,-32359.291,-60564.35383,0.064,0.784,0.586,192,0,0,0,0,0,0,0,0,0,1709547556,0, 2024-03-04 15:49:16.476
234,-70090.82378,-34982.29056,-16099.42509,-17702.06752,-19377.0849,-30560.26614,-32169.23412,-60570.74643,0.064,0.784,0.586,192,0,0,0,0,0,0,0,0,0,1709547556,0, 2024-03-04 15:49:16.476
235,-70079.58085,-34966.26436,-16054.0287,-17695.74197,-19394.92159,-30557.47218,-32213.46822,-60584.67157,0.064,0.784,0.586,192,0,0,0,0,0,0,0,0,0,1709547556,0, 2024-03-04 15:49:16.476
236,-70006.64711,-34924.98069,-16518.38619,-17638.52151,-19498.58898,-30502.64335,-32416.84674,-60582.97283,0.064,0.784,0.586,192,0,0,0,0,0,0,0,0,0,1709547556,0, 2024-03-04 15:49:16.476
237,-69979.89207,-34921.85145,-16884.21719,-17619.58958,-19558.98339,-30483.35379,-32516.33436,-60595.84744,0.064,0.784,0.586,192,0,0,0,0,0,0,0,0,0,1709547556,0, 2024-03-04 15:49:16.476
238,-70039.70534,-34964.25271,-16634.70467,-17667.57878,-19490.02826,-30531.07477,-32376.07716,-60594.43928,0.064,0.784,0.586,192,0,0,0,0,0,0,0,0,0,1709547556,0, 2024-03-04 15:49:16.476
239,-70096.21055,-34986.82797,-16114.46781,-17708.97421,-19379.34242,-30569.22919,-32177.57132,-60553.6697,0.064,0.784,0.586,192,0,0,0,0,0,0,0,0,0,1709547556,0, 2024-03-04 15:49:16.476
240,-70080.89961,-34964.65504,-16069.02672,-17697.79834,-19392.70877,-30560.78023,-32208.19321,-60570.50056,0.064,0.784,0.586,192,0,0,0,0,0,0,0,0,0,1709547556,0, 2024-03-04 15:49:16.476
241,-70016.25836,-34934.34607,-16542.2802,-17656.13468,-19511.32947,-30522.22348,-32419.79717,-60614.55585,0.066,0.78,0.582,192,2,16,24,96,18,48,0,0,0,1709547556,0, 2024-03-04 15:49:16.476
242,-69986.99993,-34929.27223,-16907.57476,-17633.20179,-19571.56742,-30494.35085,-32517.87663,-60600.65306,0.066,0.78,0.582,192,0,0,0,0,0,0,0,0,0,1709547556,0, 2024-03-04 15:49:16.476
243,-70032.0834,-34955.37906,-16643.10892,-17661.14147,-19483.09922,-30516.792,-32362.06262,-60560.1517,0.066,0.78,0.582,192,0,0,0,0,0,0,0,0,0,1709547556,0, 2024-03-04 15:49:16.476
244,-70093.97538,-34979.47424,-16124.30258,-17706.8955,-19374.55915,-30563.08246,-32172.02809,-60560.73285,0.066,0.78,0.582,192,0,0,0,0,0,0,0,0,0,1709547556,0, 2024-03-04 15:49:16.476
245,-70083.58182,-34964.52093,-16076.02281,-17700.88288,-19393.87106,-30560.13203,-32215.1446,-60577.89899,0.066,0.78,0.582,192,0,0,0,0,0,0,0,0,0,1709547556,0, 2024-03-04 15:49:16.476
246,-70009.1058,-34927.28292,-16539.57564,-17650.99378,-19500.42182,-30511.71816,-32412.28699,-60601.77065,0.066,0.78,0.582,192,0,0,0,0,0,0,0,0,0,1709547556,0, 2024-03-04 15:49:16.476
247,-69986.93287,-34930.2557,-16904.71374,-17635.77224,-19562.67143,-30491.93686,-32498.36355,-60608.27501,0.066,0.78,0.582,192,0,0,0,0,0,0,0,0,0,1709547556,0, 2024-03-04 15:49:16.476
248,-70039.03479,-34963.5598,-16643.84653,-17670.23863,-19483.12157,-30521.19529,-32376.21127,-60583.55398,0.066,0.78,0.582,192,0,0,0,0,0,0,0,0,0,1709547556,0, 2024-03-04 15:49:16.476
249,-70099.76448,-34988.66081,-16122.00035,-17716.70791,-19378.31424,-30568.51394,-32180.5441,-60581.63173,0.066,0.78,0.582,192,0,0,0,0,0,0,0,0,0,1709547556,0, 2024-03-04 15:49:16.476
250,-70083.42535,-34968.96892,-16075.86635,-17705.30852,-19399.16842,-30562.83659,-32208.7967,-60598.19437,0.066,0.78,0.582,192,0,0,0,0,0,0,0,0,0,1709547556,0, 2024-03-04 15:49:16.476
251,-70009.59754,-34925.27126,-16535.97701,-17646.79165,-19500.55593,-30507.87366,-32402.13929,-60612.43243,0.066,0.78,0.582,192,0,0,0,0,0,0,0,0,0,1709547556,0, 2024-03-04 15:49:16.476
252,-69982.77545,-34921.60558,-16895.86245,-17622.38355,-19557.08349,-30477.31882,-32503.05742,-60588.9631,0.068,0.774,0.586,192,2,32,24,48,18,80,0,0,0,1709547556,0, 2024-03-04 15:49:16.476
253,-70036.71021,-34960.13999,-16644.6959,-17663.10843,-19480.8864,-30512.56752,-32361.32501,-60560.41992,0.068,0.774,0.586,192,0,0,0,0,0,0,0,0,0,1709547556,0, 2024-03-04 15:49:16.476
254,-70098.40102,-34989.73369,-16131.38808,-17713.57867,-19379.29772,-30565.04942,-32172.22925,-60566.90193,0.068,0.774,0.586,192,0,0,0,0,0,0,0,0,0,1709547556,0, 2024-03-04 15:49:16.476
255,-70089.08034,-34975.54034,-16086.97517,-17707.99073,-19400.93421,-30563.97653,-32203.47699,-60586.61617,0.068,0.774,0.586,192,0,0,0,0,0,0,0,0,0,1709547556,0, 2024-03-04 15:49:16.476
0,-70026.31665,-34938.43644,-16559.42399,-17657.14051,-19510.10013,-30517.21668,-32411.90701,-60607.96208,0.068,0.774,0.586,192,0,0,0,0,0,0,0,0,0,1709547556,0, 2024-03-04 15:49:16.476
1,-69990.97854,-34926.43355,-16905.98779,-17626.2504,-19557.15055,-30484.67254,-32498.69883,-60593.3664,0.068,0.774,0.586,192,0,0,0,0,0,0,0,0,0,1709547556,0, 2024-03-04 15:49:16.476
2,-70035.21264,-34959.46943,-16645.83583,-17663.71192,-19479.81351,-30520.61415,-32350.81969,-60577.07197,0.068,0.774,0.586,192,0,0,0,0,0,0,0,0,0,1709547556,0, 2024-03-04 15:49:16.476
3,-70105.37477,-34993.42173,-16138.71946,-17719.05484,-19382.94105,-30578.9075,-32169.99408,-60593.20993,0.068,0.774,0.586,192,0,0,0,0,0,0,0,0,0,1709547556,0, 2024-03-04 15:49:16.476
4,-70095.31648,-34976.97085,-16087.86924,-17709.04126,-19397.96143,-30572.53725,-32200.54891,-60599.98251,0.068,0.774,0.586,192,0,0,0,0,0,0,0,0,0,1709547556,0, 2024-03-04 15:49:16.476
5,-70028.9318,-34942.23624,-16558.35111,-17659.44274,-19511.0836,-30525.50918,-32406.18496,-60610.39842,0.068,0.774,0.586,192,0,0,0,0,0,0,0,0,0,1709547556,0, 2024-03-04 15:49:16.476
6,-70000.92506,-34938.70466,-16917.56599,-17636.26398,-19565.24188,-30500.1176,-32505.85139,-60597.8591,0.072,0.78,0.588,192,2,64,24,96,18,96,0,0,0,1709547556,0, 2024-03-04 15:49:16.476
7,-70051.59647,-34971.62878,-16662.7561,-17674.2843,-19486.31787,-30535.88039,-32356.36292,-60588.69488,0.072,0.78,0.588,192,0,0,0,0,0,0,0,0,0,1709547556,0, 2024-03-04 15:49:16.476
8,-70116.46123,-34999.56846,-16154.85742,-17724.46397,-19388.57369,-30588.16112,-32172.58688,-60603.55879,0.072,0.78,0.588,192,0,0,0,0,0,0,0,0,0,1709547556,0, 2024-03-04 15:49:16.476
9,-70100.25622,-34977.86492,-16101.95084,-17711.70112,-19400.26366,-30576.11353,-32196.39149,-60595.69098,0.072,0.78,0.588,192,0,0,0,0,0,0,0,0,0,1709547556,0, 2024-03-04 15:49:16.476
10,-70026.58487,-34936.08951,-16561.25683,-17654.90534,-19500.37712,-30518.89307,-32385.93428,-60586.90674,0.072,0.78,0.588,192,0,0,0,0,0,0,0,0,0,1709547556,0, 2024-03-04 15:49:16.476
11,-69996.38766,-34933.58611,-16924.27151,-17635.45932,-19561.37503,-30496.94365,-32502.36452,-60598.03791,0.072,0.78,0.588,192,0,0,0,0,0,0,0,0,0,1709547556,0, 2024-03-04 15:49:16.476
12,-70051.50706,-34968.56659,-16669.17106,-17673.97138,-19484.41797,-30530.42657,-32374.0208,-60580.11181,0.072,0.78,0.588,192,0,0,0,0,0,0,0,0,0,1709547556,0, 2024-03-04 15:49:16.476
13,-70108.66047,-34990.11367,-16150.72234,-17715.54562,-19378.49306,-30570.32443,-32179.22535,-60558.40827,0.072,0.78,0.588,192,0,0,0,0,0,0,0,0,0,1709547556,0, 2024-03-04 15:49:16.476
14,-70095.13767,-34974.42275,-16104.14131,-17710.40472,-19399.07901,-30567.82103,-32215.94926,-60583.24106,0.072,0.78,0.588,192,0,0,0,0,0,0,0,0,0,1709547556,0, 2024-03-04 15:49:16.476
15,-70026.24959,-34934.86016,-16564.11786,-17657.92282,-19503.48401,-30516.36732,-32408.59895,-60598.68611,0.072,0.78,0.588,192,0,0,0,0,0,0,0,0,0,1709547556,0, 2024-03-04 15:49:16.476
16,-69998.71224,-34933.34024,-16927.35606,-17637.33687,-19563.94548,-30494.99905,-32503.25859,-60606.44217,0.064,0.778,0.586,192,2,0,24,80,18,80,0,0,0,1709547556,0, 2024-03-04 15:49:16.476
17,-70050.99297,-34971.94171,-16681.79979,-17675.84892,-19491.43642,-30533.80168,-32362.91198,-60597.97085,0.064,0.778,0.586,192,0,0,0,0,0,0,0,0,0,1709547556,0, 2024-03-04 15:49:16.476
18,-70111.29798,-34995.20987,-16170.19071,-17715.85854,-19389.356,-30577.56639,-32172.36336,-60585.49858,0.064,0.778,0.586,192,0,0,0,0,0,0,0,0,0,1709547556,0, 2024-03-04 15:49:16.476
19,-70093.52834,-34973.17105,-16117.03826,-17700.32408,-19401.85063,-30566.94932,-32192.63639,-60585.38682,0.064,0.778,0.586,192,0,0,0,0,0,0,0,0,0,1709547556,0, 2024-03-04 15:49:16.476
20,-70028.26125,-34937.83294,-16572.79033,-17647.84219,-19508.80373,-30515.71912,-32391.27635,-60592.09235,0.064,0.778,0.586,192,0,0,0,0,0,0,0,0,0,1709547556,0, 2024-03-04 15:49:16.476
21,-69998.75694,-34935.64247,-16932.25109,-17626.8539,-19567.63352,-30492.09332,-32488.99817,-60592.98642,0.064,0.778,0.586,192,0,0,0,0,0,0,0,0,0,1709547556,0, 2024-03-04 15:49:16.476
22,-70050.14361,-34969.21479,-16676.34597,-17666.86352,-19494.3198,-30528.05728,-32339.04032,-60588.11374,0.064,0.778,0.586,192,0,0,0,0,0,0,0,0,0,1709547556,0, 2024-03-04 15:49:16.476
23,-70111.63325,-34995.29928,-16170.34717,-17717.75844,-19393.08875,-30579.13102,-32153.56554,-60589.09721,0.064,0.778,0.586,192,0,0,0,0,0,0,0,0,0,1709547556,0, 2024-03-04 15:49:16.476
24,-70100.59149,-34981.28474,-16121.17334,-17715.72443,-19411.6854,-30579.01926,-32193.66457,-60609.45965,0.064,0.778,0.586,192,0,0,0,0,0,0,0,0,0,1709547556,0, 2024-03-04 15:49:16.476
25,-70033.84918,-34953.76974,-16587.05075,-17676.67594,-19527.93682,-30540.90953,-32406.27437,-60643.54606,0.064,0.778,0.586,192,0,0,0,0,0,0,0,0,0,1709547556,0, 2024-03-04 15:49:16.476
26,-70007.02709,-34949.50055,-16949.14901,-17656.02292,-19591.21461,-30514.78034,-32509.20415,-60624.61413,0.06,0.782,0.584,192,1,224,24,112,18,64,0,0,0,1709547556,0, 2024-03-04 15:49:16.476
27,-70050.7471,-34971.40526,-16683.2303,-17682.48739,-19492.53166,-30534.69575,-32339.3756,-60577.31784,0.06,0.782,0.584,192,0,0,0,0,0,0,0,0,0,1709547556,0, 2024-03-04 15:49:16.476
28,-70117.73528,-35004.32938,-16175.48808,-17737.31622,-19393.51343,-30590.55276,-32178.24187,-60582.21288,0.06,0.782,0.584,192,0,0,0,0,0,0,0,0,0,1709547556,0, 2024-03-04 15:49:16.476
29,-70107.54289,-34996.95331,-16128.05767,-17738.65732,-19420.33552,-30597.90648,-32234.81414,-60621.84252,0.06,0.782,0.584,192,0,0,0,0,0,0,0,0,0,1709547556,0, 2024-03-04 15:49:16.476
30,-70036.50904,-34962.41986,-16590.15764,-17690.66813,-19532.67539,-30555.21465,-32425.18394,-60648.26228,0.06,0.782,0.584,192,0,0,0,0,0,0,0,0,0,1709547556,0, 2024-03-04 15:49:16.476
31,-69999.00281,-34949.3888,-16940.32007,-17657.18522,-19582.1845,-30519.27304,-32520.40237,-60620.68023,0.06,0.782,0.584,192,0,0,0,0,0,0,0,0,0,1709547556,0, 2024-03-04 15:49:16.476
32,-70053.80929,-34984.32457,-16681.2857,-17692.59038,-19499.68421,-30552.06305,-32364.34249,-60598.46259,0.06,0.782,0.584,192,0,0,0,0,0,0,0,0,0,1709547556,0, 2024-03-04 15:49:16.476
33,-70117.53412,-35012.53247,-16174.16932,-17734.70107,-19394.11693,-30594.59842,-32169.43528,-60570.72408,0.06,0.782,0.584,192,0,0,0,0,0,0,0,0,0,1709547556,0, 2024-03-04 15:49:16.476
34,-70101.66438,-34996.12629,-16131.27633,-17725.71566,-19412.89239,-30590.61981,-32204.75104,-60593.38875,0.06,0.782,0.584,192,0,0,0,0,0,0,0,0,0,1709547556,0, 2024-03-04 15:49:16.476
35,-70034.0727,-34961.16817,-16594.02449,-17679.80518,-19526.23809,-30547.70446,-32408.37543,-60632.23608,0.06,0.782,0.584,192,0,0,0,0,0,0,0,0,0,1709547556,0, 2024-03-04 15:49:16.476
36,-70006.82592,-34953.50152,-16947.89731,-17655.6653,-19579.5917,-30522.22348,-32503.52681,-60628.21277,0.06,0.79,0.582,192,1,224,24,176,18,48,0,0,0,1709547556,0, 2024-03-04 15:49:16.476
37,-70064.51578,-34991.63359,-16695.54611,-17697.26189,-19507.64144,-30559.99792,-32357.77108,-60607.02331,0.06,0.79,0.582,192,0,0,0,0,0,0,0,0,0,1709547556,0, 2024-03-04 15:49:16.476
38,-70121.66919,-35011.61605,-16180.15959,-17735.1928,-19400.68834,-30596.05129,-32162.97563,-60580.80472,0.06,0.79,0.582,192,0,0,0,0,0,0,0,0,0,1709547556,0, 2024-03-04 15:49:16.476
39,-70101.9773,-34986.71621,-16128.86234,-17718.56311,-19414.85934,-30582.72965,-32197.59848,-60587.24202,0.06,0.79,0.582,192,0,0,0,0,0,0,0,0,0,1709547556,0, 2024-03-04 15:49:16.476
40,-70028.57417,-34948.31591,-16592.2587,-17666.05886,-19525.03109,-30532.97466,-32401.6252,-60611.3819,0.06,0.79,0.582,192,0,0,0,0,0,0,0,0,0,1709547556,0, 2024-03-04 15:49:16.476
41,-69999.31574,-34945.6337,-16950.42306,-17646.05405,-19581.42454,-30509.41593,-32498.02828,-60609.66082,0.06,0.79,0.582,192,0,0,0,0,0,0,0,0,0,1709547556,0, 2024-03-04 15:49:16.476
42,-70056.93854,-34984.034,-16703.81626,-17690.2658,-19512.67058,-30549.71612,-32355.13358,-60603.37998,0.06,0.79,0.582,192,0,0,0,0,0,0,0,0,0,1709547556,0, 2024-03-04 15:49:16.476
43,-70124.95489,-35017.3828,-16197.05751,-17743.95469,-19414.07703,-30603.38266,-32176.61019,-60599.42372,0.06,0.79,0.582,192,0,0,0,0,0,0,0,0,0,1709547556,0, 2024-03-04 15:49:16.476
44,-70108.3252,-35001.46836,-16148.39776,-17735.12575,-19428.11393,-30597.5265,-32214.87638,-60604.2517,0.06,0.79,0.582,192,0,0,0,0,0,0,0,0,0,1709547556,0, 2024-03-04 15:49:16.476
45,-70033.13393,-34960.67643,-16607.39083,-17681.72743,-19533.01067,-30546.09514,-32411.99641,-60627.47516,0.06,0.79,0.582,192,0,0,0,0,0,0,0,0,0,1709547556,0, 2024-03-04 15:49:16.476
46,-70007.38472,-34957.23426,-16958.87202,-17661.67792,-19587.63833,-30523.58693,-32510.4782,-60637.24287,0.066,0.792,0.586,192,2,16,24,192,18,80,0,0,0,1709547556,0, 2024-03-04 15:49:16.476
47,-70067.75678,-34994.13699,-16701.02229,-17699.65353,-19512.9388,-30557.94156,-32368.2764,-60613.46061,0.066,0.792,0.586,192,0,0,0,0,0,0,0,0,0,1709547556,0, 2024-03-04 15:49:16.476
48,-70117.73528,-35016.22051,-16186.12751,-17739.79726,-19403.81758,-30598.7335,-32175.24674,-60585.49858,0.066,0.792,0.586,192,0,0,0,0,0,0,0,0,0,1709547556,0, 2024-03-04 15:49:16.476
49,-70099.00452,-34995.5228,-16136.90896,-17726.8109,-19418.63679,-30590.26219,-32208.68495,-60588.58312,0.066,0.792,0.586,192,0,0,0,0,0,0,0,0,0,1709547556,0, 2024-03-04 15:49:16.476
50,-70031.12227,-34958.17303,-16597.10903,-17673.56904,-19525.67929,-30539.1661,-32408.55425,-60602.37415,0.066,0.792,0.586,192,0,0,0,0,0,0,0,0,0,1709547556,0, 2024-03-04 15:49:16.476
51,-70004.03196,-34951.9816,-16954.62518,-17649.18329,-19582.1398,-30510.91349,-32506.23137,-60596.6521,0.066,0.792,0.586,192,0,0,0,0,0,0,0,0,0,1709547556,0, 2024-03-04 15:49:16.476
52,-70070.84132,-34993.0641,-16706.16319,-17695.362,-19514.52577,-30552.15246,-32347.13165,-60590.61713,0.066,0.792,0.586,192,0,0,0,0,0,0,0,0,0,1709547556,0, 2024-03-04 15:49:16.476
53,-70127.50299,-35016.77931,-16189.61438,-17741.78657,-19410.18783,-30598.97937,-32176.56549,-60589.5666,0.066,0.792,0.586,192,0,0,0,0,0,0,0,0,0,1709547556,0, 2024-03-04 15:49:16.476
54,-70099.92094,-34999.85903,-16140.46289,-17731.81769,-19429.07505,-30593.10086,-32220.97841,-60597.43441,0.066,0.792,0.586,192,0,0,0,0,0,0,0,0,0,1709547556,0, 2024-03-04 15:49:16.476
55,-70024.66262,-34952.78626,-16593.84568,-17668.09287,-19530.9096,-30531.72297,-32414.4104,-60590.93006,0.066,0.792,0.586,192,0,0,0,0,0,0,0,0,0,1709547556,0, 2024-03-04 15:49:16.476
56,-70000.54508,-34948.29356,-16947.33852,-17642.67893,-19583.92794,-30504.72206,-32504.44323,-60591.57826,0.07,0.788,0.58,192,2,48,24,160,18,32,0,0,0,1709547556,0, 2024-03-04 15:49:16.476
57,-70070.50604,-34997.24388,-16704.93385,-17696.07725,-19520.42663,-30556.08637,-32367.5835,-60596.29447,0.07,0.788,0.58,192,0,0,0,0,0,0,0,0,0,1709547556,0, 2024-03-04 15:49:16.476
58,-70138.41064,-35028.02223,-16199.40444,-17747.82154,-19421.87779,-30610.62462,-32187.67431,-60606.75509,0.07,0.788,0.58,192,0,0,0,0,0,0,0,0,0,1709547556,0, 2024-03-04 15:49:16.476
59,-70121.91506,-35002.18362,-16147.10136,-17731.92945,-19433.63481,-30598.62174,-32219.27967,-60615.2264,0.07,0.788,0.58,192,0,0,0,0,0,0,0,0,0,1709547556,0, 2024-03-04 15:49:16.476
60,-70046.47792,-34958.06127,-16604.61922,-17672.13853,-19536.07285,-30536.93092,-32412.13052,-60602.64237,0.07,0.788,0.58,192,0,0,0,0,0,0,0,0,0,1709547556,0, 2024-03-04 15:49:16.476
61,-70011.96683,-34953.94855,-16962.60476,-17648.35628,-19590.20878,-30512.03108,-32507.50542,-60605.01165,0.07,0.788,0.58,192,0,0,0,0,0,0,0,0,0,1709547556,0, 2024-03-04 15:49:16.476
62,-70064.69459,-34990.35954,-16707.77252,-17689.59525,-19516.40332,-30553.06888,-32363.11315,-60601.77065,0.07,0.788,0.58,192,0,0,0,0,0,0,0,0,0,1709547556,0, 2024-03-04 15:49:16.476
63,-70127.14537,-35015.61701,-16192.4754,-17732.39884,-19410.92544,-30594.82194,-32180.96878,-60568.33244,0.07,0.788,0.58,192,0,0,0,0,0,0,0,0,0,1709547556,0, 2024-03-04 15:49:16.476
64,-70111.05211,-34993.30997,-16142.85453,-17719.90421,-19427.33162,-30586.90942,-32213.40116,-60579.53067,0.07,0.788,0.58,192,0,0,0,0,0,0,0,0,0,1709547556,0, 2024-03-04 15:49:16.476
65,-70045.18152,-34957.83776,-16606.80969,-17672.04913,-19532.8542,-30544.15054,-32411.79525,-60616.63456,0.07,0.788,0.58,192,0,0,0,0,0,0,0,0,0,1709547556,0, 2024-03-04 15:49:16.476
66,-70030.45172,-34965.14678,-16969.93613,-17662.77315,-19599.48475,-30533.95814,-32517.5637,-60643.16608,0.072,0.786,0.576,192,2,64,24,144,18,0,0,0,0,1709547556,0, 2024-03-04 15:49:16.476
67,-70081.86073,-34996.50627,-16714.27688,-17695.56316,-19521.49952,-30561.54019,-32374.87017,-60616.54515,0.072,0.786,0.576,192,0,0,0,0,0,0,0,0,0,1709547556,0, 2024-03-04 15:49:16.476
68,-70137.74009,-35016.51108,-16197.72806,-17732.84587,-19414.14409,-30597.10182,-32185.46148,-60582.86108,0.072,0.786,0.576,192,0,0,0,0,0,0,0,0,0,1709547556,0, 2024-03-04 15:49:16.476
69,-70121.08804,-34992.75118,-16138.96533,-17714.47274,-19419.19558,-30579.73451,-32207.20973,-60558.67649,0.072,0.786,0.576,192,0,0,0,0,0,0,0,0,0,1709547556,0, 2024-03-04 15:49:16.476
70,-70054.41279,-34965.77262,-16601.82525,-17673.0326,-19532.83185,-30541.02129,-32406.18496,-60597.32265,0.072,0.786,0.576,192,0,0,0,0,0,0,0,0,0,1709547556,0, 2024-03-04 15:49:16.476
71,-70016.57129,-34959.6706,-16960.5484,-17650.77026,-19585.87254,-30515.85323,-32484.57253,-60612.94652,0.072,0.786,0.576,192,0,0,0,0,0,0,0,0,0,1709547556,0, 2024-03-04 15:49:16.476
72,-70071.60128,-34996.05924,-16706.61023,-17691.5622,-19511.79886,-30552.57714,-32364.63307,-60592.69584,0.072,0.786,0.576,192,0,0,0,0,0,0,0,0,0,1709547556,0, 2024-03-04 15:49:16.476
73,-70139.57294,-35028.51397,-16203.9642,-17743.88763,-19413.83116,-30604.23203,-32185.43913,-60579.46361,0.072,0.786,0.576,192,0,0,0,0,0,0,0,0,0,1709547556,0, 2024-03-04 15:49:16.476
74,-70118.67405,-35001.58012,-16148.8448,-17726.31916,-19420.0226,-30587.78114,-32208.52848,-60573.40629,0.072,0.786,0.576,192,0,0,0,0,0,0,0,0,0,1709547556,0, 2024-03-04 15:49:16.476
75,-70057.095,-34970.86882,-16613.78343,-17683.56027,-19538.21862,-30547.59271,-32412.95754,-60612.96888,0.072,0.786,0.576,192,0,0,0,0,0,0,0,0,0,1709547556,0, 2024-03-04 15:49:16.476
76,-70031.4799,-34969.84064,-16968.975,-17662.95197,-19595.64025,-30524.50335,-32512.82513,-60621.44019,0.068,0.786,0.578,192,2,32,24,144,18,16,0,0,0,1709547557,0, 2024-03-04 15:49:16.956
77,-70085.92875,-35005.78225,-16716.69086,-17705.01795,-19525.41107,-30563.41774,-32367.27057,-60610.19726,0.068,0.786,0.578,192,0,0,0,0,0,0,0,0,0,1709547557,0, 2024-03-04 15:49:16.956
78,-70149.98885,-35033.38665,-16205.72999,-17753.25301,-19423.35301,-30611.31753,-32187.11551,-60605.52574,0.068,0.786,0.578,192,0,0,0,0,0,0,0,0,0,1709547557,0, 2024-03-04 15:49:16.956
79,-70127.68181,-35005.78225,-16148.8895,-17729.98485,-19429.96912,-30588.96578,-32209.80253,-60578.52484,0.068,0.786,0.578,192,0,0,0,0,0,0,0,0,0,1709547557,0, 2024-03-04 15:49:16.956
80,-70057.38557,-34966.97962,-16606.38501,-17676.36301,-19534.7094,-30537.64618,-32404.32977,-60593.79108,0.068,0.786,0.578,192,0,0,0,0,0,0,0,0,0,1709547557,0, 2024-03-04 15:49:16.956
81,-70031.81518,-34964.14095,-16957.86619,-17657.76636,-19593.82976,-30517.77548,-32513.31687,-60609.4373,0.068,0.786,0.578,192,0,0,0,0,0,0,0,0,0,1709547557,0, 2024-03-04 15:49:16.956
82,-70085.50407,-34996.41687,-16706.9008,-17694.22206,-19516.60449,-30551.32545,-32366.71178,-60595.53451,0.068,0.786,0.578,192,0,0,0,0,0,0,0,0,0,1709547557,0, 2024-03-04 15:49:16.956
83,-70142.94805,-35021.24965,-16202.77956,-17740.42311,-19412.73593,-30598.46528,-32179.62768,-60593.14288,0.068,0.786,0.578,192,0,0,0,0,0,0,0,0,0,1709547557,0, 2024-03-04 15:49:16.956
84,-70126.00543,-35003.16709,-16154.70095,-17731.50477,-19433.23248,-30592.47501,-32207.72382,-60598.08261,0.068,0.786,0.578,192,0,0,0,0,0,0,0,0,0,1709547557,0, 2024-03-04 15:49:16.956
85,-70054.85982,-34964.65504,-16606.80969,-17680.18516,-19534.24001,-30542.22829,-32407.45901,-60609.14673,0.068,0.786,0.578,192,0,0,0,0,0,0,0,0,0,1709547557,0, 2024-03-04 15:49:16.956
86,-70033.91624,-34968.63365,-16968.10329,-17665.67888,-19599.32829,-30526.80558,-32513.83096,-60621.37313,0.064,0.78,0.582,192,2,0,24,96,18,48,0,0,0,1709547557,0, 2024-03-04 15:49:16.956
87,-70093.93067,-35004.48585,-16723.06111,-17702.93924,-19526.17103,-30558.72387,-32368.03053,-60592.8076,0.064,0.78,0.582,192,0,0,0,0,0,0,0,0,0,1709547557,0, 2024-03-04 15:49:16.956
88,-70155.42032,-35026.50231,-16210.08858,-17744.46878,-19419.77673,-30598.55468,-32177.75013,-60559.36939,0.064,0.78,0.582,192,0,0,0,0,0,0,0,0,0,1709547557,0, 2024-03-04 15:49:16.956
89,-70125.29017,-34999.05437,-16151.34819,-17726.72149,-19429.74561,-30587.53527,-32204.19225,-60578.83776,0.064,0.78,0.582,192,0,0,0,0,0,0,0,0,0,1709547557,0, 2024-03-04 15:49:16.956
90,-70060.67128,-34966.68905,-16603.59104,-17680.74395,-19542.80073,-30546.47512,-32405.20148,-60619.87556,0.064,0.78,0.582,192,0,0,0,0,0,0,0,0,0,1709547557,0, 2024-03-04 15:49:16.956
91,-70031.99399,-34962.17399,-16957.91089,-17656.51466,-19596.31081,-30518.91542,-32496.55306,-60606.37511,0.064,0.78,0.582,192,0,0,0,0,0,0,0,0,0,1709547557,0, 2024-03-04 15:49:16.956
92,-70085.52642,-34995.16517,-16704.3527,-17692.54568,-19517.11858,-30550.65489,-32330.90428,-60572.08753,0.064,0.78,0.582,192,0,0,0,0,0,0,0,0,0,1709547557,0, 2024-03-04 15:49:16.956
93,-70143.43979,-35016.37697,-16200.1644,-17736.60096,-19417.56391,-30595.93953,-32166.75307,-60568.26539,0.064,0.78,0.582,192,0,0,0,0,0,0,0,0,0,1709547557,0, 2024-03-04 15:49:16.956
94,-70134.40968,-35005.98341,-16161.58529,-17737.02565,-19442.68727,-30599.85108,-32228.46624,-60601.54713,0.064,0.78,0.582,192,0,0,0,0,0,0,0,0,0,1709547557,0, 2024-03-04 15:49:16.956
95,-70069.38846,-34972.63461,-16614.40928,-17693.03741,-19549.26038,-30559.23796,-32422.01,-60630.04561,0.064,0.78,0.582,192,0,0,0,0,0,0,0,0,0,1709547557,0, 2024-03-04 15:49:16.956
96,-70047.77432,-34972.92518,-16965.7787,-17672.96555,-19602.14461,-30535.47806,-32511.68519,-60633.13015,0.058,0.778,0.584,192,1,208,24,80,18,64,0,0,0,1709547557,0, 2024-03-04 15:49:16.956
97,-70105.91121,-35014.38767,-16725.27393,-17714.00335,-19533.32359,-30571.62083,-32370.221,-60617.64039,0.058,0.778,0.584,192,0,0,0,0,0,0,0,0,0,1709547557,0, 2024-03-04 15:49:16.956
98,-70155.77795,-35038.92988,-16212.92725,-17756.89635,-19432.31606,-30616.21256,-32183.11455,-60594.86396,0.058,0.778,0.584,192,0,0,0,0,0,0,0,0,0,1709547557,0, 2024-03-04 15:49:16.956
99,-70134.05205,-35015.59466,-16158.79132,-17741.36189,-19445.83886,-30606.17663,-32209.78018,-60597.68028,0.058,0.778,0.584,192,0,0,0,0,0,0,0,0,0,1709547557,0, 2024-03-04 15:49:16.956
100,-70071.266,-34980.30126,-16616.86797,-17693.17152,-19554.91538,-30561.36138,-32411.19175,-60631.8114,0.058,0.778,0.584,192,0,0,0,0,0,0,0,0,0,1709547557,0, 2024-03-04 15:49:16.956
101,-70047.4614,-34976.79203,-16973.60181,-17672.83144,-19612.82874,-30539.12139,-32513.33922,-60635.07475,0.058,0.778,0.584,192,0,0,0,0,0,0,0,0,0,1709547557,0, 2024-03-04 15:49:16.956
102,-70095.51765,-35005.44697,-16714.65686,-17703.63214,-19534.48588,-30568.44688,-32363.1802,-60603.42468,0.058,0.778,0.584,192,0,0,0,0,0,0,0,0,0,1709547557,0, 2024-03-04 15:49:16.956
103,-70155.93441,-35029.11747,-16209.84271,-17749.49792,-19434.12655,-30617.01722,-32179.82884,-60609.99609,0.058,0.778,0.584,192,0,0,0,0,0,0,0,0,0,1709547557,0, 2024-03-04 15:49:16.956
104,-70149.58652,-35018.18747,-16165.20627,-17748.44739,-19451.65032,-30619.56532,-32224.04059,-60630.20207,0.058,0.778,0.584,192,0,0,0,0,0,0,0,0,0,1709547557,0, 2024-03-04 15:49:16.956
105,-70076.16104,-34975.60739,-16617.47147,-17692.56803,-19558.35754,-30560.84729,-32416.2656,-60616.38869,0.058,0.778,0.584,192,0,0,0,0,0,0,0,0,0,1709547557,0, 2024-03-04 15:49:16.956
106,-70044.48861,-34965.21383,-16960.97308,-17664.89657,-19608.22429,-30528.14669,-32504.21971,-60602.73178,0.07,0.778,0.588,192,2,48,24,80,18,96,0,0,0,1709547557,0, 2024-03-04 15:49:16.956
107,-70111.70031,-35013.47125,-16721.85412,-17714.65155,-19545.0359,-30572.85018,-32367.51644,-60588.67253,0.07,0.778,0.588,192,0,0,0,0,0,0,0,0,0,1709547557,0, 2024-03-04 15:49:16.956
108,-70176.25215,-35042.10383,-16222.42674,-17765.70293,-19449.03516,-30625.75676,-32189.5742,-60603.80466,0.07,0.778,0.588,192,0,0,0,0,0,0,0,0,0,1709547557,0, 2024-03-04 15:49:16.956
109,-70164.18221,-35025.51884,-16176.04687,-17758.99741,-19467.16243,-30624.48271,-32223.37004,-60642.54023,0.07,0.778,0.588,192,0,0,0,0,0,0,0,0,0,1709547557,0, 2024-03-04 15:49:16.956
110,-70087.82865,-34982.91641,-16626.14395,-17700.61466,-19570.24867,-30564.71414,-32420.04304,-60630.69381,0.07,0.778,0.588,192,0,0,0,0,0,0,0,0,0,1709547557,0, 2024-03-04 15:49:16.956
111,-70058.77138,-34977.55199,-16964.68347,-17674.01608,-19617.96965,-30533.06407,-32511.90871,-60596.11566,0.07,0.778,0.588,192,0,0,0,0,0,0,0,0,0,1709547557,0, 2024-03-04 15:49:16.956
112,-70120.68571,-35017.00282,-16713.71808,-17716.19382,-19544.70063,-30572.78312,-32366.48826,-60593.99224,0.07,0.778,0.588,192,0,0,0,0,0,0,0,0,0,1709547557,0, 2024-03-04 15:49:16.956
113,-70188.29974,-35047.46825,-16210.66972,-17767.53578,-19447.22467,-30625.37678,-32187.00375,-60600.11662,0.07,0.778,0.588,192,0,0,0,0,0,0,0,0,0,1709547557,0, 2024-03-04 15:49:16.956
114,-70170.91008,-35030.36917,-16168.17906,-17760.22676,-19466.78245,-30622.00166,-32213.75879,-60628.19041,0.07,0.778,0.588,192,0,0,0,0,0,0,0,0,0,1709547557,0, 2024-03-04 15:49:16.956
115,-70098.04339,-34993.24292,-16617.56088,-17709.5777,-19565.08542,-30572.62666,-32401.66991,-60646.89882,0.07,0.778,0.588,192,0,0,0,0,0,0,0,0,0,1709547557,0, 2024-03-04 15:49:16.956
116,-70061.94533,-34978.8931,-16958.87202,-17677.4806,-19611.95703,-30535.61217,-32515.95438,-60619.98732,0.076,0.778,0.578,192,2,96,24,80,18,16,0,0,0,1709547557,0, 2024-03-04 15:49:16.956
117,-70118.40583,-35011.05726,-16703.39158,-17712.0364,-19540.72202,-30565.02707,-32378.49115,-60587.0185,0.076,0.778,0.578,192,0,0,0,0,0,0,0,0,0,1709547557,0, 2024-03-04 15:49:16.956
118,-70176.36391,-35034.32542,-16191.73779,-17754.52706,-19433.32189,-30607.49538,-32183.27101,-60568.46655,0.076,0.778,0.578,192,0,0,0,0,0,0,0,0,0,1709547557,0, 2024-03-04 15:49:16.956
119,-70165.00922,-35024.17773,-16154.14216,-17753.78946,-19460.72512,-30612.50217,-32223.10182,-60605.21282,0.076,0.778,0.578,192,0,0,0,0,0,0,0,0,0,1709547557,0, 2024-03-04 15:49:16.957
120,-70093.6401,-34985.66568,-16612.10705,-17701.03934,-19570.87452,-30563.4848,-32420.69124,-60630.89497,0.076,0.778,0.578,192,0,0,0,0,0,0,0,0,0,1709547557,0, 2024-03-04 15:49:16.957
121,-70066.54979,-34981.5306,-16957.12858,-17678.97817,-19624.92104,-30539.61313,-32512.19928,-60632.70547,0.076,0.778,0.578,192,0,0,0,0,0,0,0,0,0,1709547557,0, 2024-03-04 15:49:16.957
122,-70124.95489,-35020.24383,-16705.96203,-17721.26767,-19550.75795,-30582.12615,-32373.68552,-60633.62189,0.076,0.778,0.578,192,0,0,0,0,0,0,0,0,0,1709547557,0, 2024-03-04 15:49:16.957
123,-70182.7118,-35044.62958,-16198.13039,-17764.36183,-19443.69309,-30630.07064,-32195.65388,-60630.38088,0.076,0.778,0.578,192,0,0,0,0,0,0,0,0,0,1709547557,0, 2024-03-04 15:49:16.957
124,-70157.7449,-35016.22051,-16140.597,-17742.2336,-19450.73389,-30608.47886,-32220.97841,-60605.36928,0.076,0.778,0.578,192,0,0,0,0,0,0,0,0,0,1709547557,0, 2024-03-04 15:49:16.957
125,-70087.31456,-34977.06026,-16590.9176,-17688.27649,-19553.3731,-30554.94643,-32411.68349,-60615.51697,0.076,0.778,0.578,192,0,0,0,0,0,0,0,0,0,1709547557,0, 2024-03-04 15:49:16.957
126,-70057.07265,-34971.2488,-16938.57663,-17665.3436,-19606.79377,-30527.38673,-32505.27024,-60614.66761,0.076,0.778,0.578,192,0,0,0,0,0,0,0,0,0,1709547557,0, 2024-03-04 15:49:16.957
127,-70113.84608,-35008.53151,-16687.32067,-17704.54856,-19538.12922,-30560.10968,-32369.32693,-60584.40335,0.072,0.784,0.584,192,2,64,24,128,18,64,0,0,0,1709547557,0, 2024-03-04 15:49:16.957
128,-70177.03446,-35036.33708,-16189.61438,-17752.44835,-19443.64839,-30607.87536,-32192.36817,-60579.66478,0.072,0.784,0.584,192,0,0,0,0,0,0,0,0,0,1709547557,0, 2024-03-04 15:49:16.957
129,-70162.10349,-35019.3274,-16143.7039,-17747.01688,-19455.45011,-30603.80734,-32212.12711,-60605.97278,0.072,0.784,0.584,192,0,0,0,0,0,0,0,0,0,1709547557,0, 2024-03-04 15:49:16.957
130,-70099.76448,-34989.10785,-16597.55607,-17704.48151,-19559.94452,-30563.10482,-32429.63194,-60637.80166,0.072,0.784,0.584,192,0,0,0,0,0,0,0,0,0,1709547557,0, 2024-03-04 15:49:16.957
131,-70063.66641,-34974.71332,-16948.07612,-17675.84892,-19611.24177,-30531.16417,-32553.52766,-60636.90759,0.072,0.784,0.584,192,0,0,0,0,0,0,0,0,0,1709547557,0, 2024-03-04 15:49:16.957
132,-70117.02002,-35008.55386,-16696.14961,-17715.12094,-19537.79394,-30565.89878,-32406.81081,-60611.11368,0.072,0.784,0.584,192,0,0,0,0,0,0,0,0,0,1709547557,0, 2024-03-04 15:49:16.957
133,-70182.04125,-35038.41579,-16193.52593,-17762.68545,-19435.78058,-30612.34571,-32223.88413,-60580.20122,0.072,0.784,0.584,192,0,0,0,0,0,0,0,0,0,1709547557,0, 2024-03-04 15:49:16.957
134,-70160.9412,-35014.27591,-16140.12762,-17746.74866,-19441.74849,-30598.7335,-32252.13674,-60589.45484,0.072,0.784,0.584,192,0,0,0,0,0,0,0,0,0,1709547557,0, 2024-03-04 15:49:16.957
135,-70091.06965,-34976.25559,-16590.71643,-17696.41253,-19544.67828,-30550.83371,-32460.76792,-60618.62387,0.072,0.784,0.584,192,0,0,0,0,0,0,0,0,0,1709547557,0, 2024-03-04 15:49:16.957
136,-70067.17563,-34974.42275,-16948.63492,-17675.5807,-19602.32343,-30527.29732,-32556.67926,-60607.35859,0.072,0.784,0.584,192,0,0,0,0,0,0,0,0,0,1709547557,0, 2024-03-04 15:49:16.957
137,-70113.26493,-35005.1564,-16699.07769,-17709.44359,-19526.50631,-30557.62864,-32410.40944,-60578.39073,0.066,0.778,0.576,192,2,16,24,80,18,0,0,0,0,1709547557,0, 2024-03-04 15:49:16.957
138,-70173.56994,-35030.79385,-16193.10125,-17756.3152,-19425.36466,-30607.20481,-32230.07557,-60589.54425,0.066,0.778,0.576,192,0,0,0,0,0,0,0,0,0,1709547557,0, 2024-03-04 15:49:16.957
139,-70163.10932,-35017.85219,-16147.92837,-17754.19179,-19447.40348,-30611.54105,-32274.33202,-60637.42168,0.066,0.778,0.576,192,0,0,0,0,0,0,0,0,0,1709547557,0, 2024-03-04 15:49:16.957
140,-70097.23873,-34985.86684,-16613.06818,-17709.46595,-19563.14082,-30569.63153,-32480.50451,-60672.8045,0.066,0.778,0.576,192,0,0,0,0,0,0,0,0,0,1709547557,0, 2024-03-04 15:49:16.957
141,-70069.18729,-34975.71915,-16961.59893,-17679.60402,-19609.34187,-30534.51693,-32567.22928,-60636.46056,0.066,0.778,0.576,192,0,0,0,0,0,0,0,0,0,1709547557,0, 2024-03-04 15:49:16.957
142,-70115.09777,-35001.80364,-16700.23998,-17706.06848,-19526.10398,-30553.40416,-32409.76124,-60572.69103,0.066,0.778,0.576,192,0,0,0,0,0,0,0,0,0,1709547557,0, 2024-03-04 15:49:16.957
143,-70170.64186,-35024.75888,-16189.03323,-17750.14612,-19418.01094,-30597.77237,-32215.59164,-60559.01176,0.066,0.778,0.576,192,0,0,0,0,0,0,0,0,0,1709547557,0, 2024-03-04 15:49:16.957
144,-70159.42128,-35011.86192,-16146.54257,-17748.13446,-19443.04489,-30600.40988,-32252.27085,-60590.34891,0.066,0.778,0.576,192,0,0,0,0,0,0,0,0,0,1709547557,0, 2024-03-04 15:49:16.957
145,-70093.48364,-34977.48494,-16610.65419,-17701.26286,-19552.16611,-30555.90755,-32459.96326,-60623.36244,0.066,0.778,0.576,192,0,0,0,0,0,0,0,0,0,1709547557,0, 2024-03-04 15:49:16.957
146,-70063.30878,-34972.58991,-16965.7787,-17679.80518,-19604.5139,-30531.65591,-32558.08742,-60630.13502,0.066,0.778,0.576,192,0,0,0,0,0,0,0,0,0,1709547557,0, 2024-03-04 15:49:16.957
147,-70113.93548,-35004.37409,-16711.03587,-17711.11997,-19529.09911,-30556.33224,-32409.18009,-60591.01946,0.064,0.772,0.578,192,2,0,24,32,18,16,0,0,0,1709547557,0, 2024-03-04 15:49:16.957
148,-70172.00532,-35027.26227,-16199.04681,-17750.68256,-19422.12366,-30594.50902,-32218.20679,-60565.87375,0.064,0.772,0.578,192,0,0,0,0,0,0,0,0,0,1709547557,0, 2024-03-04 15:49:16.957
149,-70156.89554,-35010.45376,-16150.63294,-17744.26761,-19436.87581,-30592.49736,-32252.02498,-60588.00198,0.064,0.772,0.578,192,0,0,0,0,0,0,0,0,0,1709547557,0, 2024-03-04 15:49:16.957
150,-70091.80726,-34977.84257,-16612.86701,-17700.70406,-19546.80169,-30552.06305,-32462.86898,-60633.04074,0.064,0.772,0.578,192,0,0,0,0,0,0,0,0,0,1709547557,0, 2024-03-04 15:49:16.957
151,-70071.9142,-34981.68707,-16977.44631,-17688.25414,-19607.55373,-30536.86387,-32567.78807,-60651.05625,0.064,0.772,0.578,192,0,0,0,0,0,0,0,0,0,1709547557,0, 2024-03-04 15:49:16.957
152,-70128.06179,-35019.55092,-16728.22436,-17726.34151,-19533.12242,-30566.7258,-32407.77193,-60599.13315,0.064,0.772,0.578,192,0,0,0,0,0,0,0,0,0,1709547557,0, 2024-03-04 15:49:16.957
153,-70189.46203,-35045.52365,-16214.31306,-17770.88854,-19429.79031,-30609.90937,-32210.13781,-60577.56371,0.064,0.772,0.578,192,0,0,0,0,0,0,0,0,0,1709547557,0, 2024-03-04 15:49:16.957
154,-70168.33963,-35020.24383,-16158.29958,-17755.55524,-19440.51915,-30598.24176,-32264.13962,-60599.8037,0.064,0.772,0.578,192,0,0,0,0,0,0,0,0,0,1709547557,0, 2024-03-04 15:49:16.957
155,-70097.70812,-34982.26821,-16619.68429,-17703.45333,-19550.22151,-30546.58688,-32471.09443,-60608.85615,0.064,0.772,0.578,192,0,0,0,0,0,0,0,0,0,1709547557,0, 2024-03-04 15:49:16.957
156,-70076.45161,-34985.64333,-16980.75437,-17687.42713,-19611.28647,-30529.71131,-32571.09613,-60606.64333,0.064,0.772,0.578,192,0,0,0,0,0,0,0,0,0,1709547557,0, 2024-03-04 15:49:16.957
157,-70132.91212,-35021.85315,-16725.11747,-17729.26959,-19540.34204,-30570.41384,-32425.83214,-60600.80953,0.068,0.776,0.584,192,2,32,24,64,18,64,0,0,0,1709547557,0, 2024-03-04 15:49:16.957
158,-70197.68747,-35049.52461,-16216.68234,-17780.0304,-19443.53663,-30623.36512,-32245.00653,-60611.80658,0.068,0.776,0.584,192,0,0,0,0,0,0,0,0,0,1709547557,0, 2024-03-04 15:49:16.957
159,-70187.62919,-35035.42066,-16168.08965,-17775.493,-19461.23921,-30623.7004,-32275.69548,-60644.17191,0.068,0.776,0.584,192,0,0,0,0,0,0,0,0,0,1709547557,0, 2024-03-04 15:49:16.957
160,-70117.06473,-34995.03106,-16629.98845,-17720.44065,-19570.49454,-30570.12326,-32472.48023,-60655.90658,0.068,0.776,0.584,192,0,0,0,0,0,0,0,0,0,1709547557,0, 2024-03-04 15:49:16.957
161,-70086.24167,-34988.16907,-16986.29761,-17697.3513,-19626.08333,-30545.69281,-32576.72877,-60640.61798,0.068,0.776,0.584,192,0,0,0,0,0,0,0,0,0,1709547557,0, 2024-03-04 15:49:16.957
162,-70129.73817,-35016.0864,-16727.12913,-17730.27542,-19546.13114,-30576.11353,-32424.49104,-60617.95331,0.068,0.776,0.584,192,0,0,0,0,0,0,0,0,0,1709547557,0, 2024-03-04 15:49:16.957
163,-70192.97125,-35041.41093,-16202.28782,-17774.286,-19435.60176,-30620.25823,-32225.60522,-60607.11272,0.068,0.776,0.584,192,0,0,0,0,0,0,0,0,0,1709547557,0, 2024-03-04 15:49:16.957
164,-70187.78565,-35026.09998,-16153.06928,-17766.37349,-19455.2713,-30615.67612,-32263.58083,-60619.56264,0.068,0.776,0.584,192,0,0,0,0,0,0,0,0,0,1709547557,0, 2024-03-04 15:49:16.957
165,-70118.20467,-34988.61611,-16620.35485,-17716.55145,-19568.28172,-30567.15048,-32466.10999,-60637.35463,0.068,0.776,0.584,192,0,0,0,0,0,0,0,0,0,1709547557,0, 2024-03-04 15:49:16.957
166,-70088.85683,-34986.49269,-16983.99538,-17695.4067,-19629.10081,-30539.12139,-32572.50429,-60602.77648,0.068,0.776,0.584,192,0,0,0,0,0,0,0,0,0,1709547557,0, 2024-03-04 15:49:16.957
167,-70136.39899,-35013.4936,-16721.80941,-17725.44744,-19549.50625,-30563.23893,-32423.46286,-60558.49767,0.074,0.78,0.582,192,2,80,24,96,18,48,0,0,0,1709547557,0, 2024-03-04 15:49:16.957
168,-70193.57475,-35034.39248,-16197.66101,-17767.1558,-19436.47348,-30607.33892,-32235.03765,-60561.4034,0.074,0.78,0.582,192,0,0,0,0,0,0,0,0,0,1709547557,0, 2024-03-04 15:49:16.957
169,-70182.46593,-35019.57327,-16148.48717,-17761.25494,-19454.7125,-30606.5119,-32266.91124,-60599.89311,0.074,0.78,0.582,192,0,0,0,0,0,0,0,0,0,1709547557,0, 2024-03-04 15:49:16.957
170,-70114.51663,-34981.73177,-16613.29169,-17710.11415,-19563.20787,-30559.34972,-32467.04876,-60644.57424,0.074,0.78,0.582,192,0,0,0,0,0,0,0,0,0,1709547557,0, 2024-03-04 15:49:16.957
171,-70074.97639,-34965.70557,-16965.57754,-17671.44563,-19613.18637,-30514.82505,-32585.62476,-60599.51313,0.074,0.78,0.582,192,0,0,0,0,0,0,0,0,0,1709547557,0, 2024-03-04 15:49:16.957
172,-70129.93933,-35004.68701,-16711.19234,-17711.32114,-19536.74341,-30549.51496,-32430.28014,-60558.34121,0.074,0.78,0.582,192,0,0,0,0,0,0,0,0,0,1709547557,0, 2024-03-04 15:49:16.957
173,-70197.06162,-35038.84048,-16201.19258,-17768.94394,-19439.82624,-30609.12706,-32244.6489,-60578.01075,0.074,0.78,0.582,192,0,0,0,0,0,0,0,0,0,1709547557,0, 2024-03-04 15:49:16.957
174,-70181.48246,-35023.1272,-16155.10328,-17761.59021,-19455.24895,-30605.75194,-32271.76157,-60590.28185,0.074,0.78,0.582,192,0,0,0,0,0,0,0,0,0,1709547557,0, 2024-03-04 15:49:16.957
175,-70108.74988,-34984.6822,-16620.73483,-17708.08014,-19565.01836,-30557.1816,-32468.81455,-60613.61708,0.074,0.78,0.582,192,0,0,0,0,0,0,0,0,0,1709547557,0, 2024-03-04 15:49:16.957
176,-70074.59641,-34975.02625,-16981.13435,-17680.90042,-19617.36615,-30531.96884,-32570.80556,-60633.28661,0.074,0.78,0.582,192,0,0,0,0,0,0,0,0,0,1709547557,0, 2024-03-04 15:49:16.957
177,-70128.41941,-35009.82791,-16721.0271,-17716.79732,-19538.53155,-30567.48576,-32419.4619,-60617.7298,0.068,0.782,0.576,192,2,32,24,112,18,0,0,0,0,1709547557,0, 2024-03-04 15:49:16.957
178,-70188.83618,-35034.23602,-16192.92244,-17757.76807,-19421.67663,-30608.23299,-32217.62564,-60566.56665,0.068,0.782,0.576,192,0,0,0,0,0,0,0,0,0,1709547557,0, 2024-03-04 15:49:16.957
179,-70168.96548,-35010.63258,-16137.22189,-17743.68647,-19433.14307,-30597.95119,-32243.44191,-60571.48404,0.068,0.782,0.576,192,0,0,0,0,0,0,0,0,0,1709547557,0, 2024-03-04 15:49:16.957
180,-70101.68673,-34975.16036,-16603.7922,-17696.83721,-19546.35466,-30553.69473,-32447.24511,-60616.61221,0.068,0.782,0.576,192,0,0,0,0,0,0,0,0,0,1709547557,0, 2024-03-04 15:49:16.957
181,-70080.25141,-34981.35179,-16977.58043,-17687.42713,-19615.77918,-30542.13888,-32550.01844,-60639.45569,0.068,0.782,0.576,192,0,0,0,0,0,0,0,0,0,1709547557,0, 2024-03-04 15:49:16.957
182,-70143.05981,-35024.26714,-16729.3643,-17733.96346,-19547.20402,-30583.31079,-32418.50077,-60614.48879,0.068,0.782,0.576,192,0,0,0,0,0,0,0,0,0,1709547557,0, 2024-03-04 15:49:16.957
183,-70201.55432,-35047.51295,-16197.88452,-17774.8895,-19435.04297,-30622.4934,-32223.41475,-60582.19052,0.068,0.782,0.576,192,0,0,0,0,0,0,0,0,0,1709547557,0, 2024-03-04 15:49:16.957
184,-70185.9081,-35029.43039,-16145.42498,-17765.81469,-19450.42097,-30617.24074,-32252.44966,-60605.12341,0.068,0.782,0.576,192,0,0,0,0,0,0,0,0,0,1709547557,0, 2024-03-04 15:49:16.957
185,-70115.43305,-34997.48975,-16620.51131,-17720.88769,-19568.7511,-30574.07952,-32458.82332,-60640.50622,0.068,0.782,0.576,192,0,0,0,0,0,0,0,0,0,1709547557,0, 2024-03-04 15:49:16.957
186,-70083.76063,-34993.55584,-16985.44824,-17697.68658,-19629.23493,-30547.01156,-32565.35173,-60633.39837,0.068,0.782,0.576,192,0,0,0,0,0,0,0,0,0,1709547557,0, 2024-03-04 15:49:16.957
187,-70138.92473,-35028.02223,-16722.05528,-17733.53877,-19546.33231,-30576.44881,-32419.5513,-60606.82215,0.068,0.784,0.586,192,2,32,24,128,18,80,0,0,0,1709547557,0, 2024-03-04 15:49:16.957
188,-70207.85751,-35060.43226,-16202.37722,-17784.4337,-19442.35199,-30626.49436,-32231.50608,-60592.36057,0.068,0.784,0.586,192,0,0,0,0,0,0,0,0,0,1709547557,0, 2024-03-04 15:49:16.957
189,-70191.18311,-35040.60627,-16161.85351,-17774.8448,-19459.18285,-30619.81119,-32264.25138,-60601.61419,0.068,0.784,0.586,192,0,0,0,0,0,0,0,0,0,1709547557,0, 2024-03-04 15:49:16.957
190,-70120.01516,-35002.58595,-16636.17988,-17722.76523,-19572.39444,-30571.62083,-32472.56964,-60624.99411,0.068,0.784,0.586,192,0,0,0,0,0,0,0,0,0,1709547557,0, 2024-03-04 15:49:16.957
191,-70091.11435,-34996.41687,-16996.35589,-17697.93245,-19628.3185,-30544.79874,-32572.83957,-60635.34297,0.068,0.784,0.586,192,0,0,0,0,0,0,0,0,0,1709547557,0, 2024-03-04 15:49:16.957
192,-70141.60694,-35025.31767,-16732.42649,-17732.48824,-19547.98633,-30575.62179,-32427.50852,-60624.54708,0.068,0.784,0.586,192,0,0,0,0,0,0,0,0,0,1709547557,0, 2024-03-04 15:49:16.957
193,-70201.66608,-35047.02122,-16209.39567,-17772.81079,-19439.02158,-30616.79371,-32234.14358,-60600.87658,0.068,0.784,0.586,192,0,0,0,0,0,0,0,0,0,1709547557,0, 2024-03-04 15:49:16.957
194,-70180.94601,-35023.88716,-16156.19852,-17753.99062,-19445.30242,-30600.7228,-32246.92878,-60575.73087,0.068,0.784,0.586,192,0,0,0,0,0,0,0,0,0,1709547557,0, 2024-03-04 15:49:16.957
195,-70110.78389,-34986.22447,-16626.88155,-17699.49707,-19553.70838,-30547.43624,-32447.08865,-60576.62494,0.068,0.784,0.586,192,0,0,0,0,0,0,0,0,0,1709547557,0, 2024-03-04 15:49:16.957
196,-70090.93554,-34989.51018,-16992.042,-17683.20265,-19619.17664,-30530.56068,-32573.15249,-60592.38292,0.068,0.784,0.586,192,0,0,0,0,0,0,0,0,0,1709547557,0, 2024-03-04 15:49:17.437
197,-70145.11617,-35025.49649,-16735.1087,-17723.63695,-19545.86292,-30567.53046,-32424.13341,-60584.22453,0.064,0.784,0.584,192,2,0,24,128,18,64,0,0,0,1709547557,0, 2024-03-04 15:49:17.437
198,-70206.09173,-35049.70343,-16214.78244,-17772.49787,-19440.67561,-30618.06776,-32244.78301,-60594.86396,0.064,0.784,0.584,192,0,0,0,0,0,0,0,0,0,1709547557,0, 2024-03-04 15:49:17.437
199,-70199.05093,-35037.99111,-16172.58235,-17771.89437,-19464.9496,-30621.75579,-32282.75863,-60628.81626,0.064,0.784,0.584,192,0,0,0,0,0,0,0,0,0,1709547557,0, 2024-03-04 15:49:17.437
200,-70133.11328,-35004.70936,-16643.93594,-17722.67583,-19576.97655,-30573.92306,-32483.99138,-60638.69573,0.064,0.784,0.584,192,0,0,0,0,0,0,0,0,0,1709547557,0, 2024-03-04 15:49:17.437
201,-70099.65272,-34992.92999,-17002.72614,-17691.53985,-19627.40208,-30538.76377,-32576.05822,-60620.74728,0.064,0.784,0.584,192,0,0,0,0,0,0,0,0,0,1709547557,0, 2024-03-04 15:49:17.437
202,-70142.47866,-35019.72974,-16735.84631,-17721.93822,-19537.92805,-30565.02707,-32421.20533,-60590.43832,0.064,0.784,0.584,192,0,0,0,0,0,0,0,0,0,1709547557,0, 2024-03-04 15:49:17.437
203,-70198.91682,-35049.52461,-16207.65224,-17772.49787,-19431.98078,-30617.59837,-32234.9706,-60594.08165,0.064,0.784,0.584,192,0,0,0,0,0,0,0,0,0,1709547557,0, 2024-03-04 15:49:17.437
204,-70184.90227,-35034.92892,-16160.78063,-17765.83705,-19453.01377,-30613.08332,-32272.1639,-60601.30126,0.064,0.784,0.584,192,0,0,0,0,0,0,0,0,0,1709547557,0, 2024-03-04 15:49:17.437
205,-70111.5215,-34995.5675,-16633.31886,-17710.87411,-19564.14665,-30556.98044,-32474.00015,-60595.48981,0.064,0.784,0.584,192,0,0,0,0,0,0,0,0,0,1709547557,0, 2024-03-04 15:49:17.437
206,-70084.87822,-34991.14185,-16993.56192,-17689.6623,-19618.88607,-30532.1253,-32572.32548,-60593.54521,0.064,0.784,0.584,192,0,0,0,0,0,0,0,0,0,1709547557,0, 2024-03-04 15:49:17.437
207,-70140.84698,-35023.1719,-16730.41484,-17729.00137,-19542.04077,-30566.70345,-32422.76995,-60580.64825,0.062,0.788,0.58,192,1,240,24,160,18,32,0,0,0,1709547557,0, 2024-03-04 15:49:17.437
208,-70203.05189,-35048.33997,-16210.20033,-17777.34819,-19437.9487,-30615.51966,-32231.41667,-60582.74932,0.062,0.788,0.58,192,0,0,0,0,0,0,0,0,0,1709547557,0, 2024-03-04 15:49:17.437
209,-70196.23461,-35038.19228,-16172.09061,-17775.13537,-19466.246,-30618.58185,-32280.18818,-60612.74536,0.062,0.788,0.58,192,0,0,0,0,0,0,0,0,0,1709547557,0, 2024-03-04 15:49:17.437
210,-70121.55743,-34993.26527,-16641.65606,-17717.04319,-19571.45567,-30562.56837,-32477.28586,-60632.88428,0.062,0.788,0.58,192,0,0,0,0,0,0,0,0,0,1709547557,0, 2024-03-04 15:49:17.437
211,-70094.71298,-34992.75118,-16997.16055,-17695.22788,-19621.79179,-30539.27786,-32577.80165,-60631.8114,0.062,0.788,0.58,192,0,0,0,0,0,0,0,0,0,1709547557,0, 2024-03-04 15:49:17.437
212,-70143.21627,-35018.76861,-16731.48772,-17720.12773,-19537.45866,-30560.13203,-32426.12272,-60586.23619,0.062,0.788,0.58,192,0,0,0,0,0,0,0,0,0,1709547557,0, 2024-03-04 15:49:17.437
213,-70208.08103,-35048.45173,-16202.13136,-17769.83801,-19432.249,-30613.70917,-32234.05418,-60587.10791,0.062,0.788,0.58,192,0,0,0,0,0,0,0,0,0,1709547557,0, 2024-03-04 15:49:17.437
214,-70194.44647,-35033.27489,-16151.90699,-17763.13248,-19449.92923,-30612.74804,-32268.3194,-60610.59959,0.062,0.788,0.58,192,0,0,0,0,0,0,0,0,0,1709547557,0, 2024-03-04 15:49:17.437
215,-70122.27268,-34995.29928,-16629.20614,-17710.62824,-19562.40321,-30560.89199,-32474.29073,-60614.06411,0.062,0.788,0.58,192,0,0,0,0,0,0,0,0,0,1709547557,0, 2024-03-04 15:49:17.437
216,-70094.64593,-34992.66177,-16994.23248,-17687.47183,-19625.01045,-30535.63452,-32578.24869,-60608.11855,0.062,0.788,0.58,192,0,0,0,0,0,0,0,0,0,1709547557,0, 2024-03-04 15:49:17.437
217,-70148.7148,-35029.34099,-16734.08052,-17727.77202,-19554.84832,-30573.99012,-32436.15865,-60602.10593,0.066,0.786,0.578,192,2,16,24,144,18,16,0,0,0,1709547557,0, 2024-03-04 15:49:17.437
218,-70200.74966,-35050.17281,-16198.35391,-17768.20633,-19433.63481,-30615.63142,-32231.1708,-60589.5219,0.066,0.786,0.578,192,0,0,0,0,0,0,0,0,0,1709547557,0, 2024-03-04 15:49:17.437
219,-70189.41733,-35035.17479,-16151.3929,-17758.03629,-19454.15371,-30609.46233,-32276.6566,-60601.01069,0.066,0.786,0.578,192,0,0,0,0,0,0,0,0,0,1709547557,0, 2024-03-04 15:49:17.437
220,-70117.89174,-34994.58402,-16617.8738,-17701.50872,-19561.77736,-30553.91825,-32471.89909,-60611.11368,0.066,0.786,0.578,192,0,0,0,0,0,0,0,0,0,1709547557,0, 2024-03-04 15:49:17.437
221,-70093.88597,-34994.80754,-16980.4191,-17685.23665,-19622.41764,-30536.618,-32567.5422,-60626.55874,0.066,0.786,0.578,192,0,0,0,0,0,0,0,0,0,1709547557,0, 2024-03-04 15:49:17.437
222,-70160.60593,-35036.22532,-16727.21854,-17729.09078,-19548.65689,-30576.02412,-32405.425,-60606.57628,0.066,0.786,0.578,192,0,0,0,0,0,0,0,0,0,1709547557,0, 2024-03-04 15:49:17.437
223,-70217.35701,-35061.16987,-16197.07986,-17773.88367,-19439.26745,-30621.66639,-32239.84328,-60598.35083,0.066,0.786,0.578,192,0,0,0,0,0,0,0,0,0,1709547557,0, 2024-03-04 15:49:17.437
224,-70194.78174,-35038.63931,-16145.0003,-17761.25494,-19458.44525,-30612.94921,-32282.17748,-60603.33527,0.066,0.786,0.578,192,0,0,0,0,0,0,0,0,0,1709547557,0, 2024-03-04 15:49:17.437
225,-70117.4,-34988.54905,-16603.7922,-17699.16179,-19562.93965,-30551.70543,-32471.11678,-60610.1302,0.066,0.786,0.578,192,0,0,0,0,0,0,0,0,0,1709547557,0, 2024-03-04 15:49:17.437
226,-70086.50989,-34979.27308,-16967.05275,-17672.3844,-19617.50026,-30523.1399,-32571.342,-60614.66761,0.066,0.786,0.578,192,0,0,0,0,0,0,0,0,0,1709547557,0, 2024-03-04 15:49:17.437
227,-70138.61181,-35010.92315,-16709.60536,-17706.87314,-19538.79977,-30555.10289,-32423.3064,-60588.69488,0.072,0.788,0.58,192,2,64,24,160,18,32,0,0,0,1709547557,0, 2024-03-04 15:49:17.437
228,-70201.9343,-35040.06982,-16183.78057,-17757.27633,-19436.38407,-30606.64601,-32230.12027,-60591.19828,0.072,0.788,0.58,192,0,0,0,0,0,0,0,0,0,1709547557,0, 2024-03-04 15:49:17.437
229,-70186.77982,-35023.14955,-16131.58925,-17749.8779,-19456.25478,-30599.4711,-32266.39715,-60596.36153,0.072,0.788,0.58,192,0,0,0,0,0,0,0,0,0,1709547557,0, 2024-03-04 15:49:17.437
230,-70123.055,-34990.06897,-16606.87674,-17702.26868,-19567.78998,-30552.53244,-32481.39858,-60609.01262,0.072,0.788,0.58,192,0,0,0,0,0,0,0,0,0,1709547557,0, 2024-03-04 15:49:17.437
231,-70100.6362,-34989.51018,-16976.39578,-17684.5661,-19627.20092,-30532.41587,-32575.92411,-60612.52184,0.072,0.788,0.58,192,0,0,0,0,0,0,0,0,0,1709547557,0, 2024-03-04 15:49:17.437
232,-70150.97232,-35024.55771,-16709.20303,-17723.21227,-19543.56069,-30566.99402,-32421.25004,-60589.29838,0.072,0.788,0.58,192,0,0,0,0,0,0,0,0,0,1709547557,0, 2024-03-04 15:49:17.437
233,-70218.47459,-35060.07463,-16185.81458,-17780.61155,-19445.83886,-30626.2932,-32237.5187,-60597.56852,0.072,0.788,0.58,192,0,0,0,0,0,0,0,0,0,1709547557,0, 2024-03-04 15:49:17.437
234,-70201.3308,-35039.46633,-16137.73598,-17769.50273,-19462.08858,-30618.78301,-32265.74895,-60615.09229,0.072,0.788,0.58,192,0,0,0,0,0,0,0,0,0,1709547557,0, 2024-03-04 15:49:17.437
235,-70126.22894,-34998.33912,-16601.91466,-17709.35419,-19564.8619,-30559.37207,-32465.08181,-60617.86391,0.072,0.788,0.58,192,0,0,0,0,0,0,0,0,0,1709547557,0, 2024-03-04 15:49:17.437
236,-70104.88303,-35001.3119,-16974.33942,-17695.27259,-19632.14065,-30543.0106,-32573.26425,-60630.38088,0.072,0.788,0.58,192,0,0,0,0,0,0,0,0,0,1709547557,0, 2024-03-04 15:49:17.437
237,-70158.43781,-35037.1641,-16712.86872,-17735.37162,-19554.06601,-30581.16503,-32427.26266,-60612.61125,0.07,0.788,0.582,192,2,48,24,160,18,48,0,0,0,1709547557,0, 2024-03-04 15:49:17.437
238,-70215.68062,-35057.97357,-16177.45503,-17776.0965,-19443.1343,-30624.21449,-32237.78692,-60603.6482,0.07,0.788,0.582,192,0,0,0,0,0,0,0,0,0,1709547557,0, 2024-03-04 15:49:17.437
239,-70207.6787,-35047.55766,-16131.45514,-17773.74956,-19461.88741,-30626.69553,-32275.27079,-60629.48681,0.07,0.788,0.582,192,0,0,0,0,0,0,0,0,0,1709547557,0, 2024-03-04 15:49:17.437
240,-70130.87811,-35006.58691,-16598.22662,-17718.58546,-19565.06307,-30573.74425,-32475.02833,-60643.47901,0.07,0.788,0.582,192,0,0,0,0,0,0,0,0,0,1709547557,0, 2024-03-04 15:49:17.437
241,-70092.41075,-34990.58306,-16947.94201,-17683.225,-19608.62662,-30534.98632,-32560.65787,-60622.11074,0.07,0.788,0.582,192,0,0,0,0,0,0,0,0,0,1709547557,0, 2024-03-04 15:49:17.437
242,-70147.23958,-35029.81037,-16685.15255,-17724.17339,-19533.79298,-30573.49838,-32411.1694,-60605.72691,0.07,0.788,0.582,192,0,0,0,0,0,0,0,0,0,1709547557,0, 2024-03-04 15:49:17.437
243,-70211.05381,-35056.72187,-16164.9604,-17770.73208,-19429.67855,-30621.01819,-32222.29716,-60601.43538,0.07,0.788,0.582,192,0,0,0,0,0,0,0,0,0,1709547557,0, 2024-03-04 15:49:17.437
244,-70199.87794,-35040.42745,-16122.93912,-17764.04891,-19451.85148,-30619.05123,-32242.88312,-60634.06892,0.07,0.788,0.582,192,0,0,0,0,0,0,0,0,0,1709547557,0, 2024-03-04 15:49:17.437
245,-70135.79549,-35007.83861,-16605.13331,-17715.99266,-19570.04751,-30572.22433,-32460.38794,-60649.58103,0.07,0.788,0.582,192,0,0,0,0,0,0,0,0,0,1709547557,0, 2024-03-04 15:49:17.437
246,-70101.88789,-34997.4674,-16960.74956,-17682.44269,-19624.25049,-30532.95231,-32576.54996,-60608.36442,0.07,0.788,0.582,192,0,0,0,0,0,0,0,0,0,1709547557,0, 2024-03-04 15:49:17.437
247,-70156.69437,-35031.75497,-16697.13309,-17719.54658,-19549.99799,-30563.90948,-32419.26073,-60570.96995,0.066,0.78,0.586,192,2,16,24,96,18,80,0,0,0,1709547557,0, 2024-03-04 15:49:17.437
248,-70214.22776,-35055.26901,-16168.84961,-17765.61353,-19444.76598,-30608.34475,-32224.01824,-60557.44714,0.066,0.78,0.586,192,0,0,0,0,0,0,0,0,0,1709547557,0, 2024-03-04 15:49:17.438
249,-70196.1452,-35033.14078,-16117.4853,-17753.61064,-19456.18772,-30599.73933,-32258.7305,-60576.93786,0.066,0.78,0.586,192,0,0,0,0,0,0,0,0,0,1709547557,0, 2024-03-04 15:49:17.438
250,-70124.9996,-34992.75118,-16587.65424,-17701.39697,-19562.09029,-30552.30892,-32456.83401,-60611.40425,0.066,0.78,0.586,192,0,0,0,0,0,0,0,0,0,1709547557,0, 2024-03-04 15:49:17.438
251,-70093.43893,-34984.30222,-16954.26756,-17677.61471,-19622.61881,-30525.82211,-32564.97175,-60616.85808,0.066,0.78,0.586,192,0,0,0,0,0,0,0,0,0,1709547557,0, 2024-03-04 15:49:17.438
252,-70146.47962,-35017.71808,-16690.2264,-17716.81967,-19542.28664,-30562.30015,-32410.85647,-60602.4412,0.066,0.78,0.586,192,0,0,0,0,0,0,0,0,0,1709547557,0, 2024-03-04 15:49:17.438
253,-70215.90414,-35052.83267,-16169.38605,-17773.97308,-19444.45305,-30622.18048,-32231.95311,-60620.88139,0.066,0.78,0.586,192,0,0,0,0,0,0,0,0,0,1709547557,0, 2024-03-04 15:49:17.438
254,-70210.8303,-35044.87545,-16124.30258,-17774.2413,-19468.90586,-30627.72371,-32269.70521,-60655.75011,0.066,0.78,0.586,192,0,0,0,0,0,0,0,0,0,1709547557,0, 2024-03-04 15:49:17.438
255,-70150.32412,-35015.54996,-16604.23924,-17727.30264,-19584.0844,-30581.12032,-32474.67071,-60664.93668,0.066,0.78,0.586,192,0,0,0,0,0,0,0,0,0,1709547557,0, 2024-03-04 15:49:17.438
0,-70113.24258,-35006.54221,-16969.08676,-17700.70406,-19641.21546,-30552.75596,-32575.8347,-60669.98818,0.066,0.78,0.586,192,0,0,0,0,0,0,0,0,0,1709547557,0, 2024-03-04 15:49:17.438
1,-70171.96061,-35046.1495,-16707.19137,-17742.36771,-19563.78902,-30590.37394,-32429.67664,-60639.96978,0.066,0.78,0.586,192,0,0,0,0,0,0,0,0,0,1709547557,0, 2024-03-04 15:49:17.438
2,-70235.43957,-35072.94924,-16181.23247,-17786.82533,-19453.08083,-30633.80338,-32231.30491,-60591.24298,0.072,0.776,0.586,192,2,64,24,64,18,80,0,0,0,1709547557,0, 2024-03-04 15:49:17.438
3,-70219.99451,-35054.57611,-16128.88469,-17776.76705,-19465.66486,-30626.91905,-32253.85782,-60604.83284,0.072,0.776,0.586,192,0,0,0,0,0,0,0,0,0,1709547557,0, 2024-03-04 15:49:17.438
4,-70148.156,-35015.72877,-16599.2101,-17722.87699,-19570.74041,-30576.87349,-32453.07892,-60632.48195,0.072,0.776,0.586,192,0,0,0,0,0,0,0,0,0,1709547557,0, 2024-03-04 15:49:17.438
5,-70122.38444,-35015.86288,-16964.88463,-17707.20842,-19635.3593,-30562.36721,-32560.07672,-60665.7637,0.072,0.776,0.586,192,0,0,0,0,0,0,0,0,0,1709547557,0, 2024-03-04 15:49:17.438
6,-70176.45331,-35048.7423,-16692.19335,-17739.26082,-19548.47807,-30587.44587,-32416.84674,-60613.66178,0.072,0.776,0.586,192,0,0,0,0,0,0,0,0,0,1709547557,0, 2024-03-04 15:49:17.438
7,-70235.37251,-35070.4682,-16163.44049,-17778.89046,-19437.72518,-30624.28154,-32218.63147,-60572.53457,0.072,0.776,0.586,192,0,0,0,0,0,0,0,0,0,1709547557,0, 2024-03-04 15:49:17.438
8,-70219.03339,-35053.2797,-16116.56888,-17774.1966,-19463.6085,-30625.66735,-32257.4788,-60619.6297,0.072,0.776,0.586,192,0,0,0,0,0,0,0,0,0,1709547557,0, 2024-03-04 15:49:17.438
9,-70151.82169,-35019.01448,-16592.28105,-17726.49798,-19578.31765,-30582.37202,-32468.07694,-60662.94738,0.072,0.776,0.586,192,0,0,0,0,0,0,0,0,0,1709547557,0, 2024-03-04 15:49:17.438
10,-70123.36792,-35013.4936,-16951.58535,-17698.06656,-19632.54298,-30547.95033,-32563.47419,-60618.53446,0.072,0.776,0.586,192,0,0,0,0,0,0,0,0,0,1709547557,0, 2024-03-04 15:49:17.438
11,-70173.23466,-35042.14854,-16683.49852,-17727.21323,-19549.05922,-30570.72676,-32405.76028,-60573.31688,0.072,0.776,0.586,192,0,0,0,0,0,0,0,0,0,1709547557,0, 2024-03-04 15:49:17.438
12,-70240.06638,-35072.61396,-16165.31803,-17782.80202,-19452.63379,-30627.52254,-32221.24663,-60594.52869,0.078,0.778,0.584,192,2,112,24,80,18,64,0,0,0,1709547557,0, 2024-03-04 15:49:17.438
13,-70229.4046,-35058.71118,-16119.49696,-17782.42204,-19467.43065,-30632.61874,-32239.06097,-60638.96395,0.078,0.778,0.584,192,0,0,0,0,0,0,0,0,0,1709547557,0, 2024-03-04 15:49:17.438
14,-70158.28135,-35020.06501,-16591.94578,-17730.83421,-19582.00569,-30583.15433,-32467.78637,-60663.17089,0.078,0.778,0.584,192,0,0,0,0,0,0,0,0,0,1709547557,0, 2024-03-04 15:49:17.438
15,-70127.34653,-35011.68311,-16946.62326,-17701.39697,-19636.90157,-30548.37502,-32570.98437,-60624.7706,0.078,0.778,0.584,192,0,0,0,0,0,0,0,0,0,1709547557,0, 2024-03-04 15:49:17.438
16,-70182.73415,-35049.05522,-16685.86781,-17739.01495,-19558.26814,-30580.11449,-32422.07705,-60574.76974,0.078,0.778,0.584,192,0,0,0,0,0,0,0,0,0,1709547557,0, 2024-03-04 15:49:17.438
17,-70247.62127,-35080.39237,-16171.39771,-17790.75924,-19457.99821,-30634.09396,-32233.69655,-60578.6366,0.078,0.778,0.584,192,0,0,0,0,0,0,0,0,0,1709547557,0, 2024-03-04 15:49:17.438
18,-70234.09846,-35064.03089,-16118.44642,-17783.91961,-19475.03024,-30633.31165,-32265.34662,-60613.99706,0.078,0.778,0.584,192,0,0,0,0,0,0,0,0,0,1709547557,0, 2024-03-04 15:49:17.438
19,-70167.75848,-35025.78706,-16586.98369,-17733.44937,-19583.83853,-30584.96482,-32471.85439,-60648.59756,0.078,0.778,0.584,192,0,0,0,0,0,0,0,0,0,1709547557,0, 2024-03-04 15:49:17.438
20,-70138.58946,-35021.47317,-16945.93036,-17712.34932,-19639.60613,-30561.16021,-32572.25842,-60646.07181,0.078,0.778,0.584,192,0,0,0,0,0,0,0,0,0,1709547557,0, 2024-03-04 15:49:17.438
21,-70179.67196,-35052.20682,-16681.71038,-17747.66508,-19560.57037,-30592.54206,-32426.72621,-60612.76771,0.078,0.778,0.584,192,0,0,0,0,0,0,0,0,0,1709547557,0, 2024-03-04 15:49:17.438
22,-70232.62325,-35075.02795,-16153.53866,-17791.29568,-19453.05848,-30636.75381,-32237.74221,-60588.33725,0.074,0.784,0.584,192,2,80,24,128,18,64,0,0,0,1709547557,0, 2024-03-04 15:49:17.438
23,-70220.5086,-35052.85502,-16100.65444,-17777.03527,-19468.23531,-30628.75189,-32274.08615,-60613.25945,0.074,0.784,0.584,192,0,0,0,0,0,0,0,0,0,1709547557,0, 2024-03-04 15:49:17.438
24,-70154.83918,-35005.35756,-16572.36565,-17715.16564,-19578.02708,-30569.94445,-32475.2295,-60633.66659,0.074,0.784,0.584,192,0,0,0,0,0,0,0,0,0,1709547557,0, 2024-03-04 15:49:17.438
25,-70127.72651,-34999.81433,-16933.92747,-17696.77016,-19638.91323,-30550.61019,-32582.38376,-60647.59173,0.074,0.784,0.584,192,0,0,0,0,0,0,0,0,0,1709547557,0, 2024-03-04 15:49:17.438
26,-70196.25696,-35042.3497,-16685.82311,-17748.29093,-19574.04847,-30598.84526,-32447.111,-60648.93283,0.074,0.784,0.584,192,0,0,0,0,0,0,0,0,0,1709547557,0, 2024-03-04 15:49:17.438
27,-70250.68346,-35067.71893,-16166.32386,-17791.5192,-19468.28001,-30640.93359,-32254.93071,-60637.6899,0.074,0.784,0.584,192,0,0,0,0,0,0,0,0,0,1709547557,0, 2024-03-04 15:49:17.438
28,-70221.00034,-35043.91432,-16102.28611,-17771.6932,-19471.76689,-30620.99583,-32283.45153,-60622.15544,0.074,0.784,0.584,192,0,0,0,0,0,0,0,0,0,1709547557,0, 2024-03-04 15:49:17.438
29,-70151.28525,-35002.16126,-16567.42591,-17712.81871,-19574.4061,-30559.86381,-32481.42093,-60608.90086,0.074,0.784,0.584,192,0,0,0,0,0,0,0,0,0,1709547557,0, 2024-03-04 15:49:17.438
30,-70135.12494,-35001.9601,-16931.91581,-17695.02672,-19634.26407,-30539.61313,-32583.38959,-60617.01454,0.074,0.784,0.584,192,0,0,0,0,0,0,0,0,0,1709547557,0, 2024-03-04 15:49:17.438
31,-70195.00526,-35041.72385,-16675.74247,-17739.52904,-19558.51401,-30579.82392,-32446.14988,-60611.04663,0.074,0.784,0.584,192,0,0,0,0,0,0,0,0,0,1709547557,0, 2024-03-04 15:49:17.438
32,-70258.9536,-35069.70824,-16151.79523,-17789.46284,-19454.7125,-30629.08717,-32259.71398,-60610.93487,0.078,0.784,0.582,192,2,112,24,128,18,48,0,0,0,1709547557,0, 2024-03-04 15:49:17.438
33,-70243.35208,-35050.21752,-16101.5038,-17781.03623,-19471.20809,-30622.80633,-32300.26004,-60635.90177,0.078,0.784,0.582,192,0,0,0,0,0,0,0,0,0,1709547557,0, 2024-03-04 15:49:17.438
34,-70169.59133,-35012.82305,-16575.98663,-17732.86822,-19579.21172,-30576.94055,-32511.32757,-60673.00566,0.078,0.784,0.582,192,0,0,0,0,0,0,0,0,0,1709547557,0, 2024-03-04 15:49:17.438
35,-70138.5224,-35008.88914,-16939.29189,-17711.03057,-19641.32722,-30551.05723,-32618.05715,-60652.73263,0.078,0.784,0.582,192,0,0,0,0,0,0,0,0,0,1709547557,0, 2024-03-04 15:49:17.438
36,-70186.10927,-35035.89005,-16663.02433,-17737.42798,-19549.4839,-30571.75494,-32457.86219,-60589.27603,0.078,0.784,0.582,192,0,0,0,0,0,0,0,0,0,1709547557,0, 2024-03-04 15:49:17.438
37,-70251.2646,-35065.01437,-16135.29964,-17783.96431,-19438.86512,-30617.77718,-32275.78488,-60576.15555,0.078,0.784,0.582,192,0,0,0,0,0,0,0,0,0,1709547557,0, 2024-03-04 15:49:17.438
38,-70233.22674,-35040.65097,-16085.70112,-17767.13345,-19450.42097,-30604.03086,-32304.35041,-60582.4811,0.078,0.784,0.582,192,0,0,0,0,0,0,0,0,0,1709547557,0, 2024-03-04 15:49:17.438
39,-70175.17926,-35013.87358,-16559.98278,-17729.15783,-19569.60047,-30568.22337,-32500.934,-60626.67049,0.078,0.784,0.582,192,0,0,0,0,0,0,0,0,0,1709547557,0, 2024-03-04 15:49:17.438
40,-70148.08895,-35011.549,-16935.11211,-17715.25505,-19634.64405,-30553.09123,-32612.02217,-60653.42553,0.078,0.784,0.582,192,0,0,0,0,0,0,0,0,0,1709547557,0, 2024-03-04 15:49:17.438
41,-70204.97414,-35049.32345,-16684.14672,-17760.0703,-19567.00767,-30595.98423,-32496.24014,-60648.59756,0.078,0.784,0.582,192,0,0,0,0,0,0,0,0,0,1709547557,0, 2024-03-04 15:49:17.438
42,-70261.5017,-35067.78599,-16157.65138,-17795.14018,-19453.19259,-30627.05316,-32292.14636,-60607.00096,0.07,0.778,0.582,192,2,48,24,80,18,48,0,0,0,1709547557,0, 2024-03-04 15:49:17.438
43,-70237.69709,-35042.59557,-16097.74871,-17778.62224,-19458.98169,-30611.07166,-32315.28042,-60592.94171,0.07,0.778,0.582,192,0,0,0,0,0,0,0,0,0,1709547557,0, 2024-03-04 15:49:17.438
44,-70159.19777,-35002.85417,-16560.11689,-17726.02859,-19564.14665,-30560.40025,-32512.78043,-60612.36538,0.07,0.778,0.582,192,0,0,0,0,0,0,0,0,0,1709547557,0, 2024-03-04 15:49:17.438
45,-70129.73817,-34997.66856,-16928.36188,-17707.23077,-19628.2291,-30541.066,-32615.46434,-60636.84054,0.07,0.778,0.582,192,0,0,0,0,0,0,0,0,0,1709547557,0, 2024-03-04 15:49:17.438
46,-70188.65737,-35029.45274,-16673.70846,-17745.9887,-19549.28274,-30576.71703,-32469.73097,-60635.45473,0.07,0.778,0.582,192,0,0,0,0,0,0,0,0,0,1709547557,0, 2024-03-04 15:49:17.438
47,-70260.13824,-35061.54985,-16156.42204,-17796.6154,-19448.47637,-30627.36608,-32280.88108,-60630.02326,0.07,0.778,0.582,192,0,0,0,0,0,0,0,0,0,1709547557,0, 2024-03-04 15:49:17.438
48,-70238.92644,-35039.44397,-16103.4037,-17780.56685,-19456.90298,-30612.30101,-32302.94225,-60618.13213,0.07,0.778,0.582,192,0,0,0,0,0,0,0,0,0,1709547557,0, 2024-03-04 15:49:17.438
49,-70172.60881,-35006.05047,-16575.51725,-17731.46006,-19566.82885,-30563.93183,-32510.41114,-60627.67632,0.07,0.778,0.582,192,0,0,0,0,0,0,0,0,0,1709547557,0, 2024-03-04 15:49:17.438
50,-70143.86447,-35000.86486,-16940.32007,-17706.51552,-19623.1776,-30536.99798,-32609.33997,-60625.28469,0.07,0.778,0.582,192,0,0,0,0,0,0,0,0,0,1709547557,0, 2024-03-04 15:49:17.438
51,-70192.47951,-35032.29142,-16678.6929,-17740.8478,-19546.13114,-30568.29042,-32462.26549,-60605.21282,0.07,0.778,0.582,192,0,0,0,0,0,0,0,0,0,1709547557,0, 2024-03-04 15:49:17.438
52,-70253.25391,-35061.39339,-16162.90404,-17789.68636,-19443.11195,-30618.29127,-32280.79167,-60603.84936,0.068,0.776,0.58,192,2,32,24,64,18,32,0,0,0,1709547557,0, 2024-03-04 15:49:17.438
53,-70234.07611,-35040.96389,-16105.54947,-17777.05762,-19448.99046,-30609.97642,-32309.82659,-60620.05438,0.068,0.776,0.58,192,0,0,0,0,0,0,0,0,0,1709547557,0, 2024-03-04 15:49:17.438
54,-70166.95382,-35006.4975,-16570.86808,-17730.45423,-19558.96104,-30565.4294,-32521.43055,-60650.58686,0.068,0.776,0.58,192,0,0,0,0,0,0,0,0,0,1709547557,0, 2024-03-04 15:49:17.438
55,-70142.16574,-35003.77059,-16936.00618,-17712.774,-19618.6849,-30543.61409,-32622.46044,-60656.39832,0.068,0.776,0.58,192,0,0,0,0,0,0,0,0,0,1709547557,0, 2024-03-04 15:49:17.438
56,-70196.25696,-35036.29238,-16671.62975,-17747.9333,-19540.27498,-30574.07952,-32471.31794,-60623.11657,0.068,0.776,0.58,192,0,0,0,0,0,0,0,0,0,1709547557,0, 2024-03-04 15:49:17.438
57,-70254.03622,-35060.8793,-16149.35889,-17791.67566,-19431.95843,-30618.13481,-32275.29314,-60602.75413,0.068,0.776,0.58,192,0,0,0,0,0,0,0,0,0,1709547557,0, 2024-03-04 15:49:17.438
58,-70245.25198,-35050.84336,-16107.31526,-17789.99928,-19453.4161,-30621.97931,-32318.9014,-60635.49943,0.068,0.776,0.58,192,0,0,0,0,0,0,0,0,0,1709547557,0, 2024-03-04 15:49:17.438
59,-70174.57577,-35011.41489,-16571.20336,-17736.01982,-19561.03975,-30570.05621,-32521.22939,-60646.40709,0.068,0.776,0.58,192,0,0,0,0,0,0,0,0,0,1709547557,0, 2024-03-04 15:49:17.438
60,-70149.98885,-35010.49847,-16939.35894,-17717.60198,-19625.32337,-30549.33614,-32620.47113,-60641.86968,0.068,0.776,0.58,192,0,0,0,0,0,0,0,0,0,1709547558,0, 2024-03-04 15:49:17.919
61,-70202.47074,-35044.83074,-16683.49852,-17755.42113,-19548.38867,-30585.56832,-32454.37532,-60622.44602,0.068,0.776,0.58,192,0,0,0,0,0,0,0,0,0,1709547558,0, 2024-03-04 15:49:17.919
62,-70261.05467,-35064.65674,-16152.89046,-17795.47546,-19436.24996,-30628.12604,-32289.12887,-60614.95818,0.068,0.774,0.582,192,2,32,24,48,18,48,0,0,0,1709547558,0, 2024-03-04 15:49:17.919
63,-70247.10718,-35046.66359,-16105.03538,-17787.09355,-19455.85244,-30625.98027,-32320.51072,-60629.01743,0.068,0.774,0.582,192,0,0,0,0,0,0,0,0,0,1709547558,0, 2024-03-04 15:49:17.919
64,-70176.63213,-35009.51499,-16576.1878,-17739.05966,-19565.57716,-30582.03674,-32518.05544,-60657.00181,0.068,0.774,0.582,192,0,0,0,0,0,0,0,0,0,1709547558,0, 2024-03-04 15:49:17.919
65,-70150.48059,-35005.71519,-16934.08393,-17716.97613,-19619.10959,-30556.46635,-32620.15821,-60659.88519,0.068,0.774,0.582,192,0,0,0,0,0,0,0,0,0,1709547558,0, 2024-03-04 15:49:17.919
66,-70205.97997,-35040.20393,-16669.84161,-17753.09655,-19538.73271,-30587.53527,-32470.31211,-60631.02909,0.068,0.774,0.582,192,0,0,0,0,0,0,0,0,0,1709547558,0, 2024-03-04 15:49:17.919
67,-70268.94483,-35067.9201,-16149.11302,-17800.5046,-19436.6523,-30634.16101,-32281.32812,-60614.48879,0.068,0.774,0.582,192,0,0,0,0,0,0,0,0,0,1709547558,0, 2024-03-04 15:49:17.919
68,-70254.34914,-35051.15629,-16098.68748,-17793.75437,-19455.49482,-30631.09882,-32312.03941,-60642.07085,0.068,0.774,0.582,192,0,0,0,0,0,0,0,0,0,1709547558,0, 2024-03-04 15:49:17.919
69,-70189.59614,-35018.41098,-16564.40843,-17742.94886,-19562.2244,-30582.34967,-32518.61423,-60664.02026,0.068,0.774,0.582,192,0,0,0,0,0,0,0,0,0,1709547558,0, 2024-03-04 15:49:17.919
70,-70160.80709,-35018.94742,-16923.55626,-17722.65348,-19622.32824,-30558.58976,-32626.66257,-60652.19619,0.068,0.774,0.582,192,0,0,0,0,0,0,0,0,0,1709547558,0, 2024-03-04 15:49:17.919
71,-70219.54748,-35059.53819,-16672.56852,-17764.42889,-19550.44503,-30598.48763,-32483.36553,-60645.02128,0.068,0.774,0.582,192,0,0,0,0,0,0,0,0,0,1709547558,0, 2024-03-04 15:49:17.919
72,-70275.80682,-35083.9463,-16148.46482,-17806.78544,-19439.46861,-30642.34175,-32288.57008,-60632.99604,0.072,0.78,0.582,192,2,64,24,96,18,48,0,0,0,1709547558,0, 2024-03-04 15:49:17.919
73,-70256.60667,-35063.20388,-16096.74288,-17793.64262,-19454.17606,-30632.39522,-32325.58457,-60637.08641,0.072,0.78,0.582,192,0,0,0,0,0,0,0,0,0,1709547558,0, 2024-03-04 15:49:17.919
74,-70186.77982,-35023.0825,-16558.99931,-17737.98677,-19559.09515,-30576.22529,-32528.49371,-60644.06015,0.072,0.78,0.582,192,0,0,0,0,0,0,0,0,0,1709547558,0, 2024-03-04 15:49:17.919
75,-70160.36006,-35017.31575,-16922.03634,-17713.28809,-19614.46042,-30546.60923,-32628.78598,-60632.19138,0.072,0.78,0.582,192,0,0,0,0,0,0,0,0,0,1709547558,0, 2024-03-04 15:49:17.919
76,-70208.21514,-35049.25639,-16666.39944,-17750.68256,-19536.07285,-30579.89098,-32481.80091,-60611.35955,0.072,0.78,0.582,192,0,0,0,0,0,0,0,0,0,1709547558,0, 2024-03-04 15:49:17.919
77,-70272.65522,-35081.86759,-16150.7894,-17804.19264,-19440.56385,-30633.22224,-32298.76248,-60613.19239,0.072,0.78,0.582,192,0,0,0,0,0,0,0,0,0,1709547558,0, 2024-03-04 15:49:17.919
78,-70255.37732,-35059.73936,-16095.80411,-17791.42979,-19455.53952,-30626.49436,-32322.72355,-60627.78808,0.072,0.78,0.582,192,0,0,0,0,0,0,0,0,0,1709547558,0, 2024-03-04 15:49:17.919
79,-70186.35514,-35023.55188,-16558.19464,-17739.6855,-19561.39738,-30579.10866,-32522.77166,-60649.49163,0.072,0.78,0.582,192,0,0,0,0,0,0,0,0,0,1709547558,0, 2024-03-04 15:49:17.919
80,-70165.79153,-35028.11164,-16923.98094,-17723.88282,-19621.61298,-30563.50715,-32614.25735,-60666.88128,0.072,0.78,0.582,192,0,0,0,0,0,0,0,0,0,1709547558,0, 2024-03-04 15:49:17.919
81,-70223.88372,-35062.39922,-16674.75899,-17760.62909,-19552.45668,-30598.59939,-32496.37425,-60649.46927,0.072,0.78,0.582,192,0,0,0,0,0,0,0,0,0,1709547558,0, 2024-03-04 15:49:17.919
82,-70275.89622,-35079.58771,-16150.1412,-17798.38119,-19443.38017,-30639.90541,-32311.77119,-60629.50917,0.074,0.774,0.584,192,2,80,24,48,18,64,0,0,0,1709547558,0, 2024-03-04 15:49:17.919
83,-70264.20626,-35064.85791,-16099.6039,-17796.7048,-19467.60946,-30642.81114,-32336.84985,-60653.60435,0.074,0.774,0.584,192,0,0,0,0,0,0,0,0,0,1709547558,0, 2024-03-04 15:49:17.919
84,-70198.0451,-35028.8269,-16568.16352,-17749.52027,-19577.96002,-30595.87247,-32529.45483,-60677.31955,0.074,0.774,0.584,192,0,0,0,0,0,0,0,0,0,1709547558,0, 2024-03-04 15:49:17.919
85,-70160.49417,-35016.7346,-16923.98094,-17716.03736,-19626.3739,-30555.16995,-32618.21361,-60641.75792,0.074,0.774,0.584,192,0,0,0,0,0,0,0,0,0,1709547558,0, 2024-03-04 15:49:17.919
86,-70219.9051,-35056.07367,-16673.44024,-17756.62813,-19556.14472,-30591.20096,-32471.76498,-60621.28372,0.074,0.774,0.584,192,0,0,0,0,0,0,0,0,0,1709547558,0, 2024-03-04 15:49:17.919
87,-70282.69115,-35083.14163,-16152.15285,-17804.43851,-19449.86218,-30638.85488,-32281.1046,-60616.14282,0.074,0.774,0.584,192,0,0,0,0,0,0,0,0,0,1709547558,0, 2024-03-04 15:49:17.919
88,-70269.63774,-35068.54595,-16096.3182,-17801.77865,-19469.28584,-30639.01134,-32316.17449,-60641.62381,0.074,0.774,0.584,192,0,0,0,0,0,0,0,0,0,1709547558,0, 2024-03-04 15:49:17.919
89,-70195.96639,-35026.23409,-16557.43468,-17749.43086,-19574.74137,-30588.27288,-32512.53456,-60670.03288,0.074,0.774,0.584,192,0,0,0,0,0,0,0,0,0,1709547558,0, 2024-03-04 15:49:17.919
90,-70167.35615,-35023.68599,-16923.75742,-17731.03538,-19634.84521,-30567.93279,-32628.94245,-60681.74519,0.074,0.774,0.584,192,0,0,0,0,0,0,0,0,0,1709547558,0, 2024-03-04 15:49:17.919
91,-70226.70003,-35064.43322,-16679.74343,-17774.12954,-19566.87356,-30607.45068,-32496.21779,-60666.43425,0.074,0.774,0.584,192,0,0,0,0,0,0,0,0,0,1709547558,0, 2024-03-04 15:49:17.919
92,-70289.32962,-35088.26018,-16148.17424,-17816.55315,-19444.87774,-30650.0531,-32294.18037,-60645.44596,0.074,0.786,0.582,192,2,80,24,144,18,48,0,0,0,1709547558,0, 2024-03-04 15:49:17.919
93,-70272.31995,-35066.24372,-16088.94212,-17801.28691,-19450.30921,-30635.8821,-32317.58265,-60627.43045,0.074,0.786,0.582,192,0,0,0,0,0,0,0,0,0,1709547558,0, 2024-03-04 15:49:17.919
94,-70200.74966,-35026.99405,-16553.94781,-17745.4299,-19559.92217,-30581.63441,-32514.79209,-60628.54804,0.074,0.786,0.582,192,0,0,0,0,0,0,0,0,0,1709547558,0, 2024-03-04 15:49:17.919
95,-70169.32311,-35023.7754,-16921.32108,-17721.40178,-19621.70239,-30557.22631,-32616.51488,-60636.08058,0.074,0.786,0.582,192,0,0,0,0,0,0,0,0,0,1709547558,0, 2024-03-04 15:49:17.919
96,-70216.28412,-35053.25735,-16671.62975,-17755.51054,-19549.81918,-30590.61981,-32472.99432,-60630.0009,0.074,0.786,0.582,192,0,0,0,0,0,0,0,0,0,1709547558,0, 2024-03-04 15:49:17.919
97,-70278.84665,-35077.62075,-16148.66598,-17796.16836,-19440.67561,-30631.29999,-32279.2047,-60602.70942,0.074,0.786,0.582,192,0,0,0,0,0,0,0,0,0,1709547558,0, 2024-03-04 15:49:17.919
98,-70270.21888,-35065.17083,-16096.87699,-17787.87587,-19460.56866,-30626.40496,-32312.64291,-60605.5481,0.074,0.786,0.582,192,0,0,0,0,0,0,0,0,0,1709547558,0, 2024-03-04 15:49:17.919
99,-70202.89543,-35031.66557,-16567.09064,-17741.63011,-19575.7919,-30584.38368,-32518.61423,-60648.5752,0.074,0.786,0.582,192,0,0,0,0,0,0,0,0,0,1709547558,0, 2024-03-04 15:49:17.919
100,-70170.5301,-35023.61894,-16932.96634,-17717.8702,-19635.80634,-30558.79093,-32619.71117,-60659.63932,0.074,0.786,0.582,192,0,0,0,0,0,0,0,0,0,1709547558,0, 2024-03-04 15:49:17.919
101,-70218.83222,-35050.46338,-16678.02235,-17748.17917,-19554.20012,-30584.89777,-32478.73872,-60631.61023,0.074,0.786,0.582,192,0,0,0,0,0,0,0,0,0,1709547558,0, 2024-03-04 15:49:17.919
102,-70286.31214,-35078.58188,-16159.50658,-17795.38605,-19451.80678,-30633.08813,-32285.32908,-60618.91444,0.076,0.786,0.576,192,2,96,24,144,18,0,0,0,0,1709547558,0, 2024-03-04 15:49:17.919
103,-70279.11488,-35069.08239,-16107.49407,-17794.29082,-19470.6493,-30638.60901,-32319.99663,-60653.44788,0.076,0.786,0.576,192,0,0,0,0,0,0,0,0,0,1709547558,0, 2024-03-04 15:49:17.919
104,-70210.42796,-35040.89684,-16569.92931,-17754.61647,-19583.57031,-30601.99685,-32525.27505,-60700.78888,0.076,0.786,0.576,192,0,0,0,0,0,0,0,0,0,1709547558,0, 2024-03-04 15:49:17.919
105,-70179.40374,-35036.62765,-16934.50861,-17734.23168,-19644.47882,-30577.16406,-32632.11639,-60704.40986,0.076,0.786,0.576,192,0,0,0,0,0,0,0,0,0,1709547558,0, 2024-03-04 15:49:17.919
106,-70227.88468,-35065.08143,-16680.79396,-17764.92062,-19561.6209,-30601.57217,-32486.09245,-60646.07181,0.076,0.786,0.576,192,0,0,0,0,0,0,0,0,0,1709547558,0, 2024-03-04 15:49:17.919
107,-70291.07306,-35087.34376,-16151.16938,-17805.86902,-19449.10222,-30639.79365,-32287.18427,-60602.26239,0.076,0.786,0.576,192,0,0,0,0,0,0,0,0,0,1709547558,0, 2024-03-04 15:49:17.919
108,-70272.387,-35067.89775,-16097.03345,-17795.14018,-19461.50744,-30631.05412,-32312.64291,-60612.65595,0.076,0.786,0.576,192,0,0,0,0,0,0,0,0,0,1709547558,0, 2024-03-04 15:49:17.919
109,-70208.3716,-35041.45563,-16572.00802,-17756.13639,-19580.48577,-30596.16305,-32523.19634,-60660.55574,0.076,0.786,0.576,192,0,0,0,0,0,0,0,0,0,1709547558,0, 2024-03-04 15:49:17.919
110,-70177.90618,-35031.97849,-16937.16847,-17732.6447,-19639.67319,-30572.02316,-32623.64508,-60677.54307,0.076,0.786,0.576,192,0,0,0,0,0,0,0,0,0,1709547558,0, 2024-03-04 15:49:17.919
111,-70230.87981,-35061.63926,-16678.7376,-17769.36862,-19560.4139,-30603.98616,-32478.87283,-60648.39639,0.076,0.786,0.576,192,0,0,0,0,0,0,0,0,0,1709547558,0, 2024-03-04 15:49:17.919
112,-70289.82136,-35084.81802,-16158.83603,-17812.95452,-19449.92923,-30645.78392,-32281.66339,-60613.84059,0.072,0.786,0.574,192,2,64,24,144,17,240,0,0,0,1709547558,0, 2024-03-04 15:49:17.919
113,-70272.20819,-35066.78016,-16111.80796,-17806.36076,-19465.62016,-30641.60414,-32313.40287,-60628.30217,0.072,0.786,0.574,192,0,0,0,0,0,0,0,0,0,1709547558,0, 2024-03-04 15:49:17.919
114,-70198.53684,-35025.38473,-16572.56682,-17753.18596,-19570.74041,-30590.01632,-32498.58707,-60656.75594,0.072,0.786,0.574,192,0,0,0,0,0,0,0,0,0,1709547558,0, 2024-03-04 15:49:17.919
115,-70168.36198,-35020.24383,-16925.9926,-17728.01789,-19624.474,-30563.01541,-32623.71214,-60664.17672,0.072,0.786,0.574,192,0,0,0,0,0,0,0,0,0,1709547558,0, 2024-03-04 15:49:17.919
116,-70231.79623,-35067.13779,-16680.19047,-17777.95169,-19559.22926,-30609.6188,-32492.79797,-60656.2642,0.072,0.786,0.574,192,0,0,0,0,0,0,0,0,0,1709547558,0, 2024-03-04 15:49:17.919
117,-70291.98948,-35090.94239,-16158.97014,-17822.43166,-19453.93019,-30654.07642,-32299.38833,-60650.05042,0.072,0.786,0.574,192,0,0,0,0,0,0,0,0,0,1709547558,0, 2024-03-04 15:49:17.919
118,-70276.76794,-35073.77625,-16105.37065,-17811.47931,-19466.8495,-30646.70034,-32323.23764,-60653.40318,0.072,0.786,0.574,192,0,0,0,0,0,0,0,0,0,1709547558,0, 2024-03-04 15:49:17.919
119,-70208.21514,-35037.1641,-16574.84669,-17760.38322,-19576.9542,-30597.4371,-32530.75123,-60664.06496,0.072,0.786,0.574,192,0,0,0,0,0,0,0,0,0,1709547558,0, 2024-03-04 15:49:17.919
120,-70175.24632,-35029.25158,-16935.71561,-17733.67289,-19633.70527,-30570.72676,-32626.43905,-60667.28361,0.072,0.786,0.574,192,0,0,0,0,0,0,0,0,0,1709547558,0, 2024-03-04 15:49:17.919
121,-70229.24813,-35062.84625,-16685.7337,-17772.56492,-19559.29632,-30608.12123,-32483.38789,-60657.20298,0.072,0.786,0.574,192,0,0,0,0,0,0,0,0,0,1709547558,0, 2024-03-04 15:49:17.919
122,-70290.60367,-35088.26018,-16166.23445,-17816.77667,-19452.38792,-30653.56233,-32296.68376,-60635.0971,0.072,0.786,0.574,192,0,0,0,0,0,0,0,0,0,1709547558,0, 2024-03-04 15:49:17.919
123,-70273.41518,-35067.3613,-16108.09757,-17802.47155,-19465.12842,-30642.3641,-32319.52725,-60635.52179,0.072,0.782,0.574,192,2,64,24,112,17,240,0,0,0,1709547558,0, 2024-03-04 15:49:17.919
124,-70206.3376,-35034.25837,-16576.1431,-17755.86817,-19578.87645,-30600.58869,-32529.52189,-60680.26998,0.072,0.782,0.574,192,0,0,0,0,0,0,0,0,0,1709547558,0, 2024-03-04 15:49:17.919
125,-70176.2745,-35028.31281,-16936.49792,-17732.80117,-19634.53229,-30577.02995,-32632.65283,-60703.80636,0.072,0.782,0.574,192,0,0,0,0,0,0,0,0,0,1709547558,0, 2024-03-04 15:49:17.919
126,-70233.78554,-35063.00271,-16690.80754,-17770.62032,-19565.91243,-30612.03278,-32494.94374,-60697.79375,0.072,0.782,0.574,192,0,0,0,0,0,0,0,0,0,1709547558,0, 2024-03-04 15:49:17.919
127,-70304.10413,-35099.70428,-16175.53278,-17826.7232,-19468.7941,-30669.1862,-32309.08898,-60685.7238,0.072,0.782,0.574,192,0,0,0,0,0,0,0,0,0,1709547558,0, 2024-03-04 15:49:17.919
128,-70285.64159,-35082.33697,-16128.70587,-17818.27424,-19485.87084,-30661.43014,-32341.3649,-60675.17378,0.072,0.782,0.574,192,0,0,0,0,0,0,0,0,0,1709547558,0, 2024-03-04 15:49:17.919
129,-70211.45615,-35043.71316,-16590.15764,-17764.29478,-19584.93377,-30605.84135,-32531.17592,-60670.32345,0.072,0.782,0.574,192,0,0,0,0,0,0,0,0,0,1709547558,0, 2024-03-04 15:49:17.919
130,-70177.72736,-35032.00084,-16946.31033,-17732.48824,-19628.45261,-30569.38566,-32617.83363,-60634.29244,0.072,0.782,0.574,192,0,0,0,0,0,0,0,0,0,1709547558,0, 2024-03-04 15:49:17.919
131,-70234.38904,-35064.99202,-16699.48002,-17770.64267,-19555.29535,-30603.51677,-32472.86021,-60615.69579,0.072,0.782,0.574,192,0,0,0,0,0,0,0,0,0,1709547558,0, 2024-03-04 15:49:17.919
132,-70296.19161,-35092.59642,-16185.32284,-17821.76111,-19453.17023,-30657.00449,-32284.88204,-60625.57526,0.072,0.782,0.574,192,0,0,0,0,0,0,0,0,0,1709547558,0, 2024-03-04 15:49:17.919
133,-70277.99729,-35073.93272,-16142.00516,-17813.84859,-19473.21975,-30654.23288,-32326.47864,-60650.18453,0.062,0.786,0.568,192,1,240,24,144,17,192,0,0,0,1709547558,0, 2024-03-04 15:49:17.919
134,-70207.79046,-35034.39248,-16615.9292,-17761.61257,-19584.79966,-30603.33796,-32532.31585,-60680.80642,0.062,0.786,0.568,192,0,0,0,0,0,0,0,0,0,1709547558,0, 2024-03-04 15:49:17.919
