Sample Index, EXG Channel 0, EXG Channel 1, EXG Channel 2, EXG Channel 3, EXG Channel 4, EXG Channel 5, EXG Channel 6, EXG Channel 7, Accel Channel 0, Accel Channel 1, Accel Channel 2, Other, Other, Other, Other, Other, Other, Other, Analog Channel 0, Analog Channel 1, Analog Channel 2, Timestamp, Other, Timestamp (Formatted)
0,-5742.140799,-21022.9109,-7268.899056,-13356.66488,-5015.373828,6417.766978,-6775.461945,10282.33889,0.054,0.942,-0.128,192,1,176,29,112,252,0,0,0,0,1.71E+09,0, 2024-03-15 15:22:20.717
1,-6924.324563,-20732.94171,-7303.320742,-13406.73279,-6631.784932,5652.97969,-8169.204971,6753.758401,0.054,0.942,-0.128,192,0,0,0,0,0,0,0,0,0,1.71E+09,0, 2024-03-15 15:22:20.717
2,-8342.140417,-20575.58543,-7233.069209,-13353.24506,-7238.500683,5236.007897,-8749.299794,3131.948785,0.054,0.942,-0.128,192,0,0,0,0,0,0,0,0,0,1.71E+09,0, 2024-03-15 15:22:20.717
3,-7855.565292,-20791.43623,-7161.923607,-13269.806,-5872.630283,5825.848082,-7606.008065,4747.823447,0.054,0.942,-0.128,192,0,0,0,0,0,0,0,0,0,1.71E+09,0, 2024-03-15 15:22:20.717
4,-6321.408608,-21052.81753,-7191.807889,-13285.29576,-4584.923933,6501.250744,-6445.930176,9091.236781,0.054,0.942,-0.128,192,0,0,0,0,0,0,0,0,0,1.71E+09,0, 2024-03-15 15:22:20.717
5,-5750.410944,-21012.40558,-7264.585169,-13348.57355,-5006.701351,6416.582336,-6760.419221,10292.33012,0.054,0.942,-0.128,192,0,0,0,0,0,0,0,0,0,1.71E+09,0, 2024-03-15 15:22:20.717
6,-6913.483967,-20731.10887,-7308.796919,-13401.59189,-6617.613926,5653.627891,-8152.2847,6792.650436,0.054,0.942,-0.128,192,0,0,0,0,0,0,0,0,0,1.71E+09,0, 2024-03-15 15:22:20.717
7,-8346.007269,-20580.07813,-7247.463733,-13354.78733,-7251.844675,5223.2227,-8756.899387,3140.710669,0.054,0.942,-0.128,192,0,0,0,0,0,0,0,0,0,1.71E+09,0, 2024-03-15 15:22:20.717
8,-7887.796508,-20794.38666,-7172.920665,-13269.91776,-5892.45628,5806.849099,-7617.250993,4708.305563,0.054,0.942,-0.128,192,0,0,0,0,0,0,0,0,0,1.71E+09,0, 2024-03-15 15:22:20.717
9,-6355.070335,-21055.29857,-7199.027502,-13279.79723,-4589.394282,6492.846488,-6446.399563,9053.216464,0.054,0.942,-0.128,192,0,0,0,0,0,0,0,0,0,1.71E+09,0, 2024-03-15 15:22:20.717
10,-5755.328328,-21027.33654,-7270.262512,-13346.15956,-4984.2602,6418.281069,-6737.016945,10311.2397,0.056,0.946,-0.124,192,1,192,29,144,252,32,0,0,0,1.71E+09,0, 2024-03-15 15:22:20.717
11,-6900.922287,-20746.12924,-7311.143853,-13401.45777,-6591.216515,5662.568589,-8123.316839,6859.817429,0.056,0.946,-0.124,192,0,0,0,0,0,0,0,0,0,1.71E+09,0, 2024-03-15 15:22:20.717
12,-8358.83717,-20587.43186,-7249.900073,-13357.22367,-7256.896169,5219.489958,-8752.83137,3173.14305,0.056,0.946,-0.124,192,0,0,0,0,0,0,0,0,0,1.71E+09,0, 2024-03-15 15:22:20.717
13,-7927.314392,-20792.68793,-7170.797249,-13267.41436,-5914.517452,5793.79568,-7628.918604,4667.379518,0.056,0.946,-0.124,192,0,0,0,0,0,0,0,0,0,1.71E+09,0, 2024-03-15 15:22:20.717
14,-6377.824411,-21057.48904,-7193.864249,-13278.25496,-4586.734424,6487.638532,-6439.403467,9018.660667,0.056,0.946,-0.124,192,0,0,0,0,0,0,0,0,0,1.71E+09,0, 2024-03-15 15:22:20.717
15,-5748.958081,-21037.19366,-7268.116745,-13349.2441,-4958.958025,6417.27524,-6704.741026,10345.9296,0.056,0.946,-0.124,192,0,0,0,0,0,0,0,0,0,1.71E+09,0, 2024-03-15 15:22:20.717
16,-6887.779461,-20753.95235,-7308.238126,-13406.37516,-6566.54019,5659.484048,-8094.572496,6916.255583,0.056,0.946,-0.124,192,0,0,0,0,0,0,0,0,0,1.71E+09,0, 2024-03-15 15:22:20.717
17,-8353.785676,-20593.69035,-7248.290747,-13369.89711,-7250.704736,5202.72615,-8740.78378,3185.391806,0.056,0.946,-0.124,192,0,0,0,0,0,0,0,0,0,1.71E+09,0, 2024-03-15 15:22:20.717
18,-7925.548604,-20794.31961,-7169.299682,-13280.11015,-5922.072342,5766.392442,-7631.533758,4632.108466,0.056,0.946,-0.124,192,0,0,0,0,0,0,0,0,0,1.71E+09,0, 2024-03-15 15:22:20.717
19,-6372.839972,-21054.78448,-7188.566886,-13282.16651,-4581.481764,6463.520999,-6431.62506,9005.830765,0.056,0.946,-0.124,192,0,0,0,0,0,0,0,0,0,1.71E+09,0, 2024-03-15 15:22:20.717
20,-5751.193255,-21036.41135,-7265.456887,-13355.07791,-4951.783115,6399.349141,-6699.9354,10375.36685,0.052,0.95,-0.13,192,1,160,29,176,251,240,0,0,0,1.71E+09,0, 2024-03-15 15:22:20.717
21,-6871.663853,-20759.24972,-7313.960172,-13414.10886,-6557.711251,5645.648318,-8089.699815,6977.45466,0.052,0.95,-0.13,192,0,0,0,0,0,0,0,0,0,1.71E+09,0, 2024-03-15 15:22:20.717
22,-8334.987859,-20592.17043,-7255.286843,-13372.13229,-7262.797029,5187.258743,-8756.988794,3207.587088,0.052,0.95,-0.13,192,0,0,0,0,0,0,0,0,0,1.71E+09,0, 2024-03-15 15:22:20.717
23,-7926.196805,-20781.51206,-7169.590255,-13276.17625,-5943.619423,5755.037755,-7660.300453,4586.823831,0.052,0.95,-0.13,192,0,0,0,0,0,0,0,0,0,1.71E+09,0, 2024-03-15 15:22:20.717
24,-6378.45026,-21042.80395,-7188.276313,-13279.9984,-4596.54684,6459.162409,-6458.044822,8956.455762,0.052,0.95,-0.13,192,0,0,0,0,0,0,0,0,0,1.71E+09,0, 2024-03-15 15:22:20.717
25,-5729.802636,-21022.3521,-7260.785372,-13347.43361,-4946.08342,6408.602763,-6706.953848,10373.13168,0.052,0.95,-0.13,192,0,0,0,0,0,0,0,0,0,1.71E+09,0, 2024-03-15 15:22:20.717
26,-6832.883576,-20744.8999,-7307.209946,-13405.6152,-6544.277852,5657.986481,-8084.804783,7007.629515,0.052,0.95,-0.13,192,0,0,0,0,0,0,0,0,0,1.71E+09,0, 2024-03-15 15:22:20.717
27,-8313.261964,-20575.58543,-7251.062364,-13363.95155,-7266.90975,5189.225696,-8764.320167,3205.731893,0.052,0.95,-0.13,192,0,0,0,0,0,0,0,0,0,1.71E+09,0, 2024-03-15 15:22:20.717
28,-7926.39797,-20765.44115,-7165.544589,-13266.16267,-5957.432801,5749.941558,-7675.857267,4547.708279,0.052,0.95,-0.13,192,0,0,0,0,0,0,0,0,0,1.71E+09,0, 2024-03-15 15:22:20.717
29,-6381.154821,-21033.2374,-7186.577581,-13270.56596,-4600.011361,6452.523941,-6462.872799,8924.045733,0.052,0.95,-0.13,192,0,0,0,0,0,0,0,0,0,1.71E+09,0, 2024-03-15 15:22:20.717
30,-5723.745313,-21024.72139,-7265.702756,-13340.23635,-4938.483827,6402.903068,-6701.880002,10391.01307,0.054,0.956,-0.12,192,1,176,29,224,252,64,0,0,0,1.71E+09,0, 2024-03-15 15:22:20.717
31,-6820.165434,-20748.16325,-7311.300315,-13400.25078,-6533.817236,5656.533618,-8074.075946,7055.395193,0.054,0.956,-0.12,192,0,0,0,0,0,0,0,0,0,1.71E+09,0, 2024-03-15 15:22:20.717
32,-8307.718731,-20576.50186,-7253.789276,-13359.61531,-7270.597788,5181.939028,-8762.152047,3229.26828,0.054,0.956,-0.12,192,0,0,0,0,0,0,0,0,0,1.71E+09,0, 2024-03-15 15:22:20.717
33,-7935.22691,-20776.52762,-7181.347273,-13273.73991,-5980.388043,5730.272023,-7693.626904,4537.247662,0.054,0.956,-0.12,192,0,0,0,0,0,0,0,0,0,1.71E+09,0, 2024-03-15 15:22:20.717
34,-6398.455071,-21035.33847,-7189.751528,-13268.93428,-4609.577907,6446.801895,-6466.404374,8905.493785,0.054,0.956,-0.12,192,0,0,0,0,0,0,0,0,0,1.71E+09,0, 2024-03-15 15:22:20.717
35,-5733.535377,-21020.94394,-7257.522018,-13328.70285,-4921.138873,6416.001191,-6680.869362,10403.70886,0.054,0.956,-0.12,192,0,0,0,0,0,0,0,0,0,1.71E+09,0, 2024-03-15 15:22:20.717
36,-6816.410341,-20755.69579,-7310.763873,-13394.86401,-6515.332343,5669.989368,-8051.344222,7122.293964,0.054,0.956,-0.12,192,0,0,0,0,0,0,0,0,0,1.71E+09,0, 2024-03-15 15:22:20.717
37,-8302.913106,-20578.20059,-7251.196474,-13353.22271,-7266.663881,5189.046882,-8758.173437,3271.691891,0.054,0.956,-0.12,192,0,0,0,0,0,0,0,0,0,1.71E+09,0, 2024-03-15 15:22:20.717
38,-7945.307546,-20777.6452,-7175.357005,-13265.08978,-5983.025549,5730.160264,-7697.024369,4534.006659,0.054,0.956,-0.12,192,0,0,0,0,0,0,0,0,0,1.71E+09,0, 2024-03-15 15:22:20.717
39,-6422.170272,-21049.06244,-7192.433738,-13268.53195,-4609.466149,6439.448171,-6463.923331,8898.587096,0.054,0.956,-0.12,192,0,0,0,0,0,0,0,0,0,1.71E+09,0, 2024-03-15 15:22:20.717
40,-5743.593662,-21047.49781,-7265.590997,-13340.9069,-4905.783225,6407.932211,-6662.362118,10442.37738,0.058,0.956,-0.122,192,1,208,29,224,252,48,0,0,0,1.71E+09,0, 2024-03-15 15:22:20.717
41,-6801.322913,-20764.34592,-7304.214812,-13390.08074,-6486.945628,5676.873705,-8026.556137,7170.953711,0.058,0.956,-0.122,192,0,0,0,0,0,0,0,0,0,1.71E+09,0, 2024-03-15 15:22:20.717
42,-8303.024865,-20588.12476,-7247.821361,-13353.6921,-7257.700832,5186.923467,-8741.186111,3289.461528,0.058,0.956,-0.122,192,0,0,0,0,0,0,0,0,0,1.71E+09,0, 2024-03-15 15:22:20.717
43,-7967.994567,-20784.86482,-7172.205409,-13272.04117,-5990.647494,5715.072836,-7687.971912,4500.881374,0.058,0.956,-0.122,192,0,0,0,0,0,0,0,0,0,1.71E+09,0, 2024-03-15 15:22:20.717
44,-6432.13915,-21055.6562,-7188.298665,-13274.83514,-4607.409788,6424.248984,-6456.390793,8872.033223,0.058,0.956,-0.122,192,0,0,0,0,0,0,0,0,0,1.71E+09,0, 2024-03-15 15:22:20.717
45,-5731.680182,-21043.58626,-7254.146904,-13338.69408,-4890.069948,6402.903068,-6649.554568,10449.6864,0.058,0.956,-0.122,192,0,0,0,0,0,0,0,0,0,1.71E+09,0, 2024-03-15 15:22:20.717
46,-6781.385157,-20772.59371,-7305.198289,-13403.13416,-6471.835848,5666.100164,-8010.06055,7210.672761,0.058,0.956,-0.122,192,0,0,0,0,0,0,0,0,0,1.71E+09,0, 2024-03-15 15:22:20.717
47,-8299.694455,-20591.43282,-7251.956433,-13369.40537,-7265.233369,5164.214094,-8746.55053,3301.129139,0.058,0.956,-0.122,192,0,0,0,0,0,0,0,0,0,1.71E+09,0, 2024-03-15 15:22:20.717
48,-7973.247227,-20770.91733,-7166.729232,-13274.52222,-6003.54445,5696.587944,-7704.579259,4455.08265,0.058,0.956,-0.122,192,0,0,0,0,0,0,0,0,0,1.71E+09,0, 2024-03-15 15:22:20.717
49,-6439.69404,-21040.70288,-7185.057662,-13274.32105,-4617.736294,6412.939002,-6471.657034,8823.328772,0.058,0.956,-0.122,192,0,0,0,0,0,0,0,0,0,1.71E+09,0, 2024-03-15 15:22:20.717
50,-5733.982412,-21041.12757,-7267.826172,-13346.15956,-4901.558745,6393.872964,-6667.547723,10463.05275,0.058,0.95,-0.122,192,1,208,29,176,252,48,0,0,0,1.71E+09,0, 2024-03-15 15:22:20.717
51,-6768.979939,-20768.41393,-7314.541318,-13406.33046,-6480.418918,5662.881513,-8027.003172,7261.187704,0.058,0.95,-0.122,192,0,0,0,0,0,0,0,0,0,1.71E+09,0, 2024-03-15 15:22:20.717
52,-8284.00353,-20584.92846,-7259.757192,-13371.6182,-7284.008835,5154.960472,-8772.299739,3320.150473,0.058,0.95,-0.122,192,0,0,0,0,0,0,0,0,0,1.71E+09,0, 2024-03-15 15:22:20.717
53,-7979.05868,-20766.17876,-7177.72629,-13278.1432,-6038.234358,5675.957283,-7745.415896,4422.359696,0.058,0.95,-0.122,192,0,0,0,0,0,0,0,0,0,1.71E+09,0, 2024-03-15 15:22:20.717
54,-6447.271281,-21029.12468,-7185.080014,-13270.87888,-4631.415562,6404.132414,-6492.667674,8797.311341,0.058,0.95,-0.122,192,0,0,0,0,0,0,0,0,0,1.71E+09,0, 2024-03-15 15:22:20.717
55,-5713.061179,-21033.72914,-7260.092468,-13338.38115,-4883.006797,6400.980818,-6653.93551,10492.95938,0.058,0.95,-0.122,192,0,0,0,0,0,0,0,0,0,1.71E+09,0, 2024-03-15 15:22:20.717
56,-6732.72541,-20757.64039,-7304.684198,-13391.24303,-6457.798953,5677.70072,-8012.340428,7320.352771,0.058,0.95,-0.122,192,0,0,0,0,0,0,0,0,0,1.71E+09,0, 2024-03-15 15:22:20.717
57,-8268.200847,-20565.16952,-7248.693079,-13353.60269,-7283.092413,5169.645568,-8776.255998,3344.782096,0.058,0.95,-0.122,192,0,0,0,0,0,0,0,0,0,1.71E+09,0, 2024-03-15 15:22:20.717
58,-7996.716559,-20752.16422,-7174.060604,-13267.95081,-6059.200294,5676.963112,-7766.024204,4387.669788,0.058,0.95,-0.122,192,0,0,0,0,0,0,0,0,0,1.71E+09,0, 2024-03-15 15:22:20.717
59,-6458.268339,-21025.66016,-7187.292837,-13267.48142,-4642.658489,6405.942906,-6501.921296,8761.302681,0.058,0.95,-0.122,192,0,0,0,0,0,0,0,0,0,1.71E+09,0, 2024-03-15 15:22:20.717
60,-5698.577249,-21032.27628,-7262.014718,-13332.77086,-4866.399451,6416.180005,-6637.395219,10517.68041,0.066,0.948,-0.126,192,2,16,29,160,252,16,0,0,0,1.71E+09,0, 2024-03-15 15:22:20.717
61,-6706.238592,-20765.77643,-7313.088454,-13394.99812,-6436.810665,5689.971827,-7988.558172,7395.991075,0.066,0.948,-0.126,192,0,0,0,0,0,0,0,0,0,1.71E+09,0, 2024-03-15 15:22:20.717
62,-8261.472972,-20576.54656,-7257.991404,-13361.82813,-7289.596771,5164.974053,-8777.328882,3371.380671,0.066,0.948,-0.126,192,0,0,0,0,0,0,0,0,0,1.71E+09,0, 2024-03-15 15:22:20.717
63,-8003.623248,-20749.57141,-7163.018842,-13259.25598,-6060.876675,5679.868839,-7755.898864,4359.417183,0.066,0.948,-0.126,192,0,0,0,0,0,0,0,0,0,1.71E+09,0, 2024-03-15 15:22:20.717
64,-6476.060328,-21031.40456,-7183.135412,-13264.48628,-4637.29407,6404.802967,-6486.006854,8756.608815,0.066,0.948,-0.126,192,0,0,0,0,0,0,0,0,0,1.71E+09,0, 2024-03-15 15:22:20.717
65,-5722.583022,-21038.49006,-7260.852428,-13332.36853,-4859.291596,6413.676609,-6625.012353,10547.51999,0.066,0.948,-0.126,192,0,0,0,0,0,0,0,0,0,1.71E+09,0, 2024-03-15 15:22:20.717
66,-6709.434892,-20761.26138,-7301.823175,-13381.07298,-6415.934135,5703.382874,-7961.736078,7452.585692,0.066,0.948,-0.126,192,0,0,0,0,0,0,0,0,0,1.71E+09,0, 2024-03-15 15:22:20.717
67,-8251.749963,-20568.90226,-7247.441381,-13347.12068,-7270.866009,5176.865182,-8744.136541,3422.163835,0.066,0.948,-0.126,192,0,0,0,0,0,0,0,0,0,1.71E+09,0, 2024-03-15 15:22:20.717
68,-8013.703884,-20753.57238,-7169.5232,-13264.41923,-6068.208047,5670.771679,-7751.36146,4365.720375,0.066,0.948,-0.126,192,0,0,0,0,0,0,0,0,0,1.71E+09,0, 2024-03-15 15:22:20.717
69,-6504.357636,-21028.54354,-7182.062528,-13263.01107,-4643.530207,6399.326789,-6485.872744,8740.180283,0.066,0.948,-0.126,192,0,0,0,0,0,0,0,0,0,1.71E+09,0, 2024-03-15 15:22:20.717
70,-5731.031982,-21036.32194,-7254.012794,-13324.70188,-4841.812532,6421.969106,-6599.710178,10569.29059,0.062,0.95,-0.128,192,1,240,29,176,252,0,0,0,0,1.71E+09,0, 2024-03-15 15:22:20.717
71,-6697.052025,-20770.42559,-7305.399454,-13384.00106,-6398.320961,5709.4849,-7936.232738,7516.735198,0.062,0.95,-0.128,192,0,0,0,0,0,0,0,0,0,1.71E+09,0, 2024-03-15 15:22:20.717
72,-8257.024974,-20582.1345,-7262.841733,-13364.13036,-7284.008835,5164.571722,-8750.506789,3463.603969,0.062,0.95,-0.128,192,0,0,0,0,0,0,0,0,0,1.71E+09,0, 2024-03-15 15:22:20.717
73,-8044.437533,-20755.53933,-7178.173325,-13274.23165,-6093.778443,5651.146847,-7774.674329,4338.495951,0.062,0.95,-0.128,192,0,0,0,0,0,0,0,0,0,1.71E+09,0, 2024-03-15 15:22:20.717
74,-6526.552919,-21037.50658,-7189.617418,-13275.77392,-4651.420373,6379.769013,-6486.20802,8710.296,0.062,0.95,-0.128,192,0,0,0,0,0,0,0,0,0,1.71E+09,0, 2024-03-15 15:22:20.717
75,-5733.267156,-21053.68925,-7265.702756,-13345.48901,-4832.69302,6403.081882,-6589.651893,10584.75799,0.062,0.95,-0.128,192,0,0,0,0,0,0,0,0,0,1.71E+09,0, 2024-03-15 15:22:20.717
76,-6691.866421,-20786.72001,-7312.619068,-13402.82123,-6383.121775,5696.118557,-7920.362999,7556.09662,0.062,0.95,-0.128,192,0,0,0,0,0,0,0,0,0,1.71E+09,0, 2024-03-15 15:22:20.717
77,-8259.796591,-20588.46004,-7264.518114,-13370.4112,-7285.86403,5158.000309,-8752.093762,3464.475687,0.062,0.95,-0.128,192,0,0,0,0,0,0,0,0,0,1.71E+09,0, 2024-03-15 15:22:20.717
78,-8047.566777,-20760.03203,-7181.973121,-13276.71269,-6104.015542,5641.982632,-7778.518829,4302.733159,0.062,0.95,-0.128,192,0,0,0,0,0,0,0,0,0,1.71E+09,0, 2024-03-15 15:22:20.717
79,-6532.453779,-21034.46675,-7198.066377,-13275.79627,-4667.938312,6379.210219,-6500.714302,8673.460325,0.062,0.95,-0.128,192,0,0,0,0,0,0,0,0,0,1.71E+09,0, 2024-03-15 15:22:20.717
80,-5736.105828,-21045.88849,-7273.011777,-13340.10224,-4839.420896,6418.906917,-6597.139728,10581.44994,0.058,0.948,-0.126,192,1,208,29,160,252,16,0,0,0,1.71E+09,0, 2024-03-15 15:22:20.717
81,-6686.546706,-20780.8415,-7328.824082,-13401.14485,-6392.889487,5712.390627,-7934.712819,7600.598943,0.058,0.948,-0.126,192,0,0,0,0,0,0,0,0,0,1.71E+09,0, 2024-03-15 15:22:20.717
82,-8251.83937,-20574.80312,-7276.073966,-13367.1255,-7304.863012,5166.113992,-8772.05387,3490.202545,0.058,0.948,-0.126,192,0,0,0,0,0,0,0,0,0,1.71E+09,0, 2024-03-15 15:22:20.717
83,-8046.248024,-20741.81536,-7190.824412,-13273.11406,-6133.296327,5645.871835,-7811.085321,4282.460127,0.058,0.948,-0.126,192,0,0,0,0,0,0,0,0,0,1.71E+09,0, 2024-03-15 15:22:20.717
84,-6534.912471,-21017.99351,-7199.563944,-13266.09561,-4682.757519,6387.480365,-6520.786169,8646.124142,0.058,0.948,-0.126,192,0,0,0,0,0,0,0,0,0,1.71E+09,0, 2024-03-15 15:22:20.717
85,-5724.527624,-21039.51824,-7272.207114,-13330.0216,-4833.028297,6432.966165,-6591.797661,10612.92119,0.058,0.948,-0.126,192,0,0,0,0,0,0,0,0,0,1.71E+09,0, 2024-03-15 15:22:20.717
86,-6652.348537,-20774.18068,-7321.135082,-13384.09047,-6373.465821,5738.251595,-7917.859604,7666.15661,0.058,0.948,-0.126,192,0,0,0,0,0,0,0,0,0,1.71E+09,0, 2024-03-15 15:22:20.717
87,-8232.080428,-20565.14717,-7270.396622,-13353.96032,-7299.409187,5186.208211,-8765.705975,3528.759304,0.058,0.948,-0.126,192,0,0,0,0,0,0,0,0,0,1.71E+09,0, 2024-03-15 15:22:20.717
88,-8060.106106,-20733.63462,-7190.53384,-13265.73798,-6146.036821,5651.280958,-7819.802501,4270.144316,0.058,0.948,-0.126,192,0,0,0,0,0,0,0,0,0,1.71E+09,0, 2024-03-15 15:22:20.717
89,-6550.893968,-21014.37253,-7199.228668,-13262.7652,-4687.51844,6389.000283,-6524.608317,8635.216491,0.058,0.948,-0.126,192,0,0,0,0,0,0,0,0,0,1.71E+09,0, 2024-03-15 15:22:20.717
90,-5720.459607,-21038.3336,-7270.664843,-13328.50168,-4820.690134,6442.64447,-6588.19903,10644.54891,0.058,0.948,-0.124,192,1,208,29,160,252,32,0,0,0,1.71E+09,0, 2024-03-15 15:22:21.197
91,-6630.510882,-20772.72782,-7316.284754,-13384.4481,-6350.398821,5753.294319,-7904.068578,7732.764808,0.058,0.948,-0.124,192,0,0,0,0,0,0,0,0,0,1.71E+09,0, 2024-03-15 15:22:21.197
92,-8218.110587,-20564.00723,-7269.122573,-13356.66488,-7297.777509,5189.292751,-8766.711803,3571.384081,0.058,0.948,-0.124,192,0,0,0,0,0,0,0,0,0,1.71E+09,0, 2024-03-15 15:22:21.197
93,-8067.45983,-20725.85621,-7179.670892,-13260.48532,-6159.067888,5649.582225,-7831.470112,4244.730383,0.058,0.948,-0.124,192,0,0,0,0,0,0,0,0,0,1.71E+09,0, 2024-03-15 15:22:21.197
94,-6554.850227,-21009.58926,-7189.706825,-13254.96444,-4684.94799,6394.118833,-6526.083532,8615.546956,0.058,0.948,-0.124,192,0,0,0,0,0,0,0,0,0,1.71E+09,0, 2024-03-15 15:22:21.197
95,-5715.497519,-21033.93031,-7261.90296,-13322.01968,-4804.663933,6452.345127,-6572.508105,10663.23497,0.058,0.948,-0.124,192,0,0,0,0,0,0,0,0,0,1.71E+09,0, 2024-03-15 15:22:21.197
96,-6611.288382,-20770.09031,-7307.098187,-13377.07202,-6323.062637,5766.727718,-7876.285359,7783.950303,0.058,0.948,-0.124,192,0,0,0,0,0,0,0,0,0,1.71E+09,0, 2024-03-15 15:22:21.197
97,-8202.330256,-20556.42999,-7256.024451,-13349.66878,-7285.640512,5195.193612,-8754.083068,3592.238258,0.058,0.948,-0.124,192,0,0,0,0,0,0,0,0,0,1.71E+09,0, 2024-03-15 15:22:21.197
98,-8063.660033,-20721.63173,-7170.461973,-13262.42992,-6158.419688,5643.077867,-7826.888004,4214.309658,0.058,0.948,-0.124,192,0,0,0,0,0,0,0,0,0,1.71E+09,0, 2024-03-15 15:22:21.197
99,-6565.064974,-21010.97506,-7185.214124,-13265.29095,-4683.964513,6383.814679,-6520.540299,8573.503324,0.058,0.948,-0.124,192,0,0,0,0,0,0,0,0,0,1.71E+09,0, 2024-03-15 15:22:21.197
100,-5716.950383,-21038.40065,-7260.964186,-13329.3734,-4792.772805,6450.244063,-6560.236998,10664.30785,0.054,0.952,-0.122,192,1,176,29,192,252,48,0,0,0,1.71E+09,0, 2024-03-15 15:22:21.197
101,-6594.211649,-20778.2487,-7306.472338,-13383.01759,-6309.159852,5770.281645,-7859.678013,7823.199966,0.054,0.952,-0.122,192,0,0,0,0,0,0,0,0,0,1.71E+09,0, 2024-03-15 15:22:21.197
102,-8204.163099,-20569.55046,-7261.098297,-13360.64349,-7290.535544,5188.912772,-8750.059754,3613.383009,0.054,0.952,-0.122,192,0,0,0,0,0,0,0,0,0,1.71E+09,0, 2024-03-15 15:22:21.197
103,-8092.762004,-20721.67644,-7169.858476,-13261.20058,-6175.518772,5637.780504,-7839.494388,4172.489544,0.054,0.952,-0.122,192,0,0,0,0,0,0,0,0,0,1.71E+09,0, 2024-03-15 15:22:21.197
104,-6595.217478,-21010.61744,-7187.583409,-13264.12866,-4695.140385,6381.490097,-6530.442122,8534.924213,0.054,0.952,-0.122,192,0,0,0,0,0,0,0,0,0,1.71E+09,0, 2024-03-15 15:22:21.197
105,-5719.342019,-21036.81368,-7257.097335,-13325.97593,-4779.719386,6458.491857,-6550.111657,10666.49832,0.054,0.952,-0.122,192,0,0,0,0,0,0,0,0,0,1.71E+09,0, 2024-03-15 15:22:21.197
106,-6577.939579,-20781.02032,-7311.456777,-13385.69979,-6290.652608,5783.871506,-7841.394286,7879.481659,0.054,0.952,-0.122,192,0,0,0,0,0,0,0,0,0,1.71E+09,0, 2024-03-15 15:22:21.197
107,-8192.674302,-20561.16856,-7265.792163,-13358.36361,-7294.491803,5198.993409,-8752.071411,3641.4568,0.054,0.952,-0.122,192,0,0,0,0,0,0,0,0,0,1.71E+09,0, 2024-03-15 15:22:21.197
108,-8093.767833,-20710.9923,-7174.619397,-13257.75841,-6200.910354,5638.406353,-7863.298996,4145.533341,0.054,0.952,-0.122,192,0,0,0,0,0,0,0,0,0,1.71E+09,0, 2024-03-15 15:22:21.197
109,-6594.256353,-20996.24526,-7181.43668,-13253.80215,-4705.556298,6390.386092,-6540.478056,8495.473384,0.054,0.952,-0.122,192,0,0,0,0,0,0,0,0,0,1.71E+09,0, 2024-03-15 15:22:21.197
110,-5713.083531,-21032.36568,-7258.080811,-13323.27137,-4775.338444,6478.608427,-6547.988242,10685.16203,0.05,0.952,-0.12,192,1,144,29,192,252,64,0,0,0,1.71E+09,0, 2024-03-15 15:22:21.197
111,-6565.512009,-20781.08737,-7315.413036,-13387.37618,-6286.808108,5803.384579,-7840.522568,7931.740037,0.05,0.952,-0.12,192,0,0,0,0,0,0,0,0,0,1.71E+09,0, 2024-03-15 15:22:21.197
112,-8187.041663,-20566.13065,-7274.732861,-13366.14202,-7305.690027,5206.347132,-8765.504809,3670.491716,0.05,0.952,-0.12,192,0,0,0,0,0,0,0,0,0,1.71E+09,0, 2024-03-15 15:22:21.197
113,-8099.467528,-20709.36062,-7173.613569,-13257.22197,-6211.661543,5643.927234,-7874.430165,4131.898777,0.05,0.952,-0.12,192,0,0,0,0,0,0,0,0,0,1.71E+09,0, 2024-03-15 15:22:21.197
114,-6611.310734,-21000.38034,-7186.063491,-13250.27058,-4714.519347,6395.728158,-6548.301166,8487.940846,0.05,0.952,-0.12,192,0,0,0,0,0,0,0,0,0,1.71E+09,0, 2024-03-15 15:22:21.197
115,-5732.149569,-21044.30152,-7266.485067,-13321.88556,-4776.634845,6478.787241,-6539.651041,10710.59832,0.05,0.952,-0.12,192,0,0,0,0,0,0,0,0,0,1.71E+09,0, 2024-03-15 15:22:21.197
116,-6566.361376,-20793.49259,-7324.241975,-13384.76102,-6279.387329,5807.452596,-7829.637269,7984.110175,0.05,0.952,-0.12,192,0,0,0,0,0,0,0,0,0,1.71E+09,0, 2024-03-15 15:22:21.197
117,-8182.124279,-20570.91392,-7281.684253,-13359.03416,-7307.053483,5212.113883,-8767.404707,3706.656838,0.05,0.952,-0.12,192,0,0,0,0,0,0,0,0,0,1.71E+09,0, 2024-03-15 15:22:21.197
118,-8129.664735,-20717.29549,-7187.85163,-13260.48532,-6238.438933,5636.260585,-7890.948104,4118.912413,0.05,0.952,-0.12,192,0,0,0,0,0,0,0,0,0,1.71E+09,0, 2024-03-15 15:22:21.197
119,-6642.513769,-21003.01784,-7188.633941,-13251.05289,-4725.874034,6393.202411,-6550.938672,8447.305375,0.05,0.952,-0.12,192,0,0,0,0,0,0,0,0,0,1.71E+09,0, 2024-03-15 15:22:21.197
120,-5729.400304,-21048.19072,-7262.774678,-13316.81172,-4758.261711,6490.857183,-6521.032038,10726.51276,0.054,0.948,-0.126,192,1,176,29,160,252,16,0,0,0,1.71E+09,0, 2024-03-15 15:22:21.197
121,-6549.709326,-20796.10774,-7315.256574,-13376.78145,-6252.207607,5820.19309,-7802.122271,8043.856388,0.054,0.948,-0.126,192,0,0,0,0,0,0,0,0,0,1.71E+09,0, 2024-03-15 15:22:21.197
122,-8174.412927,-20569.90809,-7270.888361,-13352.32864,-7295.698797,5216.04779,-8751.020879,3740.586786,0.054,0.948,-0.126,192,0,0,0,0,0,0,0,0,0,1.71E+09,0, 2024-03-15 15:22:21.197
123,-8137.487845,-20711.70756,-7178.843877,-13258.80894,-6247.133761,5627.699867,-7895.619618,4082.903753,0.054,0.948,-0.126,192,0,0,0,0,0,0,0,0,0,1.71E+09,0, 2024-03-15 15:22:21.197
124,-6649.375755,-20999.01688,-7179.469726,-13252.84103,-4726.008144,6390.162574,-6550.379878,8401.37254,0.054,0.948,-0.126,192,0,0,0,0,0,0,0,0,0,1.71E+09,0, 2024-03-15 15:22:21.197
125,-5723.901775,-21044.18976,-7253.31989,-13319.76215,-4744.984775,6498.747349,-6516.606392,10722.24357,0.054,0.948,-0.126,192,0,0,0,0,0,0,0,0,0,1.71E+09,0, 2024-03-15 15:22:21.197
126,-6527.737561,-20789.37987,-7303.141928,-13374.88155,-6226.659563,5838.007431,-7785.604332,8083.687196,0.054,0.948,-0.126,192,0,0,0,0,0,0,0,0,0,1.71E+09,0, 2024-03-15 15:22:21.197
127,-8164.84638,-20572.47854,-7271.581265,-13363.54922,-7290.803765,5217.411246,-8750.126809,3772.818002,0.054,0.948,-0.126,192,0,0,0,0,0,0,0,0,0,1.71E+09,0, 2024-03-15 15:22:21.197
128,-8146.339136,-20714.09919,-7179.805002,-13269.69424,-6259.963663,5617.753341,-7917.121997,4065.134116,0.054,0.948,-0.126,192,0,0,0,0,0,0,0,0,0,1.71E+09,0, 2024-03-15 15:22:21.197
129,-6655.298967,-20997.9887,-7174.842915,-13253.10925,-4730.120865,6388.776766,-6566.204913,8389.123784,0.054,0.948,-0.126,192,0,0,0,0,0,0,0,0,0,1.71E+09,0, 2024-03-15 15:22:21.197
130,-5722.80654,-21046.7155,-7251.375288,-13319.8292,-4739.843874,6505.676389,-6517.455759,10744.99765,0.058,0.948,-0.114,192,1,208,29,160,252,112,0,0,0,1.71E+09,0, 2024-03-15 15:22:21.197
131,-6515.779378,-20794.40901,-7303.879536,-13376.17795,-6223.731485,5848.848027,-7791.527544,8121.394589,0.058,0.948,-0.114,192,0,0,0,0,0,0,0,0,0,1.71E+09,0, 2024-03-15 15:22:21.197
132,-8143.008726,-20571.18214,-7267.043861,-13359.77177,-7292.569553,5228.09538,-8751.154989,3794.007456,0.058,0.948,-0.114,192,0,0,0,0,0,0,0,0,0,1.71E+09,0, 2024-03-15 15:22:21.197
133,-8149.244863,-20715.03797,-7185.392938,-13275.86332,-6285.914038,5615.227594,-7932.455293,4039.161389,0.058,0.948,-0.114,192,0,0,0,0,0,0,0,0,0,1.71E+09,0, 2024-03-15 15:22:21.197
134,-6673.985025,-20996.26762,-7182.062528,-13260.57473,-4758.507581,6381.490097,-6583.46046,8336.239557,0.058,0.948,-0.114,192,0,0,0,0,0,0,0,0,0,1.71E+09,0, 2024-03-15 15:22:21.197
135,-5718.626764,-21051.63289,-7257.432611,-13325.75242,-4737.049906,6506.726921,-6500.781357,10741.42137,0.058,0.948,-0.114,192,0,0,0,0,0,0,0,0,0,1.71E+09,0, 2024-03-15 15:22:21.197
136,-6498.568535,-20804.91433,-7316.262402,-13385.36452,-6211.773302,5856.022937,-7765.621873,8183.375976,0.058,0.948,-0.114,192,0,0,0,0,0,0,0,0,0,1.71E+09,0, 2024-03-15 15:22:21.197
137,-8149.066049,-20578.82644,-7281.885419,-13371.95347,-7305.310047,5228.050676,-8751.825541,3840.029697,0.058,0.948,-0.114,192,0,0,0,0,0,0,0,0,0,1.71E+09,0, 2024-03-15 15:22:21.197
138,-8181.297264,-20712.82514,-7190.489136,-13276.06449,-6310.836233,5610.265507,-7953.68945,4017.346086,0.058,0.948,-0.114,192,0,0,0,0,0,0,0,0,0,1.71E+09,0, 2024-03-15 15:22:21.197
139,-6695.487403,-20996.26762,-7185.169421,-13256.05968,-4766.598912,6388.732062,-6595.195126,8320.101597,0.058,0.948,-0.114,192,0,0,0,0,0,0,0,0,0,1.71E+09,0, 2024-03-15 15:22:21.197
140,-5728.95327,-21045.88849,-7254.325718,-13317.72814,-4729.785589,6527.402285,-6499.462604,10763.37078,0.058,0.948,-0.114,192,0,0,0,0,0,0,0,0,0,1.71E+09,0, 2024-03-15 15:22:21.197
141,-6489.225505,-20794.09609,-7306.740559,-13374.70274,-6191.835546,5883.694396,-7743.67246,8232.683925,0.06,0.95,-0.124,192,1,224,29,176,252,32,0,0,0,1.71E+09,0, 2024-03-15 15:22:21.197
142,-8127.384857,-20558.62046,-7266.999157,-13352.68627,-7290.088509,5257.554979,-8737.788646,3874.317273,0.06,0.95,-0.124,192,0,0,0,0,0,0,0,0,0,1.71E+09,0, 2024-03-15 15:22:21.197
143,-8166.343947,-20689.69109,-7174.731156,-13257.91487,-6304.913021,5637.579338,-7947.252148,4012.763979,0.06,0.95,-0.124,192,0,0,0,0,0,0,0,0,0,1.71E+09,0, 2024-03-15 15:22:21.197
144,-6697.700226,-20981.60487,-7176.742813,-13248.7283,-4763.916703,6407.216955,-6591.507088,8300.40971,0.06,0.95,-0.124,192,0,0,0,0,0,0,0,0,0,1.71E+09,0, 2024-03-15 15:22:21.197
145,-5733.378915,-21037.70775,-7252.247006,-13317.66108,-4724.823502,6542.780285,-6503.932953,10766.00829,0.06,0.95,-0.124,192,0,0,0,0,0,0,0,0,0,1.71E+09,0, 2024-03-15 15:22:21.197
146,-6478.116689,-20796.44302,-7308.573402,-13383.91166,-6179.296217,5900.324094,-7743.203073,8277.096841,0.06,0.95,-0.124,192,0,0,0,0,0,0,0,0,0,1.71E+09,0, 2024-03-15 15:22:21.197
147,-8123.138025,-20561.88381,-7273.145887,-13372.64638,-7295.251762,5263.545247,-8744.963556,3904.290963,0.06,0.95,-0.124,192,0,0,0,0,0,0,0,0,0,1.71E+09,0, 2024-03-15 15:22:21.197
148,-8185.968779,-20686.49479,-7180.855534,-13281.83124,-6327.57769,5629.979745,-7970.117983,3984.198449,0.06,0.95,-0.124,192,0,0,0,0,0,0,0,0,0,1.71E+09,0, 2024-03-15 15:22:21.197
149,-6726.623383,-20973.51354,-7177.994511,-13268.59901,-4774.802002,6406.859327,-6602.504146,8263.104649,0.06,0.95,-0.124,192,0,0,0,0,0,0,0,0,0,1.71E+09,0, 2024-03-15 15:22:21.197
150,-5741.805523,-21023.24617,-7239.819436,-13325.68536,-4702.717626,6562.941559,-6481.067119,10763.50489,0.06,0.95,-0.124,192,0,0,0,0,0,0,0,0,0,1.71E+09,0, 2024-03-15 15:22:21.197
151,-6460.972901,-20777.17582,-7289.820288,-13382.77172,-6138.280766,5933.181159,-7705.249811,8318.939307,0.056,0.956,-0.118,192,1,192,29,224,252,80,0,0,0,1.71E+09,0, 2024-03-15 15:22:21.197
152,-8125.172034,-20548.2716,-7270.486029,-13386.86209,-7283.450041,5279.459689,-8738.48155,3940.232568,0.056,0.956,-0.118,192,0,0,0,0,0,0,0,0,0,1.71E+09,0, 2024-03-15 15:22:21.197
153,-8212.880279,-20671.63088,-7180.766127,-13296.73985,-6340.921681,5633.734838,-7981.807945,3954.828257,0.056,0.956,-0.118,192,0,0,0,0,0,0,0,0,0,1.71E+09,0, 2024-03-15 15:22:21.197
154,-6754.607767,-20968.70792,-7180.564962,-13288.06738,-4782.938037,6408.334542,-6609.500242,8197.815203,0.056,0.956,-0.118,192,0,0,0,0,0,0,0,0,0,1.71E+09,0, 2024-03-15 15:22:21.197
155,-5755.104811,-21021.41333,-7244.692116,-13347.03128,-4693.039321,6574.497411,-6477.692005,10735.94519,0.056,0.956,-0.118,192,0,0,0,0,0,0,0,0,0,1.71E+09,0, 2024-03-15 15:22:21.197
156,-6462.984558,-20777.22052,-7301.420844,-13410.53258,-6131.396429,5947.106295,-7707.686151,8335.703115,0.056,0.956,-0.118,192,0,0,0,0,0,0,0,0,0,1.71E+09,0, 2024-03-15 15:22:21.198
157,-8121.193423,-20540.47084,-7276.297483,-13403.62589,-7290.267323,5291.90961,-8750.193864,3946.558111,0.056,0.956,-0.118,192,0,0,0,0,0,0,0,0,0,1.71E+09,0, 2024-03-15 15:22:21.198
158,-8224.838462,-20665.77472,-7188.7457,-13313.92834,-6362.424059,5636.841731,-8007.512451,3923.692277,0.056,0.956,-0.118,192,0,0,0,0,0,0,0,0,0,1.71E+09,0, 2024-03-15 15:22:21.198
159,-6784.983788,-20959.76722,-7183.671854,-13300.78552,-4801.489985,6413.29663,-6629.773275,8134.917395,0.056,0.956,-0.118,192,0,0,0,0,0,0,0,0,0,1.71E+09,0, 2024-03-15 15:22:21.198
160,-5788.230096,-21032.11981,-7258.32668,-13368.66777,-4698.806071,6575.547943,-6481.603561,10691.75579,0.056,0.956,-0.118,192,0,0,0,0,0,0,0,0,0,1.71E+09,0, 2024-03-15 15:22:21.198
161,-6486.945628,-20796.84535,-7316.62003,-13430.5821,-6127.998963,5943.842941,-7704.579259,8319.4981,0.056,0.958,-0.112,192,1,192,29,240,252,128,0,0,0,1.71E+09,0, 2024-03-15 15:22:21.198
162,-8139.030115,-20558.70987,-7285.260533,-13417.90866,-7287.451003,5290.009712,-8743.644803,3944.948786,0.056,0.958,-0.112,192,0,0,0,0,0,0,0,0,0,1.71E+09,0, 2024-03-15 15:22:21.198
163,-8260.757716,-20675.18481,-7187.650464,-13319.02454,-6367.967292,5633.556024,-8005.590201,3889.337646,0.056,0.958,-0.112,192,0,0,0,0,0,0,0,0,0,1.71E+09,0, 2024-03-15 15:22:21.198
164,-6824.792245,-20966.20452,-7179.380319,-13297.58922,-4801.42293,6413.743664,-6624.140635,8083.933065,0.056,0.958,-0.112,192,0,0,0,0,0,0,0,0,0,1.71E+09,0, 2024-03-15 15:22:21.198
165,-5808.369018,-21033.14799,-7247.262567,-13355.25672,-4683.763347,6589.271914,-6462.425764,10658.00466,0.056,0.958,-0.112,192,0,0,0,0,0,0,0,0,0,1.71E+09,0, 2024-03-15 15:22:21.198
166,-6485.895096,-20800.22047,-7309.199251,-13418.19923,-6107.703579,5965.881761,-7680.305264,8326.829472,0.056,0.958,-0.112,192,0,0,0,0,0,0,0,0,0,1.71E+09,0, 2024-03-15 15:22:21.198
167,-8155.74922,-20567.69527,-7286.087547,-13419.20506,-7290.379082,5293.116604,-8740.292041,3949.374431,0.056,0.958,-0.112,192,0,0,0,0,0,0,0,0,0,1.71E+09,0, 2024-03-15 15:22:21.198
168,-8303.471899,-20682.71735,-7189.460956,-13322.48906,-6391.280161,5622.201338,-8020.56587,3845.975261,0.056,0.958,-0.112,192,0,0,0,0,0,0,0,0,0,1.71E+09,0, 2024-03-15 15:22:21.198
169,-6865.181847,-20971.18896,-7175.826392,-13294.45997,-4807.279087,6406.814624,-6633.528368,8022.175195,0.056,0.958,-0.112,192,0,0,0,0,0,0,0,0,0,1.71E+09,0, 2024-03-15 15:22:21.198
170,-5829.491416,-21045.62027,-7248.178988,-13357.55895,-4674.912056,6586.701463,-6459.922369,10630.31085,0.056,0.958,-0.112,192,0,0,0,0,0,0,0,0,0,1.71E+09,0, 2024-03-15 15:22:21.198
171,-6494.120538,-20811.53045,-7305.622972,-13419.6968,-6091.118585,5972.006139,-7665.575464,8333.71381,0.056,0.946,-0.112,192,1,192,29,144,252,128,0,0,0,1.71E+09,0, 2024-03-15 15:22:21.198
172,-8163.460572,-20569.48341,-7278.018567,-13415.33821,-7284.321759,5301.677323,-8733.184187,3945.619338,0.056,0.946,-0.112,192,0,0,0,0,0,0,0,0,0,1.71E+09,0, 2024-03-15 15:22:21.198
173,-8316.279449,-20685.17604,-7182.710729,-13320.76798,-6394.767033,5625.218824,-8021.772864,3799.505985,0.056,0.946,-0.112,192,0,0,0,0,0,0,0,0,0,1.71E+09,0, 2024-03-15 15:22:21.198
174,-6884.426699,-20974.74289,-7165.902217,-13296.91867,-4808.821357,6412.827243,-6627.806321,7963.16659,0.056,0.946,-0.112,192,0,0,0,0,0,0,0,0,0,1.71E+09,0, 2024-03-15 15:22:21.198
175,-5845.741134,-21043.94389,-7230.141131,-13353.96032,-4662.797411,6603.889955,-6438.576453,10590.72591,0.056,0.946,-0.112,192,0,0,0,0,0,0,0,0,0,1.71E+09,0, 2024-03-15 15:22:21.198
176,-6490.05252,-20811.86572,-7286.914562,-13416.99224,-6072.410175,5993.195593,-7635.66883,8335.993688,0.056,0.946,-0.112,192,0,0,0,0,0,0,0,0,0,1.71E+09,0, 2024-03-15 15:22:21.198
177,-8145.668584,-20562.53202,-7255.75623,-13406.8669,-7268.429669,5322.352686,-8709.670151,3953.19658,0.056,0.946,-0.112,192,0,0,0,0,0,0,0,0,0,1.71E+09,0, 2024-03-15 15:22:21.198
178,-8322.806158,-20672.88258,-7164.315243,-13314.91182,-6406.904031,5631.186739,-8022.912803,3759.295196,0.056,0.946,-0.112,192,0,0,0,0,0,0,0,0,0,1.71E+09,0, 2024-03-15 15:22:21.198
179,-6904.073883,-20969.31141,-7162.437697,-13297.29865,-4835.598747,6408.736874,-6630.846158,7909.053017,0.056,0.946,-0.112,192,0,0,0,0,0,0,0,0,0,1.71E+09,0, 2024-03-15 15:22:21.198
180,-5851.373774,-21043.58626,-7235.282032,-13359.61531,-4680.008254,6600.313675,-6428.607575,10568.8212,0.056,0.946,-0.112,192,0,0,0,0,0,0,0,0,0,1.71E+09,0, 2024-03-15 15:22:21.198
181,-6475.143906,-20810.03288,-7294.625913,-13422.78134,-6073.572466,5996.056616,-7625.275269,8347.728353,0.054,0.942,-0.118,192,1,176,29,112,252,80,0,0,0,1.71E+09,0, 2024-03-15 15:22:21.198
182,-8144.841569,-20567.00236,-7275.939855,-13425.66471,-7290.379082,5311.422683,-8720.66721,3956.236417,0.054,0.942,-0.118,192,0,0,0,0,0,0,0,0,0,1.71E+09,0, 2024-03-15 15:22:21.198
183,-8348.801237,-20670.15566,-7184.767089,-13332.10031,-6448.187703,5609.080864,-8049.511379,3697.269106,0.054,0.942,-0.118,192,0,0,0,0,0,0,0,0,0,1.71E+09,0, 2024-03-15 15:22:21.198
184,-6925.799778,-20958.60493,-7172.183057,-13301.27726,-4863.493724,6398.119795,-6648.325223,7825.345734,0.054,0.942,-0.118,192,0,0,0,0,0,0,0,0,0,1.71E+09,0, 2024-03-15 15:22:21.198
185,-5846.903425,-21031.2928,-7236.399619,-13351.88161,-4676.096699,6612.584783,-6428.853444,10530.08563,0.054,0.942,-0.118,192,0,0,0,0,0,0,0,0,0,1.71E+09,0, 2024-03-15 15:22:21.198
186,-6457.396621,-20815.19613,-7308.282829,-13425.77647,-6067.917474,6005.109072,-7623.755351,8377.746746,0.054,0.942,-0.118,192,0,0,0,0,0,0,0,0,0,1.71E+09,0, 2024-03-15 15:22:21.198
187,-8130.089418,-20563.33668,-7279.471431,-13421.86492,-7299.431539,5316.921212,-8728.713838,3969.647464,0.054,0.942,-0.118,192,0,0,0,0,0,0,0,0,0,1.71E+09,0, 2024-03-15 15:22:21.198
188,-8340.732257,-20664.32186,-7183.090709,-13322.57847,-6461.35288,5611.047818,-8061.424859,3673.308036,0.054,0.942,-0.118,192,0,0,0,0,0,0,0,0,0,1.71E+09,0, 2024-03-15 15:22:21.198
189,-6934.382848,-20961.71182,-7176.049909,-13301.67959,-4879.832849,6394.163536,-6666.318377,7779.81523,0.054,0.942,-0.118,192,0,0,0,0,0,0,0,0,0,1.71E+09,0, 2024-03-15 15:22:21.198
190,-5867.109402,-21043.60861,-7245.25091,-13364.37623,-4686.803184,6607.756806,-6441.079848,10507.3092,0.054,0.942,-0.118,192,0,0,0,0,0,0,0,0,0,1.71E+09,0, 2024-03-15 15:22:21.198
191,-6466.873761,-20820.56055,-7305.690027,-13427.05052,-6055.467553,6012.283982,-7613.63001,8385.48045,0.056,0.95,-0.122,192,1,192,29,176,252,48,0,0,0,1.71E+09,0, 2024-03-15 15:22:21.198
192,-8137.219624,-20576.63597,-7287.607466,-13429.15159,-7296.816384,5318.955221,-8726.277498,3987.573563,0.056,0.95,-0.122,192,0,0,0,0,0,0,0,0,0,1.71E+09,0, 2024-03-15 15:22:21.198
193,-8366.839095,-20676.52591,-7191.025578,-13329.03812,-6476.73088,5610.109044,-8073.718318,3654.577274,0.056,0.95,-0.122,192,0,0,0,0,0,0,0,0,0,1.71E+09,0, 2024-03-15 15:22:21.198
194,-6967.239912,-20969.04319,-7177.703938,-13302.95364,-4886.739539,6400.019693,-6668.397089,7741.794913,0.056,0.95,-0.122,192,0,0,0,0,0,0,0,0,0,1.71E+09,0, 2024-03-15 15:22:21.198
195,-5877.122984,-21054.94095,-7243.909805,-13362.76691,-4668.67592,6622.66542,-6416.559984,10501.36364,0.056,0.95,-0.122,192,0,0,0,0,0,0,0,0,0,1.71E+09,0, 2024-03-15 15:22:21.198
196,-6448.165351,-20832.58579,-7302.359617,-13423.76482,-6024.331573,6042.660003,-7577.934274,8442.700916,0.056,0.95,-0.122,192,0,0,0,0,0,0,0,0,0,1.71E+09,0, 2024-03-15 15:22:21.198
197,-8124.99322,-20587.2754,-7288.210963,-13429.19629,-7284.008835,5339.675288,-8707.122053,4050.314909,0.056,0.95,-0.122,192,0,0,0,0,0,0,0,0,0,1.71E+09,0, 2024-03-15 15:22:21.198
198,-8392.565953,-20684.88546,-7198.580468,-13336.99534,-6495.461642,5604.699922,-8084.268342,3642.976718,0.056,0.95,-0.122,192,0,0,0,0,0,0,0,0,0,1.71E+09,0, 2024-03-15 15:22:21.198
199,-7006.958962,-20970.69722,-7177.994511,-13304.27239,-4902.206946,6392.755376,-6680.288217,7681.087575,0.056,0.95,-0.122,192,0,0,0,0,0,0,0,0,0,1.71E+09,0, 2024-03-15 15:22:21.198
200,-5893.663274,-21058.8525,-7240.780561,-13355.41318,-4660.003443,6626.375809,-6408.312191,10475.27915,0.056,0.95,-0.122,192,0,0,0,0,0,0,0,0,0,1.71E+09,0, 2024-03-15 15:22:21.198
201,-6444.05263,-20841.34768,-7296.592867,-13414.22062,-5999.364674,6044.939881,-7556.387193,8458.570654,0.06,0.95,-0.12,192,1,224,29,176,252,64,0,0,0,1.71E+09,0, 2024-03-15 15:22:21.198
202,-8114.934935,-20593.80211,-7276.699814,-13417.50633,-7266.619178,5336.411933,-8692.571067,4060.149677,0.06,0.95,-0.12,192,0,0,0,0,0,0,0,0,0,1.71E+09,0, 2024-03-15 15:22:21.198
203,-8383.334682,-20684.79606,-7177.949807,-13320.61152,-6484.062253,5603.64939,-8078.546295,3616.825177,0.06,0.95,-0.12,192,0,0,0,0,0,0,0,0,0,1.71E+09,0, 2024-03-15 15:22:21.198
204,-7000.052273,-20965.42221,-7149.652499,-13286.25688,-4882.872687,6392.375397,-6659.746964,7638.373391,0.06,0.95,-0.12,192,0,0,0,0,0,0,0,0,0,1.71E+09,0, 2024-03-15 15:22:21.198
205,-5894.043254,-21059.88068,-7217.311229,-13345.3996,-4631.415562,6624.945298,-6371.007129,10459.67763,0.06,0.95,-0.12,192,0,0,0,0,0,0,0,0,0,1.71E+09,0, 2024-03-15 15:22:21.198
206,-6435.536615,-20846.89091,-7286.266361,-13412.29837,-5982.01972,6046.4598,-7526.74878,8490.176021,0.06,0.95,-0.12,192,0,0,0,0,0,0,0,0,0,1.71E+09,0, 2024-03-15 15:22:21.198
207,-8095.421862,-20583.92263,-7263.177009,-13408.65504,-7261.053593,5341.038745,-8679.16002,4068.933912,0.06,0.95,-0.12,192,0,0,0,0,0,0,0,0,0,1.71E+09,0, 2024-03-15 15:22:21.198
208,-8371.667072,-20670.40153,-7167.131563,-13307.75926,-6494.433462,5600.922477,-8073.941836,3582.895229,0.06,0.95,-0.12,192,0,0,0,0,0,0,0,0,0,1.71E+09,0, 2024-03-15 15:22:21.198
209,-7003.248573,-20955.07335,-7154.1452,-13276.69034,-4905.98439,6382.585333,-6673.493287,7603.012932,0.06,0.95,-0.12,192,0,0,0,0,0,0,0,0,0,1.71E+09,0, 2024-03-15 15:22:21.198
210,-5883.202658,-21041.90988,-7219.054665,-13331.18389,-4640.780943,6625.191167,-6384.127603,10450.64753,0.06,0.95,-0.12,192,0,0,0,0,0,0,0,0,0,1.71E+09,0, 2024-03-15 15:22:21.678
211,-6391.078996,-20822.92984,-7280.387852,-13395.86984,-5963.937159,6058.283872,-7517.495157,8519.725027,0.062,0.944,-0.118,192,1,240,29,128,252,80,0,0,0,1.71E+09,0, 2024-03-15 15:22:21.678
212,-8062.743612,-20565.88478,-7269.659015,-13408.208,-7268.519076,5337.842445,-8689.106547,4100.561631,0.062,0.944,-0.118,192,0,0,0,0,0,0,0,0,0,1.71E+09,0, 2024-03-15 15:22:21.678
213,-8384.608732,-20650.37437,-7177.391014,-13318.77867,-6533.839587,5575.039157,-8118.622973,3535.576586,0.062,0.944,-0.118,192,0,0,0,0,0,0,0,0,0,1.71E+09,0, 2024-03-15 15:22:21.678
214,-7012.233974,-20941.84112,-7160.023708,-13289.11791,-4925.318649,6366.648539,-6701.075339,7540.986841,0.062,0.944,-0.118,192,0,0,0,0,0,0,0,0,0,1.71E+09,0, 2024-03-15 15:22:21.678
215,-5868.271693,-21037.17131,-7226.92248,-13342.18095,-4639.372783,6622.352495,-6392.755376,10450.42401,0.062,0.944,-0.118,192,0,0,0,0,0,0,0,0,0,1.71E+09,0, 2024-03-15 15:22:21.678
216,-6374.203429,-20829.59066,-7294.290637,-13410.66669,-5959.802086,6052.472419,-7520.467939,8563.176818,0.062,0.944,-0.118,192,0,0,0,0,0,0,0,0,0,1.71E+09,0, 2024-03-15 15:22:21.678
217,-8051.143056,-20572.34443,-7282.243047,-13418.17688,-7267.021509,5330.309907,-8692.369901,4145.734506,0.062,0.944,-0.118,192,0,0,0,0,0,0,0,0,0,1.71E+09,0, 2024-03-15 15:22:21.678
218,-8392.521249,-20650.64259,-7185.191773,-13319.80685,-6549.217588,5563.215084,-8132.391647,3531.732086,0.062,0.944,-0.118,192,0,0,0,0,0,0,0,0,0,1.71E+09,0, 2024-03-15 15:22:21.678
219,-7029.757742,-20943.87513,-7167.243322,-13287.21801,-4940.719001,6353.729231,-6719.001438,7516.914012,0.062,0.944,-0.118,192,0,0,0,0,0,0,0,0,0,1.71E+09,0, 2024-03-15 15:22:21.678
220,-5882.174478,-21052.4152,-7237.226634,-13348.32768,-4636.400001,6612.741245,-6385.133432,10464.81853,0.062,0.944,-0.118,192,0,0,0,0,0,0,0,0,0,1.71E+09,0, 2024-03-15 15:22:21.678
221,-6385.200487,-20848.7461,-7301.89023,-13416.16522,-5950.302595,6051.488942,-7502.452433,8612.730636,0.054,0.948,-0.114,192,1,176,29,160,252,112,0,0,0,1.71E+09,0, 2024-03-15 15:22:21.678
222,-8057.178027,-20593.28802,-7287.853335,-13421.14966,-7263.892265,5331.561605,-8681.015215,4191.600286,0.054,0.948,-0.114,192,0,0,0,0,0,0,0,0,0,1.71E+09,0, 2024-03-15 15:22:21.678
223,-8412.056674,-20677.12941,-7202.827299,-13330.7145,-6567.478963,5550.966328,-8137.577252,3542.751496,0.054,0.948,-0.114,192,0,0,0,0,0,0,0,0,0,1.71E+09,0, 2024-03-15 15:22:21.678
224,-7065.408774,-20966.24922,-7181.861363,-13299.82439,-4961.751993,6340.00526,-6725.505796,7492.617666,0.054,0.948,-0.114,192,0,0,0,0,0,0,0,0,0,1.71E+09,0, 2024-03-15 15:22:21.678
225,-5903.051007,-21070.56481,-7245.966166,-13353.44623,-4638.903396,6611.109568,-6379.85842,10464.05857,0.054,0.948,-0.114,192,0,0,0,0,0,0,0,0,0,1.71E+09,0, 2024-03-15 15:22:21.678
226,-6372.951731,-20859.51964,-7303.119576,-13409.75027,-5931.504778,6063.156553,-7483.073471,8656.048316,0.054,0.948,-0.114,192,0,0,0,0,0,0,0,0,0,1.71E+09,0, 2024-03-15 15:22:21.678
227,-8044.973975,-20595.21027,-7284.210001,-13413.79594,-7254.191608,5341.99987,-8667.648872,4234.0686,0.054,0.948,-0.114,192,0,0,0,0,0,0,0,0,0,1.71E+09,0, 2024-03-15 15:22:21.678
228,-8429.580442,-20671.63088,-7190.399729,-13322.46671,-6570.89878,5553.581483,-8137.711363,3525.495949,0.054,0.948,-0.114,192,0,0,0,0,0,0,0,0,0,1.71E+09,0, 2024-03-15 15:22:21.678
229,-7090.912114,-20962.96352,-7169.679662,-13290.72723,-4956.409926,6339.714687,-6717.526223,7443.376773,0.054,0.948,-0.114,192,0,0,0,0,0,0,0,0,0,1.71E+09,0, 2024-03-15 15:22:21.678
230,-5910.0024,-21066.78737,-7234.030334,-13343.03031,-4614.674105,6618.105664,-6354.645652,10437.43765,0.054,0.948,-0.114,192,0,0,0,0,0,0,0,0,0,1.71E+09,0, 2024-03-15 15:22:21.678
231,-6363.407536,-20861.64306,-7298.336303,-13407.04571,-5907.878984,6070.890256,-7457.681889,8684.502087,0.056,0.958,-0.106,192,1,192,29,240,252,176,0,0,0,1.71E+09,0, 2024-03-15 15:22:21.678
232,-8038.939004,-20594.53971,-7281.058405,-13413.10303,-7242.725163,5340.34584,-8652.874369,4264.265807,0.056,0.958,-0.106,192,0,0,0,0,0,0,0,0,0,1.71E+09,0, 2024-03-15 15:22:21.678
233,-8431.279174,-20666.42292,-7185.214124,-13322.82434,-6573.737451,5539.924567,-8137.04081,3504.060627,0.056,0.958,-0.106,192,0,0,0,0,0,0,0,0,0,1.71E+09,0, 2024-03-15 15:22:21.678
234,-7101.10451,-20964.52814,-7172.764203,-13297.81274,-4964.635368,6319.575765,-6721.191909,7414.319505,0.056,0.958,-0.106,192,0,0,0,0,0,0,0,0,0,1.71E+09,0, 2024-03-15 15:22:21.678
235,-5928.308478,-21071.14596,-7241.607576,-13350.69696,-4619.949117,6597.519707,-6360.211237,10433.54844,0.056,0.958,-0.106,192,0,0,0,0,0,0,0,0,0,1.71E+09,0, 2024-03-15 15:22:21.678
236,-6362.982853,-20857.79856,-7302.829004,-13410.91256,-5903.118062,6063.603588,-7461.369927,8712.061788,0.056,0.958,-0.106,192,0,0,0,0,0,0,0,0,0,1.71E+09,0, 2024-03-15 15:22:21.678
237,-8018.665972,-20580.41341,-7282.980655,-13413.37125,-7249.408334,5331.360439,-8661.613901,4283.77888,0.056,0.958,-0.106,192,0,0,0,0,0,0,0,0,0,1.71E+09,0, 2024-03-15 15:22:21.678
238,-8411.542584,-20640.20433,-7184.700034,-13314.80006,-6591.171812,5528.882805,-8153.82697,3477.953789,0.056,0.958,-0.106,192,0,0,0,0,0,0,0,0,0,1.71E+09,0, 2024-03-15 15:22:21.678
239,-7088.721644,-20925.03261,-7164.091726,-13279.86428,-4979.991016,6315.574803,-6741.152017,7360.049469,0.056,0.958,-0.106,192,0,0,0,0,0,0,0,0,0,1.71E+09,0, 2024-03-15 15:22:21.678
240,-5897.932458,-21030.39873,-7226.67661,-13330.89332,-4616.641059,6605.856908,-6365.374489,10405.58641,0.056,0.958,-0.106,192,0,0,0,0,0,0,0,0,0,1.71E+09,0, 2024-03-15 15:22:21.678
241,-6305.404759,-20824.24859,-7286.713396,-13387.95732,-5876.519486,6081.19441,-7440.51575,8744.069486,0.054,0.948,-0.102,192,1,176,29,160,252,208,0,0,0,1.71E+09,0, 2024-03-15 15:22:21.678
242,-7968.218084,-20551.53496,-7270.62014,-13392.20415,-7235.505549,5348.191303,-8653.880197,4321.016886,0.054,0.948,-0.102,192,0,0,0,0,0,0,0,0,0,1.71E+09,0, 2024-03-15 15:22:21.678
243,-8404.278267,-20620.51244,-7185.951732,-13305.92642,-6612.741245,5529.687468,-8178.279779,3468.521353,0.054,0.948,-0.102,192,0,0,0,0,0,0,0,0,0,1.71E+09,0, 2024-03-15 15:22:21.678
244,-7095.516574,-20913.67792,-7170.350214,-13278.59024,-5001.627505,6307.863451,-6765.40366,7320.822158,0.054,0.948,-0.102,192,0,0,0,0,0,0,0,0,0,1.71E+09,0, 2024-03-15 15:22:21.678
245,-5893.909144,-21025.97308,-7231.772808,-13330.24512,-4613.087131,6606.52746,-6364.815696,10392.86827,0.054,0.948,-0.102,192,0,0,0,0,0,0,0,0,0,1.71E+09,0, 2024-03-15 15:22:21.678
246,-6290.406739,-20823.131,-7286.266361,-13388.3373,-5854.793591,6091.722082,-7419.974496,8779.966388,0.054,0.948,-0.102,192,0,0,0,0,0,0,0,0,0,1.71E+09,0, 2024-03-15 15:22:21.678
247,-7969.648596,-20549.29978,-7273.369404,-13396.49569,-7229.49293,5350.314719,-8650.639194,4349.560064,0.054,0.948,-0.102,192,0,0,0,0,0,0,0,0,0,1.71E+09,0, 2024-03-15 15:22:21.678
248,-8429.356924,-20618.63489,-7188.7457,-13307.6028,-6623.738304,5517.438712,-8188.15925,3443.956786,0.054,0.948,-0.102,192,0,0,0,0,0,0,0,0,0,1.71E+09,0, 2024-03-15 15:22:21.678
249,-7123.545661,-20904.49135,-7163.37647,-13269.2025,-5002.365113,6304.443634,-6765.828343,7281.706605,0.054,0.948,-0.102,192,0,0,0,0,0,0,0,0,0,1.71E+09,0, 2024-03-15 15:22:21.678
250,-5908.482481,-21014.6184,-7219.300535,-13310.1509,-4590.310704,6619.46912,-6343.380373,10406.86046,0.054,0.948,-0.102,192,0,0,0,0,0,0,0,0,0,1.71E+09,0, 2024-03-15 15:22:21.678
251,-6298.453367,-20823.30982,-7286.758099,-13375.88738,-5836.085181,6101.333332,-7400.483775,8842.461865,0.052,0.944,-0.104,192,1,160,29,128,252,192,0,0,0,1.71E+09,0, 2024-03-15 15:22:21.678
252,-7968.754526,-20557.36876,-7282.332454,-13392.31591,-7223.435607,5351.700527,-8638.368087,4415.341248,0.052,0.944,-0.104,192,0,0,0,0,0,0,0,0,0,1.71E+09,0, 2024-03-15 15:22:21.678
253,-8443.080895,-20616.48913,-7190.80206,-13302.28308,-6637.082295,5512.789549,-8196.787023,3431.864492,0.052,0.944,-0.104,192,0,0,0,0,0,0,0,0,0,1.71E+09,0, 2024-03-15 15:22:21.678
254,-7143.483417,-20910.99571,-7168.562075,-13265.49211,-5009.450616,6304.555393,-6769.605788,7248.514265,0.052,0.944,-0.104,192,0,0,0,0,0,0,0,0,0,1.71E+09,0, 2024-03-15 15:22:21.678
255,-5921.02181,-21038.78063,-7233.940927,-13319.89626,-4584.566305,6620.005562,-6331.086913,10434.64368,0.052,0.944,-0.104,192,0,0,0,0,0,0,0,0,0,1.71E+09,0, 2024-03-15 15:22:21.678
0,-6292.708968,-20843.47109,-7293.128347,-13378.79311,-5817.868509,6114.543213,-7379.92017,8907.259572,0.052,0.944,-0.104,192,0,0,0,0,0,0,0,0,0,1.71E+09,0, 2024-03-15 15:22:21.678
1,-7967.189904,-20580.94985,-7289.596771,-13397.8815,-7216.998305,5360.596521,-8623.817101,4472.069975,0.052,0.944,-0.104,192,0,0,0,0,0,0,0,0,0,1.71E+09,0, 2024-03-15 15:22:21.678
2,-8462.884541,-20628.33555,-7190.466784,-13301.14315,-6648.615795,5516.611697,-8197.524631,3419.615736,0.052,0.944,-0.104,192,0,0,0,0,0,0,0,0,0,1.71E+09,0, 2024-03-15 15:22:21.678
3,-7171.713671,-20923.02095,-7163.935264,-13265.80504,-5016.781988,6300.93441,-6761.827381,7204.928363,0.052,0.944,-0.104,192,0,0,0,0,0,0,0,0,0,1.71E+09,0, 2024-03-15 15:22:21.678
4,-5924.262813,-21045.88849,-7225.715485,-13319.31511,-4573.524543,6627.426341,-6313.451387,10415.26472,0.052,0.944,-0.104,192,0,0,0,0,0,0,0,0,0,1.71E+09,0, 2024-03-15 15:22:21.678
5,-6273.978206,-20861.91128,-7297.956323,-13393.70172,-5805.396236,6119.907632,-7359.960062,8943.849378,0.052,0.946,-0.104,192,1,160,29,144,252,192,0,0,0,1.71E+09,0, 2024-03-15 15:22:21.678
6,-7946.693354,-20589.80114,-7296.034073,-13410.1079,-7221.155729,5364.396318,-8620.553746,4495.695769,0.052,0.946,-0.104,192,0,0,0,0,0,0,0,0,0,1.71E+09,0, 2024-03-15 15:22:21.678
7,-8459.934111,-20641.63484,-7204.838956,-13323.47254,-6674.901447,5501.591325,-8209.862794,3402.851928,0.052,0.946,-0.104,192,0,0,0,0,0,0,0,0,0,1.71E+09,0, 2024-03-15 15:22:21.678
8,-7171.557208,-20922.48451,-7170.41727,-13276.1986,-5036.473875,6292.753672,-6774.009082,7151.865322,0.052,0.946,-0.104,192,0,0,0,0,0,0,0,0,0,1.71E+09,0, 2024-03-15 15:22:21.678
9,-5918.049028,-21045.86614,-7231.728105,-13328.27816,-4579.470107,6628.610984,-6313.22787,10400.9596,0.052,0.946,-0.104,192,0,0,0,0,0,0,0,0,0,1.71E+09,0, 2024-03-15 15:22:21.678
10,-6254.062802,-20857.50799,-7301.89023,-13398.19442,-5803.138709,6131.709353,-7352.62869,8975.14182,0.052,0.946,-0.104,192,0,0,0,0,0,0,0,0,0,1.71E+09,0, 2024-03-15 15:22:21.678
11,-7915.669133,-20578.46881,-7294.938838,-13414.06416,-7224.62025,5371.638283,-8623.54888,4521.042647,0.052,0.946,-0.104,192,0,0,0,0,0,0,0,0,0,1.71E+09,0, 2024-03-15 15:22:21.678
12,-8438.722305,-20625.89921,-7201.285029,-13325.64066,-6688.223086,5500.071406,-8224.927869,3387.7645,0.052,0.946,-0.104,192,0,0,0,0,0,0,0,0,0,1.71E+09,0, 2024-03-15 15:22:21.678
13,-7164.739926,-20914.88491,-7176.340482,-13284.66991,-5059.183247,6286.830459,-6800.697064,7127.814845,0.052,0.946,-0.104,192,0,0,0,0,0,0,0,0,0,1.71E+09,0, 2024-03-15 15:22:21.678
14,-5910.963525,-21043.78743,-7240.489988,-13333.79904,-4590.020131,6631.740228,-6332.495073,10409.83324,0.052,0.946,-0.104,192,0,0,0,0,0,0,0,0,0,1.71E+09,0, 2024-03-15 15:22:21.678
15,-6229.498235,-20853.52938,-7302.001989,-13393.07587,-5790.308808,6146.52856,-7355.467362,9016.917231,0.052,0.946,-0.104,192,0,0,0,0,0,0,0,0,0,1.71E+09,0, 2024-03-15 15:22:21.678
16,-7893.160926,-20576.90419,-7294.603562,-13406.48692,-7218.697038,5389.251457,-8626.432255,4566.461392,0.062,0.952,-0.108,192,1,240,29,192,252,160,0,0,0,1.71E+09,0, 2024-03-15 15:22:21.678
17,-8446.254843,-20615.77387,-7195.607686,-13308.16159,-6704.472805,5513.773026,-8241.512864,3357.030851,0.062,0.952,-0.108,192,0,0,0,0,0,0,0,0,0,1.71E+09,0, 2024-03-15 15:22:21.678
18,-7189.840935,-20902.83732,-7165.879865,-13261.84878,-5072.54959,6302.499032,-6818.779626,7063.888855,0.062,0.952,-0.108,192,0,0,0,0,0,0,0,0,0,1.71E+09,0, 2024-03-15 15:22:21.678
19,-5919.479539,-21044.74855,-7231.146959,-13313.30249,-4578.7325,6651.722688,-6328.360001,10396.48925,0.062,0.952,-0.108,192,0,0,0,0,0,0,0,0,0,1.71E+09,0, 2024-03-15 15:22:21.678
20,-6220.758703,-20859.96668,-7291.2508,-13372.9146,-5764.44784,6176.569304,-7334.277908,9067.879208,0.062,0.952,-0.108,192,0,0,0,0,0,0,0,0,0,1.71E+09,0, 2024-03-15 15:22:21.678
21,-7879.526362,-20587.63302,-7286.579285,-13391.17597,-7195.630037,5416.520586,-8599.096072,4631.259099,0.062,0.952,-0.108,192,0,0,0,0,0,0,0,0,0,1.71E+09,0, 2024-03-15 15:22:21.678
22,-8457.095439,-20634.30347,-7198.424005,-13304.98765,-6711.692418,5525.418285,-8249.715954,3376.208648,0.062,0.952,-0.108,192,0,0,0,0,0,0,0,0,0,1.71E+09,0, 2024-03-15 15:22:21.678
23,-7210.940982,-20918.32708,-7168.360909,-13259.6136,-5082.853744,6310.746826,-6830.961326,7053.271777,0.062,0.952,-0.108,192,0,0,0,0,0,0,0,0,0,1.71E+09,0, 2024-03-15 15:22:21.678
24,-5931.504778,-21048.30248,-7221.80393,-13297.70098,-4564.047404,6674.722633,-6314.39016,10398.27739,0.062,0.952,-0.108,192,0,0,0,0,0,0,0,0,0,1.71E+09,0, 2024-03-15 15:22:21.678
25,-6216.690685,-20872.19308,-7288.166259,-13368.33249,-5739.302127,6195.948267,-7306.986428,9118.684723,0.062,0.952,-0.108,192,0,0,0,0,0,0,0,0,0,1.71E+09,0, 2024-03-15 15:22:21.678
26,-7866.383537,-20590.13642,-7274.554047,-13380.22362,-7173.211238,5432.345621,-8577.124307,4674.040338,0.068,0.95,-0.11,192,2,32,29,176,252,144,0,0,0,1.71E+09,0, 2024-03-15 15:22:21.678
27,-8456.044907,-20631.62126,-7184.878848,-13295.89049,-6701.410616,5526.155892,-8231.253413,3361.568256,0.068,0.95,-0.11,192,0,0,0,0,0,0,0,0,0,1.71E+09,0, 2024-03-15 15:22:21.678
28,-7229.559985,-20931.3358,-7168.271502,-13267.45907,-5075.2318,6298.408663,-6812.990524,7028.416637,0.068,0.95,-0.11,192,0,0,0,0,0,0,0,0,0,1.71E+09,0, 2024-03-15 15:22:21.679
29,-5953.230673,-21066.76502,-7229.582337,-13314.5989,-4552.826828,6659.501095,-6296.844041,10404.04414,0.068,0.95,-0.11,192,0,0,0,0,0,0,0,0,0,1.71E+09,0, 2024-03-15 15:22:21.679
30,-6214.209642,-20883.48071,-7291.228448,-13376.93791,-5715.810444,6196.775281,-7274.97873,9165.757497,0.068,0.95,-0.11,192,0,0,0,0,0,0,0,0,0,1.71E+09,0, 2024-03-15 15:22:21.679
31,-7865.936502,-20602.60869,-7288.255666,-13398.5297,-7172.808906,5426.154187,-8564.98731,4713.155891,0.068,0.95,-0.11,192,0,0,0,0,0,0,0,0,0,1.71E+09,0, 2024-03-15 15:22:21.679
32,-8481.235323,-20642.46185,-7203.274334,-13315.47061,-6729.730276,5510.017933,-8246.005564,3340.334098,0.068,0.95,-0.11,192,0,0,0,0,0,0,0,0,0,1.71E+09,0, 2024-03-15 15:22:21.679
33,-7259.22075,-20931.2911,-7175.513467,-13270.99064,-5094.230782,6290.987884,-6821.685353,6977.521715,0.068,0.95,-0.11,192,0,0,0,0,0,0,0,0,0,1.71E+09,0, 2024-03-15 15:22:21.679
34,-5952.716583,-21070.85539,-7236.086695,-13320.05272,-4548.49059,6662.630339,-6291.211401,10401.22782,0.068,0.95,-0.11,192,0,0,0,0,0,0,0,0,0,1.71E+09,0, 2024-03-15 15:22:21.679
35,-6194.562458,-20889.44863,-7305.332399,-13386.19153,-5711.094226,6198.965752,-7276.118669,9195.708835,0.068,0.95,-0.11,192,0,0,0,0,0,0,0,0,0,1.71E+09,0, 2024-03-15 15:22:21.679
36,-7853.754801,-20607.99546,-7314.586021,-13410.97962,-7189.460956,5420.499196,-8585.75208,4748.493999,0.064,0.954,-0.11,192,2,0,29,208,252,144,0,0,0,1.71E+09,0, 2024-03-15 15:22:21.679
37,-8491.740643,-20631.71066,-7221.379247,-13322.53377,-6763.280244,5494.505822,-8277.052138,3314.98722,0.064,0.954,-0.11,192,0,0,0,0,0,0,0,0,0,1.71E+09,0, 2024-03-15 15:22:21.679
38,-7272.117707,-20919.44467,-7191.874944,-13280.51249,-5133.212225,6267.831477,-6855.592949,6920.837691,0.064,0.954,-0.11,192,0,0,0,0,0,0,0,0,0,1.71E+09,0, 2024-03-15 15:22:21.679
39,-5954.72824,-21058.07019,-7249.341279,-13327.02647,-4574.351558,6648.973423,-6308.891631,10364.34744,0.064,0.954,-0.11,192,0,0,0,0,0,0,0,0,0,1.71E+09,0, 2024-03-15 15:22:21.679
40,-6183.319531,-20876.23875,-7315.301277,-13391.84652,-5723.052409,6199.010455,-7283.584152,9207.018817,0.064,0.954,-0.11,192,0,0,0,0,0,0,0,0,0,1.71E+09,0, 2024-03-15 15:22:21.679
41,-7830.374876,-20596.43961,-7322.90087,-13416.70166,-7199.318075,5422.242632,-8595.631551,4783.966218,0.064,0.954,-0.11,192,0,0,0,0,0,0,0,0,0,1.71E+09,0, 2024-03-15 15:22:21.679
42,-8477.144954,-20613.40459,-7227.43657,-13323.40548,-6788.627122,5491.734206,-8309.193946,3307.633496,0.064,0.954,-0.11,192,0,0,0,0,0,0,0,0,0,1.71E+09,0, 2024-03-15 15:22:21.679
43,-7262.238236,-20900.55745,-7190.556191,-13275.46099,-5141.169446,6272.502991,-6872.669682,6878.950522,0.064,0.954,-0.11,192,0,0,0,0,0,0,0,0,0,1.71E+09,0, 2024-03-15 15:22:21.679
44,-5948.916787,-21049.19655,-7251.956433,-13323.40548,-4569.344767,6657.198865,-6313.831367,10355.36204,0.064,0.954,-0.11,192,0,0,0,0,0,0,0,0,0,1.71E+09,0, 2024-03-15 15:22:21.679
45,-6169.237932,-20874.74118,-7316.731789,-13386.75033,-5710.267211,6209.739293,-7276.319835,9243.69803,0.064,0.954,-0.11,192,0,0,0,0,0,0,0,0,0,1.71E+09,0, 2024-03-15 15:22:21.679
46,-7811.130024,-20588.28122,-7312.887289,-13402.59771,-7186.376415,5438.581757,-8583.271037,4815.303363,0.066,0.954,-0.104,192,2,16,29,208,252,192,0,0,0,1.71E+09,0, 2024-03-15 15:22:21.679
47,-8473.479268,-20604.79916,-7215.903069,-13310.55323,-6789.74471,5503.312409,-8313.373722,3303.699589,0.066,0.954,-0.104,192,0,0,0,0,0,0,0,0,0,1.71E+09,0, 2024-03-15 15:22:21.679
48,-7280.119631,-20896.44473,-7185.057662,-13268.59901,-5154.669899,6276.213381,-6890.059339,6852.195484,0.066,0.954,-0.104,192,0,0,0,0,0,0,0,0,0,1.71E+09,0, 2024-03-15 15:22:21.679
49,-5953.610653,-21047.83309,-7240.534692,-13312.60959,-4563.309796,6667.301854,-6306.455291,10345.46022,0.066,0.954,-0.104,192,0,0,0,0,0,0,0,0,0,1.71E+09,0, 2024-03-15 15:22:21.679
50,-6147.668498,-20871.34372,-7295.676445,-13364.26447,-5677.164278,6235.287337,-7239.148884,9275.996301,0.066,0.954,-0.104,192,0,0,0,0,0,0,0,0,0,1.71E+09,0, 2024-03-15 15:22:21.679
51,-7795.014417,-20588.88472,-7298.068082,-13385.7892,-7168.025633,5458.9889,-8555.398411,4852.429611,0.066,0.954,-0.104,192,0,0,0,0,0,0,0,0,0,1.71E+09,0, 2024-03-15 15:22:21.679
52,-8481.749413,-20608.57661,-7206.850613,-13299.10914,-6792.583381,5507.223965,-8300.163841,3298.983371,0.066,0.954,-0.104,192,0,0,0,0,0,0,0,0,0,1.71E+09,0, 2024-03-15 15:22:21.679
53,-7296.101129,-20887.48168,-7165.052851,-13247.02957,-5148.433763,6286.852811,-6870.926246,6814.86807,0.066,0.954,-0.104,192,0,0,0,0,0,0,0,0,0,1.71E+09,0, 2024-03-15 15:22:21.679
54,-5953.610653,-21034.71262,-7217.847671,-13286.18983,-4533.269052,6697.387302,-6272.547695,10344.5885,0.066,0.954,-0.104,192,0,0,0,0,0,0,0,0,0,1.71E+09,0, 2024-03-15 15:22:21.679
55,-6139.800684,-20871.65664,-7288.166259,-13354.16148,-5648.732859,6262.243541,-7209.398712,9346.113723,0.066,0.954,-0.104,192,0,0,0,0,0,0,0,0,0,1.71E+09,0, 2024-03-15 15:22:21.679
56,-7787.951265,-20585.19668,-7287.808631,-13374.68038,-7147.707897,5482.659397,-8533.761923,4927.442065,0.068,0.948,-0.108,192,2,32,29,160,252,160,0,0,0,1.71E+09,0, 2024-03-15 15:22:21.679
57,-8488.87962,-20606.67671,-7202.424968,-13298.97503,-6791.376387,5514.287116,-8293.212449,3323.100903,0.068,0.948,-0.108,192,0,0,0,0,0,0,0,0,0,1.71E+09,0, 2024-03-15 15:22:21.679
58,-7310.674466,-20887.30286,-7161.767144,-13252.14812,-5150.378364,6284.774099,-6868.847533,6801.546431,0.068,0.948,-0.108,192,0,0,0,0,0,0,0,0,0,1.71E+09,0, 2024-03-15 15:22:21.679
59,-5979.248104,-21050.73882,-7226.855424,-13305.72525,-4533.023183,6687.016092,-6265.842171,10356.32317,0.068,0.948,-0.108,192,0,0,0,0,0,0,0,0,0,1.71E+09,0, 2024-03-15 15:22:21.679
60,-6165.304025,-20889.091,-7298.984504,-13373.98748,-5649.023431,6257.348509,-7203.207279,9376.087412,0.068,0.948,-0.108,192,0,0,0,0,0,0,0,0,0,1.71E+09,0, 2024-03-15 15:22:21.679
61,-7800.714111,-20609.22481,-7305.868841,-13398.90968,-7153.787572,5475.462136,-8533.739571,4966.602321,0.068,0.948,-0.108,192,0,0,0,0,0,0,0,0,0,1.71E+09,0, 2024-03-15 15:22:21.679
62,-8516.461672,-20619.50661,-7211.611535,-13310.93321,-6810.37537,5503.290058,-8307.294048,3302.447892,0.068,0.948,-0.108,192,0,0,0,0,0,0,0,0,0,1.71E+09,0, 2024-03-15 15:22:21.679
63,-7346.593719,-20905.676,-7178.061566,-13266.58735,-5173.221847,6270.647796,-6883.689092,6760.978015,0.068,0.948,-0.108,192,0,0,0,0,0,0,0,0,0,1.71E+09,0, 2024-03-15 15:22:21.679
64,-6004.617334,-21059.41129,-7238.858311,-13313.23544,-4550.390488,6677.203676,-6286.562239,10322.79555,0.068,0.948,-0.108,192,0,0,0,0,0,0,0,0,0,1.71E+09,0, 2024-03-15 15:22:21.679
65,-6149.769562,-20893.38254,-7304.237164,-13374.59098,-5641.44619,6258.086116,-7201.352084,9382.278846,0.068,0.948,-0.108,192,0,0,0,0,0,0,0,0,0,1.71E+09,0, 2024-03-15 15:22:21.679
66,-7775.568399,-20600.68644,-7309.467472,-13398.64146,-7157.922644,5474.478659,-8538.634603,4968.569275,0.072,0.948,-0.104,192,2,64,29,160,252,192,0,0,0,1.71E+09,0, 2024-03-15 15:22:21.679
67,-8505.531669,-20608.73307,-7221.647468,-13317.43757,-6834.783475,5492.471813,-8332.596222,3261.879475,0.072,0.948,-0.104,192,0,0,0,0,0,0,0,0,0,1.71E+09,0, 2024-03-15 15:22:21.679
68,-7350.460571,-20892.332,-7188.410424,-13273.85167,-5199.418092,6257.393212,-6917.61904,6697.096729,0.072,0.948,-0.104,192,0,0,0,0,0,0,0,0,0,1.71E+09,0, 2024-03-15 15:22:21.679
69,-5994.134366,-21044.27916,-7240.311174,-13313.63777,-4551.351613,6679.438851,-6298.721588,10289.78202,0.072,0.948,-0.104,192,0,0,0,0,0,0,0,0,0,1.71E+09,0, 2024-03-15 15:22:21.679
70,-6120.77935,-20882.38548,-7306.382931,-13376.1556,-5626.179949,6270.983073,-7202.06734,9426.244727,0.072,0.948,-0.104,192,0,0,0,0,0,0,0,0,0,1.71E+09,0, 2024-03-15 15:22:21.679
71,-7743.80657,-20594.51736,-7314.138986,-13402.53066,-7154.65929,5483.821688,-8552.090353,5032.584671,0.072,0.948,-0.104,192,0,0,0,0,0,0,0,0,0,1.71E+09,0, 2024-03-15 15:22:21.679
72,-8492.299437,-20592.61746,-7214.919593,-13311.89433,-6849.736792,5494.774043,-8355.283243,3254.771621,0.072,0.948,-0.104,192,0,0,0,0,0,0,0,0,0,1.71E+09,0, 2024-03-15 15:22:21.679
73,-7342.749219,-20880.41852,-7178.307435,-13265.13449,-5208.895231,6256.454439,-6929.688982,6654.673118,0.072,0.948,-0.104,192,0,0,0,0,0,0,0,0,0,1.71E+09,0, 2024-03-15 15:22:21.679
74,-5982.109127,-21039.71941,-7229.023543,-13304.11593,-4540.019279,6685.272656,-6289.959704,10275.78983,0.072,0.948,-0.104,192,0,0,0,0,0,0,0,0,0,1.71E+09,0, 2024-03-15 15:22:22.159
75,-6103.277934,-20885.00063,-7297.799861,-13366.96903,-5602.822376,6286.338721,-7181.95077,9461.336966,0.072,0.948,-0.104,192,0,0,0,0,0,0,0,0,0,1.71E+09,0, 2024-03-15 15:22:22.159
76,-7722.862985,-20599.97119,-7308.193422,-13393.61231,-7135.257975,5498.886764,-8535.080675,5077.556381,0.078,0.948,-0.11,192,2,112,29,160,252,144,0,0,0,1.71E+09,0, 2024-03-15 15:22:22.159
77,-8502.424777,-20602.0946,-7213.690247,-13306.03818,-6856.039984,5497.098624,-8357.496066,3253.430516,0.078,0.948,-0.11,192,0,0,0,0,0,0,0,0,0,1.71E+09,0, 2024-03-15 15:22:22.159
78,-7372.99113,-20882.47489,-7170.03729,-13252.75162,-5214.416112,6263.964625,-6934.002868,6606.706274,0.078,0.948,-0.11,192,0,0,0,0,0,0,0,0,0,1.71E+09,0, 2024-03-15 15:22:22.159
79,-5997.375369,-21050.4706,-7228.777674,-13301.1655,-4527.122322,6697.432005,-6278.157983,10265.68684,0.078,0.948,-0.11,192,0,0,0,0,0,0,0,0,0,1.71E+09,0, 2024-03-15 15:22:22.159
80,-6095.164251,-20893.15902,-7297.576344,-13361.58226,-5579.911838,6304.175413,-7160.761316,9484.538076,0.078,0.948,-0.11,192,0,0,0,0,0,0,0,0,0,1.71E+09,0, 2024-03-15 15:22:22.159
81,-7716.582145,-20597.13252,-7304.393626,-13386.48211,-7121.981039,5516.90227,-8526.117626,5103.305591,0.078,0.948,-0.11,192,0,0,0,0,0,0,0,0,0,1.71E+09,0, 2024-03-15 15:22:22.159
82,-8510.180832,-20577.17241,-7195.40652,-13289.0285,-6849.937958,5512.342514,-8351.66226,3235.705583,0.078,0.948,-0.11,192,0,0,0,0,0,0,0,0,0,1.71E+09,0, 2024-03-15 15:22:22.159
83,-7374.488696,-20851.18244,-7146.411496,-13230.98102,-5200.692141,6281.5778,-6920.480063,6570.675262,0.078,0.948,-0.11,192,0,0,0,0,0,0,0,0,0,1.71E+09,0, 2024-03-15 15:22:22.159
84,-5982.489107,-21023.58145,-7208.415235,-13278.36672,-4506.581069,6721.370723,-6263.092907,10264.72572,0.078,0.948,-0.11,192,0,0,0,0,0,0,0,0,0,1.71E+09,0, 2024-03-15 15:22:22.159
85,-6068.319806,-20872.26014,-7282.801841,-13346.18191,-5559.884675,6332.696239,-7154.011089,9534.382467,0.078,0.948,-0.11,192,0,0,0,0,0,0,0,0,0,1.71E+09,0, 2024-03-15 15:22:22.159
86,-7684.507392,-20584.70495,-7292.681312,-13376.26736,-7102.937353,5542.9197,-8501.687169,5167.633911,0.076,0.944,-0.102,192,2,96,29,128,252,208,0,0,0,1.71E+09,0, 2024-03-15 15:22:22.159
87,-8500.189602,-20585.979,-7209.37636,-13297.20924,-6862.27612,5519.293907,-8355.931444,3270.708414,0.076,0.944,-0.102,192,0,0,0,0,0,0,0,0,0,1.71E+09,0, 2024-03-15 15:22:22.159
88,-7386.871563,-20881.46906,-7177.323959,-13255.85851,-5225.79315,6276.012215,-6935.0534,6597.653818,0.076,0.944,-0.102,192,0,0,0,0,0,0,0,0,0,1.71E+09,0, 2024-03-15 15:22:22.159
89,-6014.787378,-21061.13238,-7241.562872,-13308.98861,-4530.519787,6708.116139,-6270.111355,10289.82673,0.076,0.944,-0.102,192,0,0,0,0,0,0,0,0,0,1.71E+09,0, 2024-03-15 15:22:22.159
90,-6099.679303,-20902.27853,-7304.840661,-13368.55601,-5571.418175,6325.744847,-7145.875054,9553.604967,0.076,0.944,-0.102,192,0,0,0,0,0,0,0,0,0,1.71E+09,0, 2024-03-15 15:22:22.159
91,-7701.427663,-20615.39389,-7317.827024,-13399.11084,-7119.43294,5537.622337,-8510.002018,5189.248048,0.076,0.944,-0.102,192,0,0,0,0,0,0,0,0,0,1.71E+09,0, 2024-03-15 15:22:22.159
92,-8520.52969,-20606.81082,-7225.626078,-13320.83503,-6883.979664,5504.206479,-8374.550447,3256.000967,0.076,0.944,-0.102,192,0,0,0,0,0,0,0,0,0,1.71E+09,0, 2024-03-15 15:22:22.159
93,-7409.938563,-20880.99967,-7178.061566,-13269.8507,-5242.534607,6258.890779,-6953.471238,6521.926108,0.076,0.944,-0.102,192,0,0,0,0,0,0,0,0,0,1.71E+09,0, 2024-03-15 15:22:22.159
94,-6011.971058,-21055.56679,-7239.595919,-13319.98567,-4526.697639,6702.639962,-6276.97334,10232.11452,0.076,0.944,-0.102,192,0,0,0,0,0,0,0,0,0,1.71E+09,0, 2024-03-15 15:22:22.159
95,-6071.247884,-20903.8208,-7308.662809,-13385.90096,-5559.683509,6321.989753,-7141.807037,9549.022859,0.076,0.944,-0.102,192,0,0,0,0,0,0,0,0,0,1.71E+09,0, 2024-03-15 15:22:22.159
96,-7670.13522,-20602.96632,-7314.138986,-13410.7114,-7116.258993,5534.135465,-8514.472367,5181.782565,0.078,0.948,-0.102,192,2,112,29,160,252,208,0,0,0,1.71E+09,0, 2024-03-15 15:22:22.159
97,-8509.577335,-20589.28705,-7223.256793,-13326.69119,-6899.111795,5494.751691,-8392.677712,3206.268335,0.078,0.948,-0.102,192,0,0,0,0,0,0,0,0,0,1.71E+09,0, 2024-03-15 15:22:22.159
98,-7413.984229,-20877.89278,-7187.292837,-13283.32881,-5263.411136,6246.910244,-6977.119383,6485.269247,0.078,0.948,-0.102,192,0,0,0,0,0,0,0,0,0,1.71E+09,0, 2024-03-15 15:22:22.159
99,-6005.489052,-21052.23638,-7241.048782,-13328.21111,-4534.006659,6703.154052,-6282.60598,10226.28072,0.078,0.948,-0.102,192,0,0,0,0,0,0,0,0,0,1.71E+09,0, 2024-03-15 15:22:22.159
100,-6053.545303,-20904.22313,-7308.03696,-13389.00785,-5550.653404,6330.483416,-7134.922699,9580.360005,0.078,0.948,-0.102,192,0,0,0,0,0,0,0,0,0,1.71E+09,0, 2024-03-15 15:22:22.159
101,-7661.105116,-20609.82831,-7317.827024,-13411.94074,-7110.782815,5540.706878,-8511.56664,5222.775665,0.078,0.948,-0.102,192,0,0,0,0,0,0,0,0,0,1.71E+09,0, 2024-03-15 15:22:22.159
102,-8502.71535,-20590.15877,-7218.428817,-13320.54446,-6896.898973,5505.681694,-8391.671883,3223.859158,0.078,0.948,-0.102,192,0,0,0,0,0,0,0,0,0,1.71E+09,0, 2024-03-15 15:22:22.159
103,-7406.496394,-20870.62846,-7174.865267,-13266.36383,-5257.152648,6264.813991,-6974.750099,6478.966055,0.078,0.948,-0.102,192,0,0,0,0,0,0,0,0,0,1.71E+09,0, 2024-03-15 15:22:22.159
104,-6009.154738,-21051.52113,-7234.61148,-13312.00609,-4524.462464,6721.795407,-6280.326102,10230.5499,0.078,0.948,-0.102,192,0,0,0,0,0,0,0,0,0,1.71E+09,0, 2024-03-15 15:22:22.159
105,-6063.022442,-20910.52632,-7306.025303,-13375.99914,-5538.181131,6355.338556,-7119.29883,9628.080979,0.078,0.948,-0.102,192,0,0,0,0,0,0,0,0,0,1.71E+09,0, 2024-03-15 15:22:22.159
106,-7655.763049,-20618.16551,-7313.915469,-13401.92716,-7101.48449,5567.931303,-8494.869887,5278.632674,0.078,0.944,-0.108,192,2,112,29,128,252,160,0,0,0,1.71E+09,0, 2024-03-15 15:22:22.159
107,-8512.058379,-20597.5125,-7216.953601,-13316.14117,-6911.226441,5521.864357,-8400.277305,3215.879585,0.078,0.944,-0.108,192,0,0,0,0,0,0,0,0,0,1.71E+09,0, 2024-03-15 15:22:22.159
108,-7437.028877,-20875.79171,-7170.640787,-13265.3133,-5274.005863,6278.269741,-6981.500325,6421.522072,0.078,0.944,-0.108,192,0,0,0,0,0,0,0,0,0,1.71E+09,0, 2024-03-15 15:22:22.159
109,-6034.568672,-21059.07602,-7229.045895,-13313.16838,-4523.501339,6741.017907,-6265.149267,10204.35365,0.078,0.944,-0.108,192,0,0,0,0,0,0,0,0,0,1.71E+09,0, 2024-03-15 15:22:22.159
110,-6048.717326,-20913.47675,-7297.106957,-13373.94278,-5513.05777,6386.541591,-7093.527269,9662.703832,0.078,0.944,-0.108,192,0,0,0,0,0,0,0,0,0,1.71E+09,0, 2024-03-15 15:22:22.159
111,-7622.660115,-20609.31422,-7305.175937,-13394.1264,-7080.004463,5601.369512,-8470.707651,5354.673309,0.078,0.944,-0.108,192,0,0,0,0,0,0,0,0,0,1.71E+09,0, 2024-03-15 15:22:22.159
112,-8515.724065,-20583.76617,-7212.818529,-13310.50853,-6920.033028,5536.236529,-8395.561087,3233.157484,0.078,0.944,-0.108,192,0,0,0,0,0,0,0,0,0,1.71E+09,0, 2024-03-15 15:22:22.159
113,-7462.82279,-20864.21351,-7171.646615,-13258.58542,-5289.808546,6284.997616,-6983.601389,6400.131452,0.078,0.944,-0.108,192,0,0,0,0,0,0,0,0,0,1.71E+09,0, 2024-03-15 15:22:22.159
114,-6042.74941,-21052.23638,-7232.935099,-13299.17619,-4516.59465,6761.760326,-6259.024889,10223.75497,0.078,0.944,-0.108,192,0,0,0,0,0,0,0,0,0,1.71E+09,0, 2024-03-15 15:22:22.159
115,-6042.682355,-20912.56033,-7299.677408,-13354.74263,-5489.946066,6420.672705,-7065.766402,9744.488864,0.078,0.944,-0.108,192,0,0,0,0,0,0,0,0,0,1.71E+09,0, 2024-03-15 15:22:22.159
116,-7617.094531,-20621.65238,-7316.10594,-13383.86695,-7070.99671,5627.09637,-8451.239282,5441.867464,0.078,0.942,-0.11,192,2,112,29,112,252,144,0,0,0,1.71E+09,0, 2024-03-15 15:22:22.159
117,-8533.404295,-20595.03145,-7228.934137,-13304.4512,-6942.831807,5545.758372,-8408.346284,3251.351804,0.078,0.942,-0.11,192,0,0,0,0,0,0,0,0,0,1.71E+09,0, 2024-03-15 15:22:22.159
118,-7494.182288,-20875.21057,-7186.555229,-13257.31137,-5314.283706,6284.863506,-7003.33798,6363.899274,0.078,0.942,-0.11,192,0,0,0,0,0,0,0,0,0,1.71E+09,0, 2024-03-15 15:22:22.159
119,-6067.649253,-21057.77962,-7237.248985,-13300.31613,-4518.047514,6767.303558,-6248.720735,10206.09709,0.078,0.942,-0.11,192,0,0,0,0,0,0,0,0,0,1.71E+09,0, 2024-03-15 15:22:22.159
120,-6046.660965,-20921.72455,-7308.998085,-13366.74552,-5480.826554,6427.713505,-7048.108524,9790.846382,0.078,0.942,-0.11,192,0,0,0,0,0,0,0,0,0,1.71E+09,0, 2024-03-15 15:22:22.159
121,-7609.204365,-20624.26753,-7330.388705,-13402.4189,-7076.852867,5628.236309,-8454.92732,5495.981037,0.078,0.942,-0.11,192,0,0,0,0,0,0,0,0,0,1.71E+09,0, 2024-03-15 15:22:22.159
122,-8532.599632,-20586.04605,-7239.282994,-13327.20528,-6972.112593,5532.414381,-8433.737866,3240.958243,0.078,0.942,-0.11,192,0,0,0,0,0,0,0,0,0,1.71E+09,0, 2024-03-15 15:22:22.159
123,-7506.654561,-20852.90353,-7188.857459,-13274.3434,-5349.487704,6272.882971,-7034.697477,6303.951896,0.078,0.942,-0.11,192,0,0,0,0,0,0,0,0,0,1.71E+09,0, 2024-03-15 15:22:22.159
124,-6068.25275,-21038.62417,-7245.452076,-13317.30346,-4536.599462,6762.07325,-6276.638064,10166.5345,0.078,0.942,-0.11,192,0,0,0,0,0,0,0,0,0,1.71E+09,0, 2024-03-15 15:22:22.159
125,-6013.870956,-20904.44665,-7316.664733,-13383.66579,-5475.596246,6435.067229,-7060.35728,9810.560621,0.078,0.942,-0.11,192,0,0,0,0,0,0,0,0,0,1.71E+09,0, 2024-03-15 15:22:22.159
126,-7572.167524,-20604.44154,-7334.009687,-13419.11565,-7071.801373,5638.205187,-8465.656157,5536.348288,0.074,0.954,-0.114,192,2,80,29,208,252,112,0,0,0,1.71E+09,0, 2024-03-15 15:22:22.159
127,-8539.260452,-20565.72831,-7246.726125,-13348.81942,-6999.62759,5529.46395,-8470.662948,3230.363516,0.074,0.954,-0.114,192,0,0,0,0,0,0,0,0,0,1.71E+09,0, 2024-03-15 15:22:22.159
128,-7529.788617,-20830.86471,-7188.7457,-13289.85551,-5373.538181,6269.261988,-7071.421393,6230.302898,0.074,0.954,-0.114,192,0,0,0,0,0,0,0,0,0,1.71E+09,0, 2024-03-15 15:22:22.159
129,-6068.476268,-21018.61936,-7233.33743,-13323.96428,-4520.841482,6779.529962,-6273.866448,10119.93112,0.074,0.954,-0.114,192,0,0,0,0,0,0,0,0,0,1.71E+09,0, 2024-03-15 15:22:22.159
130,-5997.464776,-20893.06961,-7305.041826,-13389.52194,-5446.650737,6463.431592,-7036.083285,9831.727723,0.074,0.954,-0.114,192,0,0,0,0,0,0,0,0,0,1.71E+09,0, 2024-03-15 15:22:22.159
131,-7553.570873,-20596.79724,-7324.845472,-13425.62001,-7051.014251,5668.380042,-8440.622203,5584.113966,0.074,0.954,-0.114,192,0,0,0,0,0,0,0,0,0,1.71E+09,0, 2024-03-15 15:22:22.159
132,-8532.934908,-20556.38529,-7236.332564,-13352.79803,-6997.459471,5550.273424,-8464.180942,3225.692001,0.074,0.954,-0.114,192,0,0,0,0,0,0,0,0,0,1.71E+09,0, 2024-03-15 15:22:22.159
133,-7536.047105,-20826.37201,-7181.861363,-13294.19175,-5371.280655,6288.708006,-7068.158039,6191.63438,0.074,0.954,-0.114,192,0,0,0,0,0,0,0,0,0,1.71E+09,0, 2024-03-15 15:22:22.159
134,-6086.648236,-21020.04987,-7231.0352,-13332.65911,-4514.962973,6794.61739,-6266.445669,10083.9001,0.074,0.954,-0.114,192,0,0,0,0,0,0,0,0,0,1.71E+09,0, 2024-03-15 15:22:22.159
135,-6018.296602,-20902.27853,-7309.087492,-13405.45874,-5431.004516,6476.708529,-7022.895756,9814.159252,0.074,0.954,-0.114,192,0,0,0,0,0,0,0,0,0,1.71E+09,0, 2024-03-15 15:22:22.159
136,-7570.737013,-20603.50276,-7328.064123,-13440.57333,-7039.123123,5684.786223,-8436.040096,5581.789384,0.07,0.946,-0.112,192,2,48,29,144,252,128,0,0,0,1.71E+09,0, 2024-03-15 15:22:22.159
137,-8556.40424,-20558.66516,-7236.064343,-13363.9292,-6995.336055,5561.315186,-8466.214951,3210.917498,0.07,0.946,-0.112,192,0,0,0,0,0,0,0,0,0,1.71E+09,0, 2024-03-15 15:22:22.159
138,-7578.023681,-20824.09213,-7176.943979,-13304.56296,-5375.19221,6293.021893,-7069.387385,6143.108743,0.07,0.946,-0.112,192,0,0,0,0,0,0,0,0,0,1.71E+09,0, 2024-03-15 15:22:22.159
139,-6125.428513,-21019.82635,-7226.475445,-13344.93021,-4503.183604,6806.821442,-6252.386421,10053.7476,0.07,0.946,-0.112,192,0,0,0,0,0,0,0,0,0,1.71E+09,0, 2024-03-15 15:22:22.159
140,-6033.071105,-20896.84706,-7298.626876,-13409.99614,-5406.417597,6500.468433,-6998.197078,9807.140804,0.07,0.946,-0.112,192,0,0,0,0,0,0,0,0,0,1.71E+09,0, 2024-03-15 15:22:22.159
141,-7574.000367,-20605.82734,-7324.107864,-13446.13891,-7018.984201,5704.61222,-8411.587287,5596.519184,0.07,0.946,-0.112,192,0,0,0,0,0,0,0,0,0,1.71E+09,0, 2024-03-15 15:22:22.159
142,-8592.144679,-20560.05097,-7236.645488,-13369.94182,-7008.188308,5570.010015,-8469.143029,3186.531745,0.07,0.946,-0.112,192,0,0,0,0,0,0,0,0,0,1.71E+09,0, 2024-03-15 15:22:22.159
143,-7625.454083,-20824.49446,-7177.525124,-13303.57949,-5390.726672,6300.465024,-7078.439841,6092.347931,0.07,0.946,-0.112,192,0,0,0,0,0,0,0,0,0,1.71E+09,0, 2024-03-15 15:22:22.159
144,-6154.128153,-21025.10137,-7225.067285,-13341.21982,-4502.580107,6818.623164,-6243.378668,10019.81765,0.07,0.946,-0.112,192,0,0,0,0,0,0,0,0,0,1.71E+09,0, 2024-03-15 15:22:22.159
145,-6038.614337,-20909.49814,-7301.778472,-13408.94561,-5398.773301,6515.622916,-6987.222372,9820.864775,0.07,0.946,-0.112,192,0,0,0,0,0,0,0,0,0,1.71E+09,0, 2024-03-15 15:22:22.159
146,-7572.703966,-20618.14316,-7330.500463,-13451.34687,-7025.041524,5709.082569,-8415.856471,5621.061399,0.07,0.946,-0.112,192,0,0,0,0,0,0,0,0,0,1.71E+09,0, 2024-03-15 15:22:22.159
147,-8587.271999,-20567.31529,-7237.69602,-13374.54627,-7017.576041,5562.276311,-8472.004053,3176.98755,0.066,0.95,-0.108,192,2,16,29,176,252,160,0,0,0,1.71E+09,0, 2024-03-15 15:22:22.159
148,-7621.922508,-20830.84236,-7176.876924,-13311.46965,-5399.086225,6289.624428,-7080.160925,6057.09923,0.066,0.95,-0.108,192,0,0,0,0,0,0,0,0,0,1.71E+09,0, 2024-03-15 15:22:22.159
149,-6164.186438,-21032.56685,-7228.576509,-13349.15469,-4513.063075,6808.721341,-6249.815971,9977.930484,0.066,0.95,-0.108,192,0,0,0,0,0,0,0,0,0,1.71E+09,0, 2024-03-15 15:22:22.159
150,-6049.007898,-20912.56033,-7302.65019,-13413.3489,-5398.974466,6512.314858,-6983.7355,9804.39154,0.066,0.95,-0.108,192,0,0,0,0,0,0,0,0,0,1.71E+09,0, 2024-03-15 15:22:22.159
151,-7555.604882,-20606.14027,-7316.977658,-13444.59664,-7009.149433,5722.42656,-8399.584401,5618.803873,0.066,0.95,-0.108,192,0,0,0,0,0,0,0,0,0,1.71E+09,0, 2024-03-15 15:22:22.159
152,-8563.042708,-20557.8605,-7230.722276,-13371.95347,-7016.212585,5569.585332,-8478.396652,3171.936056,0.066,0.95,-0.108,192,0,0,0,0,0,0,0,0,0,1.71E+09,0, 2024-03-15 15:22:22.159
153,-7622.816577,-20821.70049,-7174.485287,-13312.67665,-5414.39717,6286.96457,-7098.444652,6020.755293,0.066,0.95,-0.108,192,0,0,0,0,0,0,0,0,0,1.71E+09,0, 2024-03-15 15:22:22.159
154,-6169.684967,-21020.76513,-7220.440474,-13348.19357,-4515.521767,6814.063408,-6260.008366,9939.910166,0.066,0.95,-0.108,192,0,0,0,0,0,0,0,0,0,1.71E+09,0, 2024-03-15 15:22:22.159
155,-6027.170244,-20906.50301,-7289.887344,-13409.14677,-5378.477917,6532.543186,-6969.229218,9815.723874,0.066,0.95,-0.108,192,0,0,0,0,0,0,0,0,0,1.71E+09,0, 2024-03-15 15:22:22.159
156,-7533.141379,-20613.80692,-7315.748312,-13449.06699,-6999.851108,5733.937709,-8392.007159,5654.745478,0.066,0.95,-0.108,192,0,0,0,0,0,0,0,0,0,1.71E+09,0, 2024-03-15 15:22:22.159
157,-8580.588827,-20558.03931,-7227.794198,-13374.94861,-7035.88212,5572.021672,-8495.853364,3142.722326,0.068,0.946,-0.11,192,2,32,29,144,252,144,0,0,0,1.71E+09,0, 2024-03-15 15:22:22.159
158,-7652.410287,-20823.48863,-7171.803078,-13311.89433,-5438.469999,6292.552506,-7122.562185,5959.444458,0.068,0.946,-0.11,192,0,0,0,0,0,0,0,0,0,1.71E+09,0, 2024-03-15 15:22:22.159
159,-6175.250551,-21032.29863,-7218.004133,-13344.39377,-4514.426531,6826.490978,-6262.668224,9917.40196,0.068,0.946,-0.11,192,0,0,0,0,0,0,0,0,0,1.71E+09,0, 2024-03-15 15:22:22.159
160,-6015.703799,-20926.32901,-7294.58121,-13413.08068,-5365.402146,6543.316727,-6960.780258,9841.137808,0.068,0.946,-0.11,192,0,0,0,0,0,0,0,0,0,1.71E+09,0, 2024-03-15 15:22:22.159
161,-7516.645791,-20626.07802,-7314.250745,-13447.01063,-6985.523639,5750.61211,-8381.166563,5689.681255,0.068,0.946,-0.11,192,0,0,0,0,0,0,0,0,0,1.71E+09,0, 2024-03-15 15:22:22.159
162,-8575.514981,-20566.10829,-7225.067285,-13370.83588,-7043.302899,5578.302512,-8498.177945,3131.568805,0.068,0.946,-0.11,192,0,0,0,0,0,0,0,0,0,1.71E+09,0, 2024-03-15 15:22:22.159
163,-7655.561883,-20831.13293,-7168.495019,-13308.92155,-5444.795542,6291.70314,-7123.255089,5895.607876,0.068,0.946,-0.11,192,0,0,0,0,0,0,0,0,0,1.71E+09,0, 2024-03-15 15:22:22.159
164,-6183.520697,-21038.51241,-7215.612497,-13344.68434,-4506.491662,6832.883576,-6251.134724,9873.614892,0.068,0.946,-0.11,192,0,0,0,0,0,0,0,0,0,1.71E+09,0, 2024-03-15 15:22:22.159
165,-6016.977849,-20926.37371,-7284.433518,-13403.04475,-5342.245739,6567.277797,-6937.802665,9850.100857,0.068,0.946,-0.11,192,0,0,0,0,0,0,0,0,0,1.71E+09,0, 2024-03-15 15:22:22.159
166,-7500.194907,-20625.7651,-7303.521908,-13438.3158,-6960.109706,5779.155288,-8351.326984,5738.341002,0.068,0.946,-0.11,192,0,0,0,0,0,0,0,0,0,1.71E+09,0, 2024-03-15 15:22:22.159
167,-8582.153449,-20563.20257,-7218.406465,-13369.98652,-7042.587643,5590.528916,-8490.131317,3139.302509,0.07,0.946,-0.116,192,2,48,29,144,252,96,0,0,0,1.71E+09,0, 2024-03-15 15:22:22.159
168,-7689.849459,-20821.36522,-7159.53197,-13301.97016,-5453.333909,6300.979114,-7132.665173,5847.976309,0.07,0.946,-0.116,192,0,0,0,0,0,0,0,0,0,1.71E+09,0, 2024-03-15 15:22:22.159
169,-6204.911316,-21027.78358,-7204.168404,-13332.45794,-4493.415891,6854.45301,-6241.724639,9844.512921,0.07,0.946,-0.116,192,0,0,0,0,0,0,0,0,0,1.71E+09,0, 2024-03-15 15:22:22.159
170,-6006.338418,-20925.30083,-7277.817402,-13398.23912,-5306.013561,6590.657722,-6902.576316,9879.649863,0.07,0.946,-0.116,192,0,0,0,0,0,0,0,0,0,1.71E+09,0, 2024-03-15 15:22:22.159
171,-7485.845087,-20632.64944,-7307.52287,-13444.1049,-6936.640374,5792.208706,-8329.377571,5787.179564,0.07,0.946,-0.116,192,0,0,0,0,0,0,0,0,0,1.71E+09,0, 2024-03-15 15:22:22.159
172,-8597.307932,-20561.52619,-7225.357857,-13372.86989,-7059.262044,5592.160594,-8500.614286,3119.945898,0.07,0.946,-0.116,192,0,0,0,0,0,0,0,0,0,1.71E+09,0, 2024-03-15 15:22:22.159
173,-7720.538404,-20822.79573,-7171.154877,-13310.39677,-5482.43588,6295.212364,-7150.077182,5784.653817,0.07,0.946,-0.116,192,0,0,0,0,0,0,0,0,0,1.71E+09,0, 2024-03-15 15:22:22.159
174,-6222.300973,-21034.91378,-7216.014828,-13346.33837,-4507.072807,6855.794115,-6248.318404,9807.744301,0.07,0.946,-0.116,192,0,0,0,0,0,0,0,0,0,1.71E+09,0, 2024-03-15 15:22:22.159
175,-5998.582363,-20932.87807,-7290.915524,-13412.56659,-5303.778387,6608.203841,-6900.31879,9898.470032,0.07,0.946,-0.116,192,0,0,0,0,0,0,0,0,0,1.71E+09,0, 2024-03-15 15:22:22.159
176,-7466.041442,-20632.8506,-7319.123425,-13453.93967,-6938.987307,5811.118282,-8335.546653,5827.323297,0.07,0.946,-0.116,192,0,0,0,0,0,0,0,0,0,1.71E+09,0, 2024-03-15 15:22:22.159
177,-8590.177726,-20550.03739,-7231.973974,-13378.48018,-7078.462193,5599.179041,-8528.464559,3102.511537,0.068,0.948,-0.116,192,2,32,29,160,252,96,0,0,0,1.71E+09,0, 2024-03-15 15:22:22.159
178,-7722.214785,-20806.03192,-7171.467802,-13309.99444,-5502.150119,6299.235678,-7177.905104,5716.771569,0.068,0.948,-0.116,192,0,0,0,0,0,0,0,0,0,1.71E+09,0, 2024-03-15 15:22:22.159
179,-6219.81993,-21020.29574,-7213.332619,-13337.53179,-4506.782235,6866.701766,-6257.147343,9758.682222,0.068,0.948,-0.116,192,0,0,0,0,0,0,0,0,0,1.71E+09,0, 2024-03-15 15:22:22.159
180,-5990.848659,-20922.73038,-7286.467527,-13399.51317,-5293.340122,6623.917118,-6898.597705,9892.345654,0.068,0.948,-0.116,192,0,0,0,0,0,0,0,0,0,1.71E+09,0, 2024-03-15 15:22:22.159
181,-7447.757715,-20625.87686,-7314.518966,-13443.38965,-6925.978592,5831.793646,-8325.734237,5840.68964,0.068,0.948,-0.116,192,0,0,0,0,0,0,0,0,0,1.71E+09,0, 2024-03-15 15:22:22.159
182,-8581.706414,-20547.51164,-7232.108084,-13378.659,-7081.12205,5613.215937,-8529.470388,3093.503784,0.068,0.948,-0.116,192,0,0,0,0,0,0,0,0,0,1.71E+09,0, 2024-03-15 15:22:22.159
183,-7730.172006,-20799.61697,-7168.517371,-13309.16742,-5509.235622,6311.707951,-7181.481383,5680.695853,0.068,0.948,-0.116,192,0,0,0,0,0,0,0,0,0,1.71E+09,0, 2024-03-15 15:22:22.159
184,-6233.365087,-21013.63492,-7208.86227,-13335.02839,-4504.815281,6883.242057,-6247.334927,9733.938841,0.068,0.948,-0.116,192,0,0,0,0,0,0,0,0,0,1.71E+09,0, 2024-03-15 15:22:22.159
185,-5985.014854,-20915.9578,-7281.371329,-13391.19832,-5274.810526,6652.460295,-6876.983568,9904.952038,0.068,0.948,-0.116,192,0,0,0,0,0,0,0,0,0,1.71E+09,0, 2024-03-15 15:22:22.159
186,-7433.586709,-20625.65334,-7314.876594,-13434.44895,-6916.501453,5853.430134,-8310.088016,5872.160896,0.068,0.948,-0.116,192,0,0,0,0,0,0,0,0,0,1.71E+09,0, 2024-03-15 15:22:22.159
187,-8585.282694,-20546.19289,-7233.024506,-13367.37136,-7092.409681,5625.665858,-8528.017524,3096.029531,0.066,0.946,-0.116,192,2,16,29,144,252,96,0,0,0,1.71E+09,0, 2024-03-15 15:22:22.159
188,-7745.237082,-20804.71317,-7173.725328,-13305.52409,-5526.558224,6318.23466,-7187.784575,5667.128344,0.066,0.946,-0.116,192,0,0,0,0,0,0,0,0,0,1.71E+09,0, 2024-03-15 15:22:22.159
189,-6249.234825,-21028.83411,-7222.094503,-13341.37629,-4517.444017,6885.521935,-6256.34268,9736.442236,0.066,0.946,-0.116,192,0,0,0,0,0,0,0,0,0,1.71E+09,0, 2024-03-15 15:22:22.159
190,-5985.148965,-20931.73813,-7293.55303,-13401.63659,-5278.051529,6657.556493,-6877.184734,9946.950966,0.066,0.946,-0.116,192,0,0,0,0,0,0,0,0,0,1.71E+09,0, 2024-03-15 15:22:22.159
191,-7418.298116,-20627.79911,-7316.24005,-13437.22057,-6912.254621,5869.590446,-8306.265868,5938.32206,0.066,0.946,-0.116,192,0,0,0,0,0,0,0,0,0,1.71E+09,0, 2024-03-15 15:22:22.159
192,-8578.867743,-20540.62731,-7225.849596,-13362.56574,-7093.169641,5638.205187,-8528.285745,3126.11498,0.066,0.946,-0.116,192,0,0,0,0,0,0,0,0,0,1.71E+09,0, 2024-03-15 15:22:22.159
193,-7758.2905,-20805.7637,-7170.350214,-13300.76317,-5532.570843,6320.782759,-7194.043063,5657.382984,0.066,0.946,-0.116,192,0,0,0,0,0,0,0,0,0,1.71E+09,0, 2024-03-15 15:22:22.159
194,-6258.890779,-21028.34237,-7207.901145,-13330.51334,-4501.21665,6899.380016,-6240.629404,9739.30326,0.066,0.946,-0.116,192,0,0,0,0,0,0,0,0,0,1.71E+09,0, 2024-03-15 15:22:22.160
195,-5988.658188,-20937.21431,-7278.219733,-13393.85818,-5243.47338,6677.784822,-6835.856359,9997.86824,0.066,0.946,-0.116,192,0,0,0,0,0,0,0,0,0,1.71E+09,0, 2024-03-15 15:22:22.639
196,-7412.218441,-20643.93707,-7308.774568,-13437.10881,-6881.006882,5884.454356,-8267.530294,5998.023569,0.066,0.946,-0.116,192,0,0,0,0,0,0,0,0,0,1.71E+09,0, 2024-03-15 15:22:22.639
197,-8585.796784,-20555.53592,-7229.247061,-13373.47339,-7093.706083,5637.199359,-8520.484986,3134.742753,0.07,0.946,-0.112,192,2,48,29,144,252,128,0,0,0,1.71E+09,0, 2024-03-15 15:22:22.639
198,-7773.981425,-20803.37206,-7168.338557,-13308.42981,-5540.796285,6323.710838,-7196.010017,5615.853443,0.07,0.946,-0.112,192,0,0,0,0,0,0,0,0,0,1.71E+09,0, 2024-03-15 15:22:22.639
199,-6273.330006,-21013.79138,-7206.872965,-13334.62606,-4508.279801,6909.773577,-6244.563311,9692.78928,0.07,0.946,-0.112,192,0,0,0,0,0,0,0,0,0,1.71E+09,0, 2024-03-15 15:22:22.639
200,-5980.99154,-20914.68375,-7276.610407,-13390.90775,-5239.740639,6696.537935,-6839.387934,9977.550504,0.07,0.946,-0.112,192,0,0,0,0,0,0,0,0,0,1.71E+09,0, 2024-03-15 15:22:22.639
201,-7389.307903,-20621.74179,-7311.099149,-13437.0194,-6884.113775,5904.727388,-8277.633283,6001.957476,0.07,0.946,-0.112,192,0,0,0,0,0,0,0,0,0,1.71E+09,0, 2024-03-15 15:22:22.639
202,-8575.470278,-20534.88291,-7233.628003,-13374.50157,-7120.662286,5645.849484,-8556.851275,3114.33561,0.07,0.946,-0.112,192,0,0,0,0,0,0,0,0,0,1.71E+09,0, 2024-03-15 15:22:22.639
203,-7777.691815,-20779.5451,-7167.131563,-13301.09844,-5571.932265,6326.996544,-7242.881625,5560.175247,0.07,0.946,-0.112,192,0,0,0,0,0,0,0,0,0,1.71E+09,0, 2024-03-15 15:22:22.639
204,-6262.310596,-20997.72048,-7204.213107,-13325.73006,-4518.651011,6916.166176,-6273.017081,9655.148942,0.07,0.946,-0.112,192,0,0,0,0,0,0,0,0,0,1.71E+09,0, 2024-03-15 15:22:22.639
205,-5948.82738,-20914.19201,-7280.857239,-13394.21581,-5234.622089,6706.998552,-6850.899083,9990.402757,0.07,0.946,-0.112,192,0,0,0,0,0,0,0,0,0,1.71E+09,0, 2024-03-15 15:22:22.639
206,-7354.707403,-20623.66404,-7316.48592,-13438.8746,-6881.096289,5912.05876,-8291.670178,6037.295584,0.07,0.946,-0.112,192,0,0,0,0,0,0,0,0,0,1.71E+09,0, 2024-03-15 15:22:22.639
207,-8564.249702,-20535.10642,-7240.355878,-13377.07202,-7132.799284,5643.681364,-8575.894961,3111.027552,0.076,0.952,-0.116,192,2,96,29,192,252,96,0,0,0,1.71E+09,0, 2024-03-15 15:22:22.639
208,-7791.952228,-20785.46831,-7178.821525,-13310.1062,-5594.909858,6315.731265,-7264.205189,5510.397912,0.076,0.952,-0.116,192,0,0,0,0,0,0,0,0,0,1.71E+09,0, 2024-03-15 15:22:22.639
209,-6277.241561,-21011.4221,-7216.685381,-13334.13432,-4525.803569,6911.248793,-6278.537962,9628.103331,0.076,0.952,-0.116,192,0,0,0,0,0,0,0,0,0,1.71E+09,0, 2024-03-15 15:22:22.639
210,-5964.048918,-20936.65551,-7294.424748,-13403.29062,-5237.080781,6706.573869,-6845.266443,10007.18892,0.076,0.952,-0.116,192,0,0,0,0,0,0,0,0,0,1.71E+09,0, 2024-03-15 15:22:22.639
211,-7364.765688,-20639.64553,-7325.270155,-13445.28955,-6878.436432,5920.172443,-8278.661463,6067.179867,0.076,0.952,-0.116,192,0,0,0,0,0,0,0,0,0,1.71E+09,0, 2024-03-15 15:22:22.639
212,-8582.131098,-20541.00729,-7241.495817,-13374.65803,-7141.292946,5650.02926,-8575.269112,3102.198613,0.076,0.952,-0.116,192,0,0,0,0,0,0,0,0,0,1.71E+09,0, 2024-03-15 15:22:22.639
213,-7819.53428,-20795.54895,-7183.87302,-13307.71456,-5608.611477,6317.698219,-7271.067175,5479.150174,0.076,0.952,-0.116,192,0,0,0,0,0,0,0,0,0,1.71E+09,0, 2024-03-15 15:22:22.639
214,-6312.378503,-21029.37055,-7230.945794,-13338.15763,-4537.828808,6911.919345,-6290.540849,9614.066436,0.076,0.952,-0.116,192,0,0,0,0,0,0,0,0,0,1.71E+09,0, 2024-03-15 15:22:22.639
215,-5979.44927,-20948.30077,-7300.951457,-13398.28383,-5226.642516,6719.180252,-6837.398629,10036.78263,0.076,0.952,-0.116,192,0,0,0,0,0,0,0,0,0,1.71E+09,0, 2024-03-15 15:22:22.639
216,-7359.624786,-20645.25582,-7325.426617,-13435.14185,-6860.331519,5937.673859,-8259.997756,6114.610268,0.076,0.952,-0.116,192,0,0,0,0,0,0,0,0,0,1.71E+09,0, 2024-03-15 15:22:22.639
217,-8589.574228,-20539.48737,-7236.980765,-13365.13619,-7138.454275,5661.205132,-8563.512094,3100.298715,0.07,0.948,-0.116,192,2,48,29,160,252,96,0,0,0,1.71E+09,0, 2024-03-15 15:22:22.639
218,-7845.216435,-20800.82396,-7182.330749,-13303.22186,-5612.411274,6321.05098,-7258.32668,5451.031679,0.07,0.948,-0.116,192,0,0,0,0,0,0,0,0,0,1.71E+09,0, 2024-03-15 15:22:22.639
219,-6333.679716,-21038.87004,-7224.307325,-13335.36367,-4523.099008,6921.999982,-6255.783886,9620.52609,0.07,0.948,-0.116,192,0,0,0,0,0,0,0,0,0,1.71E+09,0, 2024-03-15 15:22:22.639
220,-5983.517287,-20959.70016,-7294.402396,-13395.82514,-5194.612467,6740.213244,-6793.410396,10093.24313,0.07,0.948,-0.116,192,0,0,0,0,0,0,0,0,0,1.71E+09,0, 2024-03-15 15:22:22.639
221,-7355.400307,-20668.6581,-7329.628745,-13446.67535,-6841.243129,5952.269548,-8230.202881,6199.70336,0.07,0.948,-0.116,192,0,0,0,0,0,0,0,0,0,1.71E+09,0, 2024-03-15 15:22:22.639
222,-8612.328304,-20559.29101,-7246.994346,-13384.35869,-7151.507694,5656.623025,-8568.764754,3143.03525,0.07,0.948,-0.116,192,0,0,0,0,0,0,0,0,0,1.71E+09,0, 2024-03-15 15:22:22.639
223,-7877.358243,-20807.59654,-7183.202467,-13314.28597,-5624.347106,6313.205518,-7270.843657,5433.574967,0.07,0.948,-0.116,192,0,0,0,0,0,0,0,0,0,1.71E+09,0, 2024-03-15 15:22:22.639
224,-6351.315242,-21046.93902,-7226.520148,-13348.19357,-4523.367229,6915.629734,-6253.39225,9595.246267,0.07,0.948,-0.116,192,0,0,0,0,0,0,0,0,0,1.71E+09,0, 2024-03-15 15:22:22.639
225,-5986.288904,-20975.39109,-7300.72794,-13415.53937,-5184.397719,6733.194796,-6780.558143,10099.03224,0.07,0.948,-0.116,192,0,0,0,0,0,0,0,0,0,1.71E+09,0, 2024-03-15 15:22:22.639
226,-7345.029097,-20678.91755,-7334.747295,-13461.36045,-6826.580385,5951.308423,-8214.69077,6220.781055,0.07,0.948,-0.116,192,0,0,0,0,0,0,0,0,0,1.71E+09,0, 2024-03-15 15:22:22.639
227,-8603.544069,-20573.8867,-7260.181875,-13403.0224,-7155.285139,5646.229463,-8559.73465,3142.699974,0.074,0.948,-0.12,192,2,80,29,160,252,64,0,0,0,1.71E+09,0, 2024-03-15 15:22:22.639
228,-7884.890781,-20807.35067,-7188.633941,-13327.92054,-5647.503513,6297.067558,-7279.516134,5373.046443,0.074,0.948,-0.12,192,0,0,0,0,0,0,0,0,0,1.71E+09,0, 2024-03-15 15:22:22.639
229,-6350.309414,-21034.5338,-7224.217918,-13348.81942,-4536.19713,6914.914479,-6268.39027,9538.472836,0.074,0.948,-0.12,192,0,0,0,0,0,0,0,0,0,1.71E+09,0, 2024-03-15 15:22:22.639
230,-5970.955607,-20957.71086,-7298.828041,-13409.63851,-5189.248048,6744.840055,-6794.282114,10087.25287,0.074,0.948,-0.12,192,0,0,0,0,0,0,0,0,0,1.71E+09,0, 2024-03-15 15:22:22.639
231,-7317.603507,-20660.14208,-7331.729809,-13450.72102,-6826.938012,5965.74765,-8218.647029,6232.403962,0.074,0.948,-0.12,192,0,0,0,0,0,0,0,0,0,1.71E+09,0, 2024-03-15 15:22:22.639
232,-8579.962978,-20542.46015,-7252.381116,-13384.26928,-7169.545551,5664.692004,-8586.690853,3112.525119,0.074,0.948,-0.12,192,0,0,0,0,0,0,0,0,0,1.71E+09,0, 2024-03-15 15:22:22.639
233,-7870.339795,-20780.57328,-7184.454165,-13309.05566,-5663.127382,6318.815806,-7305.645323,5330.019335,0.074,0.948,-0.12,192,0,0,0,0,0,0,0,0,0,1.71E+09,0, 2024-03-15 15:22:22.639
234,-6342.598062,-21018.66406,-7227.593032,-13339.23052,-4540.80159,6935.209863,-6278.873238,9526.022914,0.074,0.948,-0.12,192,0,0,0,0,0,0,0,0,0,1.71E+09,0, 2024-03-15 15:22:22.639
235,-5948.916787,-20938.93539,-7299.409187,-13398.08266,-5178.921542,6777.004215,-6787.911867,10122.76979,0.074,0.948,-0.12,192,0,0,0,0,0,0,0,0,0,1.71E+09,0, 2024-03-15 15:22:22.639
236,-7276.76687,-20641.70189,-7329.42758,-13435.23126,-6816.477396,6007.523061,-8217.931773,6288.685654,0.074,0.948,-0.12,192,0,0,0,0,0,0,0,0,0,1.71E+09,0, 2024-03-15 15:22:22.639
237,-8568.921217,-20540.96258,-7264.942797,-13387.39853,-7188.119851,5682.975731,-8603.43231,3137.849645,0.074,0.954,-0.12,192,2,80,29,208,252,64,0,0,0,1.71E+09,0, 2024-03-15 15:22:22.639
238,-7894.859659,-20778.18165,-7198.200488,-13316.11881,-5695.045673,6323.308506,-7336.982469,5289.696788,0.074,0.954,-0.12,192,0,0,0,0,0,0,0,0,0,1.71E+09,0, 2024-03-15 15:22:22.639
239,-6355.986757,-21011.80208,-7226.408389,-13332.39088,-4544.467276,6955.41584,-6282.650683,9488.382577,0.074,0.954,-0.12,192,0,0,0,0,0,0,0,0,0,1.71E+09,0, 2024-03-15 15:22:22.639
240,-5939.059667,-20947.20554,-7299.588001,-13391.86888,-5156.592149,6807.670809,-6762.006195,10165.37221,0.074,0.954,-0.12,192,0,0,0,0,0,0,0,0,0,1.71E+09,0, 2024-03-15 15:22:22.639
241,-7260.986538,-20648.38507,-7330.053428,-13430.91737,-6795.51146,6036.960308,-8194.95418,6370.694205,0.074,0.954,-0.12,192,0,0,0,0,0,0,0,0,0,1.71E+09,0, 2024-03-15 15:22:22.639
242,-8566.66369,-20531.28428,-7257.16439,-13374.74744,-7190.198563,5702.377045,-8605.421615,3156.625111,0.074,0.954,-0.12,192,0,0,0,0,0,0,0,0,0,1.71E+09,0, 2024-03-15 15:22:22.639
243,-7905.789662,-20763.22833,-7187.136374,-13298.81856,-5711.205984,6336.138408,-7354.483885,5245.194464,0.074,0.954,-0.12,192,0,0,0,0,0,0,0,0,0,1.71E+09,0, 2024-03-15 15:22:22.639
244,-6365.218027,-21011.66797,-7225.246099,-13325.93123,-4547.417706,6965.384718,-6291.010236,9472.0211,0.074,0.954,-0.12,192,0,0,0,0,0,0,0,0,0,1.71E+09,0, 2024-03-15 15:22:22.639
245,-5937.785618,-20954.76043,-7303.253687,-13396.92037,-5152.36767,6814.510443,-6765.850695,10190.18265,0.074,0.954,-0.12,192,0,0,0,0,0,0,0,0,0,1.71E+09,0, 2024-03-15 15:22:22.639
246,-7250.212997,-20663.45014,-7332.914452,-13443.07672,-6790.281152,6041.631823,-8186.438165,6424.83013,0.074,0.954,-0.12,192,0,0,0,0,0,0,0,0,0,1.71E+09,0, 2024-03-15 15:22:22.639
247,-8559.645243,-20542.05782,-7252.068192,-13380.40243,-7192.657255,5703.896964,-8599.07372,3174.484155,0.074,0.948,-0.126,192,2,80,29,160,252,16,0,0,0,1.71E+09,0, 2024-03-15 15:22:22.639
248,-7913.903345,-20775.6112,-7178.687415,-13304.18298,-5713.508214,6334.663193,-7342.570405,5229.436485,0.074,0.948,-0.126,192,0,0,0,0,0,0,0,0,0,1.71E+09,0, 2024-03-15 15:22:22.639
249,-6373.734042,-21019.96047,-7211.924459,-13323.71841,-4534.252528,6973.386642,-6261.952968,9455.614919,0.074,0.948,-0.126,192,0,0,0,0,0,0,0,0,0,1.71E+09,0, 2024-03-15 15:22:22.639
250,-5927.213243,-20967.07624,-7289.999102,-13390.90775,-5115.777864,6830.983678,-6724.209395,10225.58781,0.074,0.948,-0.126,192,0,0,0,0,0,0,0,0,0,1.71E+09,0, 2024-03-15 15:22:22.639
251,-7226.609555,-20671.80969,-7322.520891,-13435.20891,-6755.077154,6059.356756,-8157.179732,6470.517095,0.074,0.948,-0.126,192,0,0,0,0,0,0,0,0,0,1.71E+09,0, 2024-03-15 15:22:22.640
252,-8561.321623,-20551.35614,-7253.342241,-13384.64926,-7189.662121,5704.634572,-8597.79967,3185.972951,0.074,0.948,-0.126,192,0,0,0,0,0,0,0,0,0,1.71E+09,0, 2024-03-15 15:22:22.640
253,-7930.197767,-20777.73461,-7178.530953,-13309.32388,-5719.565537,6327.845911,-7350.639385,5199.641609,0.074,0.948,-0.126,192,0,0,0,0,0,0,0,0,0,1.71E+09,0, 2024-03-15 15:22:22.640
254,-6387.815641,-21023.98378,-7210.315133,-13333.08379,-4535.16895,6962.635453,-6267.853828,9423.629573,0.074,0.948,-0.126,192,0,0,0,0,0,0,0,0,0,1.71E+09,0, 2024-03-15 15:22:22.640
255,-5923.145225,-20971.99362,-7286.556934,-13400.89898,-5096.734178,6829.419056,-6711.155976,10235.0873,0.074,0.948,-0.126,192,0,0,0,0,0,0,0,0,0,1.71E+09,0, 2024-03-15 15:22:22.640
0,-7210.538651,-20673.26256,-7323.839643,-13445.49071,-6739.14036,6061.033137,-8148.686069,6515.019419,0.074,0.948,-0.126,192,0,0,0,0,0,0,0,0,0,1.71E+09,0, 2024-03-15 15:22:22.640
1,-8553.744382,-20547.04226,-7254.415125,-13389.56665,-7197.127604,5698.040807,-8608.997894,3177.568695,0.08,0.946,-0.126,192,2,128,29,144,252,16,0,0,0,1.71E+09,0, 2024-03-15 15:22:22.640
2,-7938.31145,-20775.0077,-7184.275351,-13317.30346,-5743.81718,6312.602021,-7377.99792,5130.641774,0.08,0.946,-0.126,192,0,0,0,0,0,0,0,0,0,1.71E+09,0, 2024-03-15 15:22:22.640
3,-6402.858365,-21019.28991,-7221.759227,-13342.13625,-4555.441982,6948.062116,-6288.797413,9356.015546,0.08,0.946,-0.126,192,0,0,0,0,0,0,0,0,0,1.71E+09,0, 2024-03-15 15:22:22.640
4,-5927.660278,-20960.54953,-7296.63757,-13406.08459,-5107.664181,6829.262594,-6723.76236,10200.50915,0.08,0.946,-0.126,192,0,0,0,0,0,0,0,0,0,1.71E+09,0, 2024-03-15 15:22:22.640
5,-7193.037235,-20668.41223,-7333.741466,-13448.10587,-6742.090791,6069.079765,-8151.144761,6525.614145,0.08,0.946,-0.126,192,0,0,0,0,0,0,0,0,0,1.71E+09,0, 2024-03-15 15:22:22.640
6,-8541.093295,-20540.13557,-7262.662919,-13394.037,-7217.44534,5695.716226,-8628.913299,3173.098346,0.08,0.946,-0.126,192,0,0,0,0,0,0,0,0,0,1.71E+09,0, 2024-03-15 15:22:22.640
7,-7942.133599,-20764.63649,-7187.650464,-13317.63873,-5765.207799,6308.466948,-7398.852098,5089.179288,0.08,0.946,-0.126,192,0,0,0,0,0,0,0,0,0,1.71E+09,0, 2024-03-15 15:22:22.640
8,-6399.572658,-21009.00811,-7217.110064,-13333.41906,-4553.989119,6959.640319,-6293.044244,9339.095275,0.08,0.946,-0.126,192,0,0,0,0,0,0,0,0,0,1.71E+09,0, 2024-03-15 15:22:22.640
9,-5898.334789,-20960.10249,-7294.514155,-13398.79792,-5082.697282,6852.083725,-6704.293991,10248.07367,0.08,0.946,-0.126,192,0,0,0,0,0,0,0,0,0,1.71E+09,0, 2024-03-15 15:22:22.640
10,-7157.386203,-20673.68724,-7340.335231,-13446.51889,-6720.342543,6094.069015,-8134.000973,6598.503184,0.08,0.946,-0.126,192,0,0,0,0,0,0,0,0,0,1.71E+09,0, 2024-03-15 15:22:22.640
11,-8543.529635,-20538.70506,-7271.603617,-13392.58413,-7226.073113,5713.731732,-8632.64604,3189.683341,0.074,0.948,-0.124,192,2,80,29,160,252,32,0,0,0,1.71E+09,0, 2024-03-15 15:22:22.640
12,-7972.77784,-20764.86001,-7200.033331,-13315.00123,-5786.061977,6318.905213,-7414.76654,5051.181322,0.074,0.948,-0.124,192,0,0,0,0,0,0,0,0,0,1.71E+09,0, 2024-03-15 15:22:22.640
13,-6425.411275,-21018.08292,-7233.940927,-13335.1625,-4561.365194,6974.213657,-6301.873183,9326.824168,0.074,0.948,-0.124,192,0,0,0,0,0,0,0,0,0,1.71E+09,0, 2024-03-15 15:22:22.640
14,-5909.264792,-20967.29976,-7305.645323,-13393.50055,-5075.477669,6874.144897,-6699.086034,10282.96474,0.074,0.948,-0.124,192,0,0,0,0,0,0,0,0,0,1.71E+09,0, 2024-03-15 15:22:22.640
15,-7159.084935,-20681.28683,-7347.733658,-13444.7084,-6717.526223,6109.849347,-8126.870767,6650.515693,0.074,0.948,-0.124,192,0,0,0,0,0,0,0,0,0,1.71E+09,0, 2024-03-15 15:22:22.640
16,-8545.541292,-20540.33673,-7274.241123,-13390.50542,-7233.493892,5718.783226,-8635.819988,3207.497681,0.074,0.948,-0.124,192,0,0,0,0,0,0,0,0,0,1.71E+09,0, 2024-03-15 15:22:22.640
17,-7982.612608,-20763.85418,-7200.480366,-13311.04497,-5799.249506,6316.982963,-7422.701409,5027.667287,0.074,0.948,-0.124,192,0,0,0,0,0,0,0,0,0,1.71E+09,0, 2024-03-15 15:22:22.640
18,-6436.073057,-21015.9148,-7230.431703,-13327.60761,-4565.522619,6977.477011,-6299.615657,9304.137147,0.074,0.948,-0.124,192,0,0,0,0,0,0,0,0,0,1.71E+09,0, 2024-03-15 15:22:22.640
19,-5920.239499,-20970.96544,-7301.778472,-13390.12544,-5072.259017,6879.732833,-6687.776051,10292.48658,0.074,0.948,-0.124,192,0,0,0,0,0,0,0,0,0,1.71E+09,0, 2024-03-15 15:22:22.640
20,-7158.570845,-20681.77857,-7340.134065,-13437.37703,-6707.669104,6125.070885,-8114.264383,6682.63515,0.074,0.948,-0.124,192,0,0,0,0,0,0,0,0,0,1.71E+09,0, 2024-03-15 15:22:22.640
21,-8542.590862,-20548.78569,-7275.582227,-13396.38393,-7232.778637,5728.662697,-8634.814159,3241.69585,0.072,0.946,-0.12,192,2,64,29,144,252,64,0,0,0,1.71E+09,0, 2024-03-15 15:22:22.640
22,-7990.189849,-20761.06021,-7195.697092,-13314.19656,-5806.714989,6322.928527,-7431.597403,5019.710066,0.072,0.946,-0.12,192,0,0,0,0,0,0,0,0,0,1.71E+09,0, 2024-03-15 15:22:22.640
23,-6439.850502,-21014.73016,-7227.101293,-13335.49778,-4565.053232,6983.042596,-6301.470852,9306.86406,0.072,0.946,-0.12,192,0,0,0,0,0,0,0,0,0,1.71E+09,0, 2024-03-15 15:22:22.640
24,-5900.01117,-20968.88673,-7300.526774,-13399.13319,-5059.049137,6893.680321,-6683.819793,10342.10746,0.072,0.946,-0.12,192,0,0,0,0,0,0,0,0,0,1.71E+09,0, 2024-03-15 15:22:22.640
25,-7117.533042,-20674.26839,-7333.585004,-13441.62386,-6686.569057,6144.069868,-8102.999103,6745.220035,0.072,0.946,-0.12,192,0,0,0,0,0,0,0,0,0,1.71E+09,0, 2024-03-15 15:22:22.640
26,-8519.970896,-20532.02188,-7267.177971,-13391.95828,-7233.784465,5740.956156,-8642.145531,3249.876589,0.072,0.946,-0.12,192,0,0,0,0,0,0,0,0,0,1.71E+09,0, 2024-03-15 15:22:22.640
27,-7997.051835,-20747.38094,-7194.37834,-13315.80589,-5829.334954,6325.186053,-7462.442811,4989.043473,0.072,0.946,-0.12,192,0,0,0,0,0,0,0,0,0,1.71E+09,0, 2024-03-15 15:22:22.640
28,-6447.606557,-20998.94983,-7221.200433,-13328.34522,-4572.764584,6994.441985,-6324.336687,9276.041004,0.072,0.946,-0.12,192,0,0,0,0,0,0,0,0,0,1.71E+09,0, 2024-03-15 15:22:22.640
29,-5892.165708,-20964.14816,-7298.001027,-13396.20511,-5042.039459,6908.52188,-6673.202714,10365.97912,0.072,0.946,-0.12,192,0,0,0,0,0,0,0,0,0,1.71E+09,0, 2024-03-15 15:22:22.640
30,-7108.391179,-20675.90006,-7342.145722,-13449.40227,-6678.723595,6151.468295,-8091.644417,6801.501727,0.072,0.946,-0.12,192,0,0,0,0,0,0,0,0,0,1.71E+09,0, 2024-03-15 15:22:22.640
31,-8526.028219,-20526.38924,-7270.910713,-13394.14875,-7245.966166,5744.46538,-8648.53813,3251.217693,0.072,0.946,-0.12,192,0,0,0,0,0,0,0,0,0,1.71E+09,0, 2024-03-15 15:22:22.640
32,-8002.215088,-20742.55296,-7189.013921,-13312.60959,-5832.821826,6331.779818,-7456.117267,4950.084382,0.072,0.948,-0.118,192,2,64,29,160,252,80,0,0,0,1.71E+09,0, 2024-03-15 15:22:22.640
33,-6462.045784,-20998.94983,-7218.764093,-13331.00508,-4573.457488,6998.174727,-6313.965477,9236.031382,0.072,0.948,-0.118,192,0,0,0,0,0,0,0,0,0,1.71E+09,0, 2024-03-15 15:22:22.640
34,-5906.470824,-20970.71957,-7304.70655,-13400.96604,-5051.181322,6914.825072,-6679.908237,10350.71288,0.072,0.948,-0.118,192,0,0,0,0,0,0,0,0,0,1.71E+09,0, 2024-03-15 15:22:22.640
35,-7108.704103,-20685.69013,-7348.225397,-13449.2011,-6685.429118,6162.197132,-8102.306199,6813.124634,0.072,0.948,-0.118,192,0,0,0,0,0,0,0,0,0,1.71E+09,0, 2024-03-15 15:22:22.640
36,-8520.797911,-20531.95483,-7272.989425,-13393.16528,-7257.142038,5748.779267,-8655.400116,3247.686118,0.072,0.948,-0.118,192,0,0,0,0,0,0,0,0,0,1.71E+09,0, 2024-03-15 15:22:22.640
37,-8012.854518,-20749.05732,-7200.078034,-13315.02358,-5857.922835,6328.404704,-7475.138602,4909.873594,0.072,0.948,-0.118,192,0,0,0,0,0,0,0,0,0,1.71E+09,0, 2024-03-15 15:22:22.640
38,-6475.523886,-21008.62813,-7231.79516,-13333.28495,-4589.349579,6995.894849,-6324.560204,9207.801128,0.072,0.948,-0.118,192,0,0,0,0,0,0,0,0,0,1.71E+09,0, 2024-03-15 15:22:22.640
39,-5893.573868,-20976.12869,-7310.003914,-13396.65215,-5032.495264,6927.789083,-6657.51179,10379.65839,0.072,0.948,-0.118,192,0,0,0,0,0,0,0,0,0,1.71E+09,0, 2024-03-15 15:22:22.640
40,-7070.057937,-20686.94182,-7348.024231,-13439.32163,-6652.795571,6187.231086,-8065.269359,6886.863039,0.072,0.948,-0.118,192,0,0,0,0,0,0,0,0,0,1.71E+09,0, 2024-03-15 15:22:22.640
41,-8510.493757,-20534.86056,-7279.33732,-13389.49959,-7257.074983,5759.731622,-8646.302956,3292.836641,0.072,0.948,-0.118,192,0,0,0,0,0,0,0,0,0,1.71E+09,0, 2024-03-15 15:22:22.640
42,-8037.173216,-20747.35859,-7203.184927,-13309.59211,-5874.798402,6331.757466,-7484.414576,4895.34496,0.074,0.948,-0.122,192,2,80,29,160,252,48,0,0,0,1.71E+09,0, 2024-03-15 15:22:22.640
43,-6489.851354,-21005.47654,-7229.671744,-13323.6737,-4590.690683,7010.647,-6322.369733,9201.408529,0.074,0.948,-0.122,192,0,0,0,0,0,0,0,0,0,1.71E+09,0, 2024-03-15 15:22:22.640
44,-5890.668141,-20970.00432,-7297.91162,-13379.37425,-5015.15031,6954.275901,-6641.195016,10419.06451,0.074,0.948,-0.122,192,0,0,0,0,0,0,0,0,0,1.71E+09,0, 2024-03-15 15:22:22.640
45,-7055.864579,-20684.41608,-7336.87071,-13422.96015,-6627.247528,6219.886985,-8039.833074,6962.903674,0.074,0.948,-0.122,192,0,0,0,0,0,0,0,0,0,1.71E+09,0, 2024-03-15 15:22:22.640
46,-8506.626905,-20533.63121,-7276.431593,-13380.33538,-7256.627948,5780.071709,-8647.37584,3339.32827,0.074,0.948,-0.122,192,0,0,0,0,0,0,0,0,0,1.71E+09,0, 2024-03-15 15:22:22.640
47,-8041.688268,-20748.54323,-7200.770938,-13304.3618,-5886.980103,6338.462989,-7499.300837,4888.214754,0.074,0.948,-0.122,192,0,0,0,0,0,0,0,0,0,1.71E+09,0, 2024-03-15 15:22:22.640
48,-6502.547145,-21006.16944,-7222.83211,-13318.37634,-4591.696512,7015.340866,-6326.705972,9178.721509,0.074,0.948,-0.122,192,0,0,0,0,0,0,0,0,0,1.71E+09,0, 2024-03-15 15:22:22.640
49,-5893.305647,-20969.15495,-7289.619123,-13373.98748,-5004.153252,6967.016395,-6634.780065,10417.34343,0.074,0.948,-0.122,192,0,0,0,0,0,0,0,0,0,1.71E+09,0, 2024-03-15 15:22:22.640
50,-7038.944309,-20679.36458,-7329.919318,-13417.48398,-6618.887975,6234.192101,-8040.145998,6982.84143,0.074,0.948,-0.122,192,0,0,0,0,0,0,0,0,0,1.71E+09,0, 2024-03-15 15:22:22.640
51,-8483.090518,-20522.76826,-7267.15562,-13375.64151,-7255.175084,5789.168869,-8650.102752,3327.660659,0.074,0.948,-0.122,192,0,0,0,0,0,0,0,0,0,1.71E+09,0, 2024-03-15 15:22:22.640
52,-8030.959431,-20731.15358,-7190.958523,-13299.24325,-5894.914972,6342.083972,-7508.755625,4841.544311,0.082,0.944,-0.118,192,2,144,29,128,252,80,0,0,0,1.71E+09,0, 2024-03-15 15:22:22.640
53,-6489.203154,-20991.70786,-7219.948735,-13313.90599,-4597.709131,7019.721808,-6337.725382,9147.85375,0.082,0.944,-0.118,192,0,0,0,0,0,0,0,0,0,1.71E+09,0, 2024-03-15 15:22:22.640
54,-5860.515637,-20963.16468,-7295.341169,-13376.26736,-4996.598363,6971.486744,-6636.210577,10450.75929,0.082,0.944,-0.118,192,0,0,0,0,0,0,0,0,0,1.71E+09,0, 2024-03-15 15:22:22.640
55,-6987.647055,-20676.97295,-7333.741466,-13426.64819,-6596.625638,6236.136703,-8023.292783,7049.024945,0.082,0.944,-0.118,192,0,0,0,0,0,0,0,0,0,1.71E+09,0, 2024-03-15 15:22:22.640
56,-8463.488038,-20507.36791,-7268.69789,-13379.79893,-7261.768849,5780.027006,-8665.234883,3333.717982,0.082,0.944,-0.118,192,0,0,0,0,0,0,0,0,0,1.71E+09,0, 2024-03-15 15:22:22.640
57,-8043.744629,-20712.40046,-7189.192735,-13298.70681,-5916.216185,6325.811902,-7536.628251,4777.998302,0.082,0.944,-0.118,192,0,0,0,0,0,0,0,0,0,1.71E+09,0, 2024-03-15 15:22:22.640
58,-6492.198288,-20975.63696,-7210.91863,-13310.88851,-4591.048311,7018.067779,-6338.708858,9101.898563,0.082,0.944,-0.118,192,0,0,0,0,0,0,0,0,0,1.71E+09,0, 2024-03-15 15:22:22.640
59,-5837.73921,-20959.47664,-7286.758099,-13373.71926,-4963.450725,6988.183497,-6606.885088,10472.32872,0.082,0.944,-0.118,192,0,0,0,0,0,0,0,0,0,1.71E+09,0, 2024-03-15 15:22:23.121
60,-6963.149543,-20686.80771,-7341.028135,-13430.42564,-6585.025082,6252.475828,-8012.809815,7114.314391,0.082,0.944,-0.118,192,0,0,0,0,0,0,0,0,0,1.71E+09,0, 2024-03-15 15:22:23.121
61,-8459.487076,-20521.06953,-7282.220695,-13391.95828,-7284.366463,5781.859849,-8674.309692,3364.809259,0.082,0.944,-0.118,192,0,0,0,0,0,0,0,0,0,1.71E+09,0, 2024-03-15 15:22:23.121
62,-8058.519132,-20725.47623,-7200.636828,-13311.73787,-5949.274415,6321.341553,-7551.536864,4737.519293,0.08,0.946,-0.118,192,2,128,29,144,252,80,0,0,0,1.71E+09,0, 2024-03-15 15:22:23.121
63,-6513.924183,-20995.86528,-7223.927346,-13325.41714,-4610.606088,7013.016285,-6344.967347,9065.040537,0.08,0.946,-0.118,192,0,0,0,0,0,0,0,0,0,1.71E+09,0, 2024-03-15 15:22:23.121
64,-5857.028765,-20967.12094,-7288.635646,-13377.22848,-4966.602321,6994.285523,-6602.079463,10470.1159,0.08,0.946,-0.118,192,0,0,0,0,0,0,0,0,0,1.71E+09,0, 2024-03-15 15:22:23.121
65,-6971.084412,-20690.4734,-7336.22251,-13427.34109,-6572.038719,6266.222151,-7995.084881,7147.059697,0.08,0.946,-0.118,192,0,0,0,0,0,0,0,0,0,1.71E+09,0, 2024-03-15 15:22:23.121
66,-8462.862189,-20524.15407,-7281.170163,-13393.70172,-7279.985521,5790.509974,-8669.727584,3396.146404,0.08,0.946,-0.118,192,0,0,0,0,0,0,0,0,0,1.71E+09,0, 2024-03-15 15:22:23.121
67,-8078.054557,-20717.20609,-7197.284066,-13310.44147,-5957.298691,6327.443579,-7563.562103,4723.795321,0.08,0.946,-0.118,192,0,0,0,0,0,0,0,0,0,1.71E+09,0, 2024-03-15 15:22:23.121
68,-6534.353678,-20986.14228,-7219.904032,-13319.44922,-4606.67218,7032.104675,-6340.318184,9059.83258,0.08,0.946,-0.118,192,0,0,0,0,0,0,0,0,0,1.71E+09,0, 2024-03-15 15:22:23.121
69,-5860.001547,-20967.54562,-7293.061291,-13378.7484,-4946.128124,7018.224242,-6582.454632,10519.40149,0.08,0.946,-0.118,192,0,0,0,0,0,0,0,0,0,1.71E+09,0, 2024-03-15 15:22:23.121
70,-6953.180665,-20684.1255,-7337.608318,-13428.27987,-6545.998936,6298.855698,-7973.582503,7218.160596,0.08,0.946,-0.118,192,0,0,0,0,0,0,0,0,0,1.71E+09,0, 2024-03-15 15:22:23.121
71,-8458.436544,-20506.51854,-7275.716338,-13387.71145,-7270.709547,5824.574032,-8659.490485,3426.254204,0.08,0.946,-0.118,192,0,0,0,0,0,0,0,0,0,1.71E+09,0, 2024-03-15 15:22:23.121
72,-8100.428653,-20706.4549,-7197.239363,-13313.57072,-5962.953682,6348.297757,-7562.466867,4709.803129,0.074,0.954,-0.12,192,2,80,29,208,252,64,0,0,0,1.71E+09,0, 2024-03-15 15:22:23.121
73,-6558.024175,-20977.69332,-7217.221822,-13326.93706,-4602.917087,7047.41562,-6330.796341,9030.864719,0.074,0.954,-0.12,192,0,0,0,0,0,0,0,0,0,1.71E+09,0, 2024-03-15 15:22:23.121
74,-5865.008338,-20963.54466,-7287.696873,-13387.35382,-4925.989202,7034.183387,-6561.958082,10510.4608,0.074,0.954,-0.12,192,0,0,0,0,0,0,0,0,0,1.71E+09,0, 2024-03-15 15:22:23.121
75,-6942.518883,-20688.4841,-7338.234167,-13444.17196,-6527.938727,6313.205518,-7948.593253,7242.680459,0.074,0.954,-0.12,192,0,0,0,0,0,0,0,0,0,1.71E+09,0, 2024-03-15 15:22:23.121
76,-8462.75043,-20511.88296,-7281.728957,-13410.57729,-7275.425765,5823.478797,-8653.902549,3426.365963,0.074,0.954,-0.12,192,0,0,0,0,0,0,0,0,0,1.71E+09,0, 2024-03-15 15:22:23.121
77,-8118.19829,-20701.53751,-7195.853555,-13326.7806,-5978.018758,6340.541701,-7576.928446,4642.323213,0.074,0.954,-0.12,192,0,0,0,0,0,0,0,0,0,1.71E+09,0, 2024-03-15 15:22:23.121
78,-6575.749108,-20966.13746,-7209.309305,-13332.72616,-4607.588602,7048.488504,-6344.006222,8933.701686,0.074,0.954,-0.12,192,0,0,0,0,0,0,0,0,0,1.71E+09,0, 2024-03-15 15:22:23.121
79,-5874.619588,-20962.44943,-7286.914562,-13399.69199,-4918.836644,7047.572082,-6558.158285,10461.26461,0.074,0.954,-0.12,192,0,0,0,0,0,0,0,0,0,1.71E+09,0, 2024-03-15 15:22:23.121
80,-6945.223444,-20693.60264,-7340.022306,-13462.20982,-6516.382875,6325.610736,-7947.386259,7236.399619,0.074,0.954,-0.12,192,0,0,0,0,0,0,0,0,0,1.71E+09,0, 2024-03-15 15:22:23.121
81,-8469.679471,-20513.22407,-7283.628855,-13432.12437,-7284.210001,5820.975402,-8673.057994,3400.393236,0.074,0.954,-0.12,192,0,0,0,0,0,0,0,0,0,1.71E+09,0, 2024-03-15 15:22:23.121
82,-8142.338174,-20704.62205,-7200.323904,-13350.27228,-6001.152814,6326.057771,-7603.392911,4570.350596,0.068,0.956,-0.116,192,2,32,29,224,252,96,0,0,0,1.71E+09,0, 2024-03-15 15:22:23.121
83,-6609.477891,-20974.40761,-7217.914726,-13356.75429,-4623.681858,7034.965698,-6365.016862,8857.906921,0.068,0.956,-0.116,192,0,0,0,0,0,0,0,0,0,1.71E+09,0, 2024-03-15 15:22:23.121
84,-5893.573868,-20972.44066,-7294.916486,-13418.55686,-4915.126254,7040.955966,-6561.868675,10430.62036,0.068,0.956,-0.116,192,0,0,0,0,0,0,0,0,0,1.71E+09,0, 2024-03-15 15:22:23.121
85,-6940.484874,-20701.33635,-7345.565539,-13470.63642,-6504.335285,6328.650573,-7939.049058,7257.231445,0.068,0.956,-0.116,192,0,0,0,0,0,0,0,0,0,1.71E+09,0, 2024-03-15 15:22:23.121
86,-8477.435527,-20520.19781,-7291.809594,-13436.72883,-7293.977713,5817.600288,-8680.612884,3407.165814,0.068,0.956,-0.116,192,0,0,0,0,0,0,0,0,0,1.71E+09,0, 2024-03-15 15:22:23.121
87,-8178.950331,-20700.86696,-7201.240325,-13345.04197,-6027.326706,6318.167605,-7625.297621,4517.48872,0.068,0.956,-0.116,192,0,0,0,0,0,0,0,0,0,1.71E+09,0, 2024-03-15 15:22:23.121
88,-6633.662478,-20975.07816,-7218.205299,-13347.9477,-4630.968527,7036.262099,-6368.548437,8819.193699,0.068,0.956,-0.116,192,0,0,0,0,0,0,0,0,0,1.71E+09,0, 2024-03-15 15:22:23.121
89,-5901.687551,-20977.80508,-7297.151661,-13413.23714,-4906.006742,7051.39423,-6549.016422,10435.71656,0.068,0.956,-0.116,192,0,0,0,0,0,0,0,0,0,1.71E+09,0, 2024-03-15 15:22:23.121
90,-6938.048534,-20706.20903,-7345.923167,-13463.86385,-6491.505383,6343.290966,-7923.782816,7284.299408,0.068,0.956,-0.116,192,0,0,0,0,0,0,0,0,0,1.71E+09,0, 2024-03-15 15:22:23.121
91,-8485.526858,-20516.1745,-7286.534582,-13422.78134,-7301.89023,5833.939413,-8682.579837,3405.355323,0.068,0.956,-0.116,192,0,0,0,0,0,0,0,0,0,1.71E+09,0, 2024-03-15 15:22:23.121
92,-8206.86766,-20710.88054,-7211.1645,-13345.04197,-6054.104096,6321.363905,-7637.300508,4494.399368,0.068,0.944,-0.112,192,2,32,29,128,252,128,0,0,0,1.71E+09,0, 2024-03-15 15:22:23.121
93,-6670.58756,-20989.6068,-7226.743666,-13352.52981,-4648.738164,7035.591547,-6367.609664,8785.75549,0.068,0.944,-0.112,192,0,0,0,0,0,0,0,0,0,1.71E+09,0, 2024-03-15 15:22:23.121
94,-5928.733162,-20988.10923,-7299.297428,-13409.95144,-4908.085454,7061.653681,-6538.242881,10427.08879,0.068,0.944,-0.112,192,0,0,0,0,0,0,0,0,0,1.71E+09,0, 2024-03-15 15:22:23.121
95,-6949.582034,-20705.60553,-7337.094228,-13453.85026,-6485.381005,6363.943978,-7904.984999,7288.970922,0.068,0.944,-0.112,192,0,0,0,0,0,0,0,0,0,1.71E+09,0, 2024-03-15 15:22:23.121
96,-8483.649312,-20515.92863,-7276.655111,-13415.11469,-7291.519021,5849.071544,-8658.954043,3401.354361,0.068,0.944,-0.112,192,0,0,0,0,0,0,0,0,0,1.71E+09,0, 2024-03-15 15:22:23.121
97,-8206.48768,-20698.05064,-7193.394863,-13327.20528,-6045.342212,6341.055792,-7625.632897,4460.8494,0.068,0.944,-0.112,192,0,0,0,0,0,0,0,0,0,1.71E+09,0, 2024-03-15 15:22:23.121
98,-6673.046252,-20977.93919,-7211.566831,-13333.95551,-4637.852864,7060.692556,-6365.12862,8758.374603,0.068,0.944,-0.112,192,0,0,0,0,0,0,0,0,0,1.71E+09,0, 2024-03-15 15:22:23.121
99,-5918.987801,-20978.1627,-7280.656073,-13394.66284,-4884.169088,7086.8888,-6523.267212,10420.02564,0.068,0.944,-0.112,192,0,0,0,0,0,0,0,0,0,1.71E+09,0, 2024-03-15 15:22:23.121
100,-6918.602516,-20708.60067,-7326.365391,-13447.86,-6450.71345,6380.37251,-7880.26397,7329.069952,0.068,0.944,-0.112,192,0,0,0,0,0,0,0,0,0,1.71E+09,0, 2024-03-15 15:22:23.121
101,-8469.098326,-20526.21043,-7276.878628,-13423.65306,-7278.979692,5842.366021,-8646.079438,3436.468951,0.068,0.944,-0.112,192,0,0,0,0,0,0,0,0,0,1.71E+09,0, 2024-03-15 15:22:23.121
102,-8221.619811,-20705.49377,-7195.741796,-13341.30923,-6054.66289,6319.12873,-7635.66883,4434.675507,0.068,0.946,-0.118,192,2,32,29,144,252,80,0,0,0,1.71E+09,0, 2024-03-15 15:22:23.121
103,-6687.664293,-20985.00234,-7209.845747,-13342.35976,-4636.221187,7044.46519,-6366.335614,8712.486471,0.068,0.946,-0.118,192,0,0,0,0,0,0,0,0,0,1.71E+09,0, 2024-03-15 15:22:23.121
104,-5914.539804,-20992.73604,-7282.824192,-13401.34602,-4864.231332,7081.949065,-6506.682218,10417.38813,0.068,0.946,-0.118,192,0,0,0,0,0,0,0,0,0,1.71E+09,0, 2024-03-15 15:22:23.121
105,-6900.654066,-20720.76001,-7327.281812,-13452.77738,-6432.787351,6386.094557,-7861.533208,7351.041716,0.068,0.946,-0.118,192,0,0,0,0,0,0,0,0,0,1.71E+09,0, 2024-03-15 15:22:23.121
106,-8462.526913,-20534.41352,-7282.846544,-13428.12341,-7293.843602,5845.383506,-8662.910302,3430.635146,0.068,0.946,-0.118,192,0,0,0,0,0,0,0,0,0,1.71E+09,0, 2024-03-15 15:22:23.121
107,-8225.039628,-20709.49473,-7198.535764,-13344.86316,-6078.534553,6315.619506,-7658.892293,4389.323817,0.068,0.946,-0.118,192,0,0,0,0,0,0,0,0,0,1.71E+09,0, 2024-03-15 15:22:23.121
108,-6701.857651,-20976.19575,-7202.559078,-13345.57841,-4654.549617,7038.989012,-6380.2384,8640.536206,0.068,0.946,-0.118,192,0,0,0,0,0,0,0,0,0,1.71E+09,0, 2024-03-15 15:22:23.121
109,-5916.350295,-20985.7623,-7275.515172,-13406.33046,-4862.80082,7083.737205,-6503.88825,10374.98687,0.068,0.946,-0.118,192,0,0,0,0,0,0,0,0,0,1.71E+09,0, 2024-03-15 15:22:23.121
110,-6894.574391,-20720.11181,-7328.220585,-13465.54023,-6431.133322,6385.289894,-7864.50599,7343.352716,0.068,0.946,-0.118,192,0,0,0,0,0,0,0,0,0,1.71E+09,0, 2024-03-15 15:22:23.121
111,-8455.240244,-20517.13562,-7270.217809,-13429.64332,-7290.043806,5848.691565,-8668.721756,3400.013256,0.068,0.946,-0.118,192,0,0,0,0,0,0,0,0,0,1.71E+09,0, 2024-03-15 15:22:23.121
112,-8226.045457,-20696.57543,-7188.790403,-13343.00796,-6074.26537,6320.760408,-7659.987528,4347.459,0.072,0.946,-0.116,192,2,64,29,144,252,96,0,0,0,1.71E+09,0, 2024-03-15 15:22:23.121
113,-6712.430026,-20980.7108,-7212.617363,-13350.29463,-4656.24835,7040.263062,-6386.65335,8625.605241,0.072,0.946,-0.116,192,0,0,0,0,0,0,0,0,0,1.71E+09,0, 2024-03-15 15:22:23.121
114,-5929.783694,-20992.78074,-7290.334379,-13413.08068,-4869.618102,7086.173545,-6513.678314,10378.11612,0.072,0.946,-0.116,192,0,0,0,0,0,0,0,0,0,1.71E+09,0, 2024-03-15 15:22:23.121
115,-6884.717272,-20720.80472,-7333.182673,-13458.47707,-6421.656182,6407.440473,-7852.212531,7377.260313,0.072,0.946,-0.116,192,0,0,0,0,0,0,0,0,0,1.71E+09,0, 2024-03-15 15:22:23.121
116,-8453.452105,-20527.55154,-7289.172088,-13430.71621,-7300.459719,5861.275597,-8670.487543,3439.285271,0.072,0.946,-0.116,192,0,0,0,0,0,0,0,0,0,1.71E+09,0, 2024-03-15 15:22:23.121
117,-8252.152294,-20704.01856,-7210.203375,-13348.84177,-6108.86587,6319.799283,-7683.903895,4326.493064,0.072,0.946,-0.116,192,0,0,0,0,0,0,0,0,0,1.71E+09,0, 2024-03-15 15:22:23.121
118,-6735.273508,-20981.9625,-7223.927346,-13348.79706,-4669.547638,7049.829608,-6394.096481,8597.28558,0.072,0.946,-0.116,192,0,0,0,0,0,0,0,0,0,1.71E+09,0, 2024-03-15 15:22:23.121
119,-5926.386228,-20992.93721,-7293.150698,-13403.49178,-4851.937872,7107.921792,-6496.132195,10400.04318,0.072,0.946,-0.116,192,0,0,0,0,0,0,0,0,0,1.71E+09,0, 2024-03-15 15:22:23.121
120,-6876.804754,-20725.25271,-7339.910548,-13454.31965,-6409.787406,6420.628002,-7843.294185,7424.735418,0.072,0.946,-0.116,192,0,0,0,0,0,0,0,0,0,1.71E+09,0, 2024-03-15 15:22:23.121
121,-8457.49777,-20530.77019,-7292.390739,-13427.31874,-7304.371274,5869.25517,-8670.085212,3453.188056,0.072,0.946,-0.116,192,0,0,0,0,0,0,0,0,0,1.71E+09,0, 2024-03-15 15:22:23.121
122,-8275.979254,-20703.70563,-7207.878793,-13340.66103,-6124.936774,6323.666134,-7693.291628,4290.216182,0.074,0.942,-0.122,192,2,80,29,112,252,48,0,0,0,1.71E+09,0, 2024-03-15 15:22:23.121
123,-6759.167523,-20984.39884,-7219.077017,-13340.68338,-4676.074347,7055.551655,-6394.632923,8551.956243,0.074,0.942,-0.122,192,0,0,0,0,0,0,0,0,0,1.71E+09,0, 2024-03-15 15:22:23.121
124,-5937.673859,-21002.90608,-7292.904829,-13405.0117,-4846.305233,7116.974249,-6486.699758,10393.67293,0.074,0.942,-0.122,192,0,0,0,0,0,0,0,0,0,1.71E+09,0, 2024-03-15 15:22:23.121
125,-6868.892237,-20736.98738,-7341.564577,-13458.16415,-6395.035254,6435.536615,-7827.178577,7460.855837,0.074,0.942,-0.122,192,0,0,0,0,0,0,0,0,0,1.71E+09,0, 2024-03-15 15:22:23.121
126,-8451.395744,-20533.76532,-7289.552067,-13430.85032,-7305.891193,5872.920856,-8671.269854,3469.840106,0.074,0.942,-0.122,192,0,0,0,0,0,0,0,0,0,1.71E+09,0, 2024-03-15 15:22:23.121
127,-8274.90637,-20696.06134,-7199.452186,-13340.54927,-6130.614117,6319.419303,-7703.014636,4258.342595,0.074,0.942,-0.122,192,0,0,0,0,0,0,0,0,0,1.71E+09,0, 2024-03-15 15:22:23.121
128,-6754.786581,-20970.67487,-7208.772863,-13336.52596,-4673.369786,7054.322309,-6397.896278,8516.193451,0.074,0.942,-0.122,192,0,0,0,0,0,0,0,0,0,1.71E+09,0, 2024-03-15 15:22:23.121
129,-5924.665144,-20988.15393,-7279.314969,-13391.91358,-4825.026372,7125.713781,-6470.986482,10398.25504,0.074,0.942,-0.122,192,0,0,0,0,0,0,0,0,0,1.71E+09,0, 2024-03-15 15:22:23.121
130,-6845.177036,-20728.62783,-7331.729809,-13446.76476,-6367.699071,6450.19936,-7804.268039,7506.363989,0.074,0.942,-0.122,192,0,0,0,0,0,0,0,0,0,1.71E+09,0, 2024-03-15 15:22:23.121
131,-8433.559052,-20528.98205,-7285.931085,-13420.65792,-7295.251762,5890.466975,-8659.244616,3512.889566,0.074,0.942,-0.122,192,0,0,0,0,0,0,0,0,0,1.71E+09,0, 2024-03-15 15:22:23.121
132,-8276.82862,-20693.84851,-7200.681532,-13331.38506,-6138.012545,6332.383315,-7697.538459,4277.386281,0.072,0.948,-0.112,192,2,64,29,160,252,128,0,0,0,1.71E+09,0, 2024-03-15 15:22:23.121
133,-6770.991596,-20975.97223,-7214.383151,-13331.9215,-4680.656455,7062.458344,-6393.247115,8526.028219,0.072,0.948,-0.112,192,0,0,0,0,0,0,0,0,0,1.71E+09,0, 2024-03-15 15:22:23.121
134,-5924.933365,-21002.54846,-7289.395605,-13394.75225,-4816.108026,7140.734153,-6457.88836,10443.49497,0.072,0.948,-0.112,192,0,0,0,0,0,0,0,0,0,1.71E+09,0, 2024-03-15 15:22:23.121
135,-6825.574556,-20743.22352,-7342.570405,-13449.75989,-6354.466838,6472.528752,-7787.057196,7583.589266,0.072,0.948,-0.112,192,0,0,0,0,0,0,0,0,0,1.71E+09,0, 2024-03-15 15:22:23.121
136,-8437.11298,-20542.63896,-7305.131233,-13438.00288,-7312.440254,5889.841126,-8668.408831,3554.955549,0.072,0.948,-0.112,192,0,0,0,0,0,0,0,0,0,1.71E+09,0, 2024-03-15 15:22:23.121
137,-8308.836318,-20700.21876,-7217.422988,-13350.20522,-6171.406051,6317.899384,-7728.830901,4241.198807,0.072,0.948,-0.112,192,0,0,0,0,0,0,0,0,0,1.71E+09,0, 2024-03-15 15:22:23.121
138,-6798.819518,-20977.67096,-7224.530843,-13343.67852,-4701.018894,7052.914149,-6410.748531,8471.668776,0.072,0.948,-0.112,192,0,0,0,0,0,0,0,0,0,1.71E+09,0, 2024-03-15 15:22:23.121
139,-5932.309441,-21008.65048,-7303.566611,-13409.43735,-4824.020544,7132.329897,-6460.145886,10429.05574,0.072,0.948,-0.112,192,0,0,0,0,0,0,0,0,0,1.71E+09,0, 2024-03-15 15:22:23.121
140,-6830.246071,-20749.68317,-7358.686013,-13468.24479,-6371.342405,6461.755212,-7798.970675,7595.212173,0.072,0.948,-0.112,192,0,0,0,0,0,0,0,0,0,1.71E+09,0, 2024-03-15 15:22:23.121
141,-8426.540604,-20534.1453,-7302.538431,-13438.44991,-7318.274059,5890.891658,-8670.174619,3547.601825,0.072,0.948,-0.112,192,0,0,0,0,0,0,0,0,0,1.71E+09,0, 2024-03-15 15:22:23.121
142,-8294.173574,-20695.92723,-7212.84088,-13354.07208,-6169.170877,6315.127768,-7716.850366,4225.21731,0.072,0.948,-0.118,192,2,64,29,160,252,80,0,0,0,1.71E+09,0, 2024-03-15 15:22:23.121
143,-6796.517288,-20972.79828,-7222.563889,-13351.25576,-4703.879917,7047.706192,-6409.608592,8446.21014,0.072,0.948,-0.118,192,0,0,0,0,0,0,0,0,0,1.71E+09,0, 2024-03-15 15:22:23.121
144,-5937.606804,-20995.03827,-7293.910658,-13405.10111,-4822.590032,7138.722496,-6458.067174,10406.07815,0.072,0.948,-0.118,192,0,0,0,0,0,0,0,0,0,1.71E+09,0, 2024-03-15 15:22:23.121
