Sample Index, EXG Channel 0, EXG Channel 1, EXG Channel 2, EXG Channel 3, EXG Channel 4, EXG Channel 5, EXG Channel 6, EXG Channel 7, Accel Channel 0, Accel Channel 1, Accel Channel 2, Other, Other, Other, Other, Other, Other, Other, Analog Channel 0, Analog Channel 1, Analog Channel 2, Timestamp, Other, Timestamp (Formatted)
0,-7060.87137,-19265.86262,-7885.784851,-13946.77328,-4770.689281,11242.59218,-3604.241145,8943.603509,0.056,0.946,-0.112,192,1,192,29,144,252,128,0,0,0,1.71E+09,0, 2024-03-15 15:23:08.038
1,-5969.569799,-19329.54274,-7946.51454,-13992.90728,-4634.790675,11467.74131,-3354.460401,11664.05668,0.056,0.946,-0.112,192,0,0,0,0,0,0,0,0,0,1.71E+09,0, 2024-03-15 15:23:08.038
2,-6661.579807,-19105.75707,-7978.54459,-14026.03257,-6108.441187,10982.28377,-4728.444484,9504.252315,0.056,0.946,-0.112,192,0,0,0,0,0,0,0,0,0,1.71E+09,0, 2024-03-15 15:23:08.038
3,-8437.090628,-18875.71292,-7935.003392,-14006.18422,-7348.560673,10361.10644,-6005.399645,5080.61857,0.056,0.946,-0.112,192,0,0,0,0,0,0,0,0,0,1.71E+09,0, 2024-03-15 15:23:08.038
4,-8603.208793,-18990.35501,-7866.04826,-13935.12803,-6411.6426,10572.621,-5220.808711,4801.288819,0.056,0.946,-0.112,192,0,0,0,0,0,0,0,0,0,1.71E+09,0, 2024-03-15 15:23:08.038
5,-7091.739129,-19278.62546,-7887.304769,-13943.84521,-4773.662063,11242.7263,-3609.963192,8930.304221,0.056,0.946,-0.112,192,0,0,0,0,0,0,0,0,0,1.71E+09,0, 2024-03-15 15:23:08.038
6,-5991.318046,-19345.05485,-7948.973232,-13992.70612,-4627.638117,11466.69077,-3353.521628,11687.86129,0.056,0.946,-0.112,192,0,0,0,0,0,0,0,0,0,1.71E+09,0, 2024-03-15 15:23:08.038
7,-6655.544836,-19114.38484,-7970.229741,-14019.55056,-6079.65214,10987.80465,-4705.176318,9572.805115,0.056,0.946,-0.112,192,0,0,0,0,0,0,0,0,0,1.71E+09,0, 2024-03-15 15:23:08.038
8,-8421.913793,-18874.39416,-7917.926659,-13992.84023,-7328.399399,10363.7663,-5975.560066,5132.228748,0.056,0.946,-0.112,192,0,0,0,0,0,0,0,0,0,1.71E+09,0, 2024-03-15 15:23:08.038
9,-8613.982333,-18983.1354,-7847.85394,-13920.71115,-6416.180005,10565.51314,-5217.008915,4775.070223,0.056,0.946,-0.112,192,0,0,0,0,0,0,0,0,0,1.71E+09,0, 2024-03-15 15:23:08.038
10,-7104.8149,-19267.539,-7867.679938,-13928.86954,-4768.409403,11240.71464,-3604.218793,8889.266418,0.05,0.952,-0.112,192,1,144,29,192,252,128,0,0,0,1.71E+09,0, 2024-03-15 15:23:08.038
11,-5972.475525,-19333.20842,-7928.767255,-13981.03851,-4592.523526,11475.00562,-3321.670392,11695.63969,0.05,0.952,-0.112,192,0,0,0,0,0,0,0,0,0,1.71E+09,0, 2024-03-15 15:23:08.038
12,-6608.114434,-19107.47815,-7957.198674,-14011.03455,-6037.340288,11001.28275,-4665.837248,9651.058573,0.05,0.952,-0.112,192,0,0,0,0,0,0,0,0,0,1.71E+09,0, 2024-03-15 15:23:08.038
13,-8385.547505,-18858.54678,-7909.880031,-13984.83831,-7314.138986,10371.38824,-5969.815668,5193.092548,0.05,0.952,-0.112,192,0,0,0,0,0,0,0,0,0,1.71E+09,0, 2024-03-15 15:23:08.038
14,-8616.977467,-18972.18305,-7852.525455,-13921.76168,-6444.05263,10549.26342,-5249.664813,4744.627147,0.05,0.952,-0.112,192,0,0,0,0,0,0,0,0,0,1.71E+09,0, 2024-03-15 15:23:08.038
15,-7121.444597,-19256.7431,-7871.16681,-13926.70142,-4793.510412,11225.35899,-3635.265366,8814.924516,0.05,0.952,-0.112,192,0,0,0,0,0,0,0,0,0,1.71E+09,0, 2024-03-15 15:23:08.038
16,-5967.178162,-19332.82844,-7937.439732,-13981.15027,-4596.837413,11473.79863,-3331.214587,11687.59307,0.05,0.952,-0.112,192,0,0,0,0,0,0,0,0,0,1.71E+09,0, 2024-03-15 15:23:08.038
17,-6594.636332,-19100.81733,-7962.294872,-14007.03359,-6040.178959,11006.75893,-4674.599132,9672.67271,0.05,0.952,-0.112,192,0,0,0,0,0,0,0,0,0,1.71E+09,0, 2024-03-15 15:23:08.038
18,-8373.812839,-18860.91606,-7923.782816,-13989.77804,-7332.869748,10367.11906,-5988.769947,5205.02838,0.05,0.952,-0.112,192,0,0,0,0,0,0,0,0,0,1.71E+09,0, 2024-03-15 15:23:08.038
19,-8627.818063,-18970.01493,-7864.595397,-13926.99199,-6482.855258,10534.69009,-5291.462575,4686.62437,0.05,0.952,-0.112,192,0,0,0,0,0,0,0,0,0,1.71E+09,0, 2024-03-15 15:23:08.038
20,-7131.122903,-19261.66049,-7887.282418,-13938.81606,-4821.092465,11208.37166,-3667.161306,8751.065582,0.058,0.956,-0.116,192,1,208,29,224,252,96,0,0,0,1.71E+09,0, 2024-03-15 15:23:08.038
21,-5974.554238,-19336.49413,-7951.521331,-13993.93547,-4606.113387,11457.30304,-3343.418639,11658.5358,0.058,0.956,-0.116,192,0,0,0,0,0,0,0,0,0,1.71E+09,0, 2024-03-15 15:23:08.038
22,-6582.0523,-19109.26629,-7978.321073,-14023.75269,-6031.528834,10994.66664,-4668.541809,9694.577419,0.058,0.956,-0.116,192,0,0,0,0,0,0,0,0,0,1.71E+09,0, 2024-03-15 15:23:08.038
23,-8350.388211,-18863.37475,-7935.428075,-14003.39025,-7330.880443,10353.19392,-5989.731072,5230.01763,0.058,0.956,-0.116,192,0,0,0,0,0,0,0,0,0,1.71E+09,0, 2024-03-15 15:23:08.038
24,-8618.832662,-18972.54067,-7876.240656,-13942.72762,-6494.433462,10511.1537,-5304.136014,4678.980074,0.058,0.956,-0.116,192,0,0,0,0,0,0,0,0,0,1.71E+09,0, 2024-03-15 15:23:08.038
25,-7137.604909,-19260.87818,-7893.987941,-13948.13674,-4831.128398,11185.28231,-3677.018425,8722.097721,0.058,0.956,-0.116,192,0,0,0,0,0,0,0,0,0,1.71E+09,0, 2024-03-15 15:23:08.038
26,-5966.440554,-19338.59519,-7953.93532,-13997.71291,-4597.329151,11444.78607,-3335.640232,11648.11988,0.058,0.956,-0.116,192,0,0,0,0,0,0,0,0,0,1.71E+09,0, 2024-03-15 15:23:08.038
27,-6552.793867,-19116.95529,-7978.790459,-14027.88776,-6009.355904,10995.73952,-4640.736239,9723.947611,0.058,0.956,-0.116,192,0,0,0,0,0,0,0,0,0,1.71E+09,0, 2024-03-15 15:23:08.038
28,-8343.749743,-18869.49913,-7934.913985,-14007.36886,-7328.399399,10357.86544,-5979.382214,5244.792133,0.058,0.956,-0.116,192,0,0,0,0,0,0,0,0,0,1.71E+09,0, 2024-03-15 15:23:08.038
29,-8643.911319,-18970.48431,-7868.86458,-13941.09594,-6509.073855,10514.05943,-5312.160291,4635.952966,0.058,0.956,-0.116,192,0,0,0,0,0,0,0,0,0,1.71E+09,0, 2024-03-15 15:23:08.038
30,-7165.522237,-19257.74893,-7881.470964,-13939.12899,-4830.703715,11193.77597,-3669.709405,8666.419526,0.054,0.952,-0.116,192,1,176,29,192,252,96,0,0,0,1.71E+09,0, 2024-03-15 15:23:08.038
31,-5968.832191,-19343.24436,-7945.464009,-13989.21925,-4572.697529,11461.32636,-3305.800653,11661.1733,0.054,0.952,-0.116,192,0,0,0,0,0,0,0,0,0,1.71E+09,0, 2024-03-15 15:23:08.038
32,-6541.394477,-19121.40329,-7971.168515,-14015.90723,-5985.953627,11013.19623,-4615.746989,9783.783231,0.054,0.952,-0.116,192,0,0,0,0,0,0,0,0,0,1.71E+09,0, 2024-03-15 15:23:08.038
33,-8329.645792,-18872.49427,-7925.414494,-13991.45442,-7310.562707,10373.57871,-5958.304519,5294.256543,0.054,0.952,-0.116,192,0,0,0,0,0,0,0,0,0,1.71E+09,0, 2024-03-15 15:23:08.038
34,-8632.824854,-18970.68548,-7850.357336,-13919.92884,-6495.238125,10529.48213,-5292.088424,4644.647794,0.054,0.952,-0.116,192,0,0,0,0,0,0,0,0,0,1.71E+09,0, 2024-03-15 15:23:08.038
35,-7160.895426,-19262.97924,-7865.735336,-13926.88023,-4822.031238,11203.90132,-3658.108849,8667.090078,0.054,0.952,-0.116,192,0,0,0,0,0,0,0,0,0,1.71E+09,0, 2024-03-15 15:23:08.038
36,-5969.793316,-19344.4737,-7923.268726,-13975.45057,-4554.614968,11478.69366,-3283.605371,11681.6028,0.054,0.952,-0.116,192,0,0,0,0,0,0,0,0,0,1.71E+09,0, 2024-03-15 15:23:08.038
37,-6536.410038,-19124.1302,-7951.923663,-14005.9607,-5960.249121,11028.37307,-4589.394282,9837.472121,0.054,0.952,-0.116,192,0,0,0,0,0,0,0,0,0,1.71E+09,0, 2024-03-15 15:23:08.038
38,-8311.026789,-18856.69158,-7898.570049,-13973.01423,-7294.402396,10385.35808,-5942.345374,5322.285631,0.054,0.952,-0.116,192,0,0,0,0,0,0,0,0,0,1.71E+09,0, 2024-03-15 15:23:08.038
39,-8628.086284,-18952.40175,-7834.577004,-13905.82489,-6498.657942,10529.99622,-5296.603477,4623.637155,0.054,0.952,-0.116,192,0,0,0,0,0,0,0,0,0,1.71E+09,0, 2024-03-15 15:23:08.038
40,-7165.142258,-19239.57696,-7854.403002,-13910.98814,-4826.769808,11205.73416,-3667.451878,8623.839453,0.062,0.952,-0.114,192,1,240,29,192,252,112,0,0,0,1.71E+09,0, 2024-03-15 15:23:08.038
41,-5957.566912,-19325.40766,-7922.665229,-13966.95691,-4551.239854,11481.10765,-3286.511098,11675.47842,0.062,0.952,-0.114,192,0,0,0,0,0,0,0,0,0,1.71E+09,0, 2024-03-15 15:23:08.038
42,-6495.662808,-19110.42858,-7959.769125,-14001.62447,-5950.704926,11039.88421,-4579.738328,9890.602218,0.062,0.952,-0.114,192,0,0,0,0,0,0,0,0,0,1.71E+09,0, 2024-03-15 15:23:08.038
43,-8284.964655,-18850.54485,-7918.217232,-13981.44084,-7309.266306,10388.04029,-5956.561083,5374.119326,0.062,0.952,-0.114,192,0,0,0,0,0,0,0,0,0,1.71E+09,0, 2024-03-15 15:23:08.038
44,-8632.064895,-18937.6049,-7851.251406,-13911.1446,-6539.651041,10526.84462,-5338.200073,4612.751855,0.062,0.952,-0.114,192,0,0,0,0,0,0,0,0,0,1.71E+09,0, 2024-03-15 15:23:08.038
45,-7185.951732,-19234.41371,-7878.185258,-13923.99686,-4870.758041,11190.71379,-3712.803568,8573.548028,0.062,0.952,-0.114,192,0,0,0,0,0,0,0,0,0,1.71E+09,0, 2024-03-15 15:23:08.038
46,-5959.399755,-19324.80417,-7942.804151,-13976.18818,-4569.434174,11473.32924,-3311.746217,11659.2287,0.062,0.952,-0.114,192,0,0,0,0,0,0,0,0,0,1.71E+09,0, 2024-03-15 15:23:08.038
47,-6476.08268,-19107.4111,-7969.805058,-14003.81494,-5946.592205,11044.66749,-4584.63336,9915.971448,0.062,0.952,-0.114,192,0,0,0,0,0,0,0,0,0,1.71E+09,0, 2024-03-15 15:23:08.038
48,-8270.570132,-18849.94135,-7929.035476,-13986.89467,-7316.10594,10387.10152,-5969.748613,5395.666408,0.062,0.952,-0.114,192,0,0,0,0,0,0,0,0,0,1.71E+09,0, 2024-03-15 15:23:08.038
49,-8640.670316,-18937.62725,-7861.644967,-13921.15819,-6565.623768,10511.66779,-5371.2136,4572.026977,0.062,0.952,-0.114,192,0,0,0,0,0,0,0,0,0,1.71E+09,0, 2024-03-15 15:23:08.038
50,-7195.339465,-19232.87144,-7883.281455,-13931.88702,-4881.330416,11181.43781,-3730.841426,8520.753207,0.066,0.952,-0.106,192,2,16,29,192,252,176,0,0,0,1.71E+09,0, 2024-03-15 15:23:08.038
51,-5969.97213,-19327.1511,-7949.107343,-13987.14053,-4563.443907,11467.56249,-3306.202985,11641.9061,0.066,0.952,-0.106,192,0,0,0,0,0,0,0,0,0,1.71E+09,0, 2024-03-15 15:23:08.038
52,-6480.128346,-19122.45382,-7986.524163,-14023.39506,-5938.009135,11035.41387,-4570.842334,9947.174483,0.066,0.952,-0.106,192,0,0,0,0,0,0,0,0,0,1.71E+09,0, 2024-03-15 15:23:08.038
53,-8270.078393,-18867.82275,-7948.101514,-14006.25128,-7323.146739,10372.17055,-5967.15581,5421.817949,0.066,0.952,-0.106,192,0,0,0,0,0,0,0,0,0,1.71E+09,0, 2024-03-15 15:23:08.038
54,-8649.499255,-18948.60196,-7871.703252,-13931.84232,-6580.957065,10494.43459,-5373.918161,4552.916235,0.066,0.952,-0.106,192,0,0,0,0,0,0,0,0,0,1.71E+09,0, 2024-03-15 15:23:08.038
55,-7215.478386,-19233.11731,-7881.314502,-13931.84232,-4888.952361,11169.97137,-3731.109647,8480.81064,0.066,0.952,-0.106,192,0,0,0,0,0,0,0,0,0,1.71E+09,0, 2024-03-15 15:23:08.038
56,-5970.508572,-19340.65155,-7952.52716,-13994.47191,-4552.4692,11459.27,-3289.148604,11645.21416,0.066,0.952,-0.106,192,0,0,0,0,0,0,0,0,0,1.71E+09,0, 2024-03-15 15:23:08.038
57,-6450.936967,-19139.5082,-7988.982855,-14032.1346,-5916.707923,11029.60241,-4545.964843,9999.902248,0.066,0.952,-0.106,192,0,0,0,0,0,0,0,0,0,1.71E+09,0, 2024-03-15 15:23:08.038
58,-8244.485646,-18874.97531,-7942.223006,-14006.45244,-7306.539393,10370.29301,-5942.233615,5476.043281,0.066,0.952,-0.106,192,0,0,0,0,0,0,0,0,0,1.71E+09,0, 2024-03-15 15:23:08.038
59,-8674.28734,-18956.06744,-7868.194028,-13934.8151,-6595.038664,10479.90596,-5379.751966,4547.149485,0.066,0.952,-0.106,192,0,0,0,0,0,0,0,0,0,1.71E+09,0, 2024-03-15 15:23:08.038
60,-7253.722221,-19246.4613,-7875.033662,-13936.29032,-4900.865841,11155.46508,-3733.702449,8449.831122,0.064,0.948,-0.108,192,2,0,29,160,252,160,0,0,0,1.71E+09,0, 2024-03-15 15:23:08.038
61,-5976.454136,-19343.06554,-7934.601061,-13984.23481,-4531.659726,11464.29914,-3265.120478,11644.34244,0.064,0.948,-0.108,192,0,0,0,0,0,0,0,0,0,1.71E+09,0, 2024-03-15 15:23:08.038
62,-6425.053647,-19133.65205,-7964.19477,-14012.3533,-5869.992777,11052.62471,-4495.181679,10047.9138,0.064,0.948,-0.108,192,0,0,0,0,0,0,0,0,0,1.71E+09,0, 2024-03-15 15:23:08.038
63,-8224.525538,-18874.59533,-7927.694372,-13999.25518,-7282.131288,10385.35808,-5917.937269,5532.66025,0.064,0.948,-0.108,192,0,0,0,0,0,0,0,0,0,1.71E+09,0, 2024-03-15 15:23:08.038
64,-8673.952064,-18946.61265,-7851.676089,-13924.89093,-6593.608152,10487.97494,-5383.864687,4544.981366,0.064,0.948,-0.108,192,0,0,0,0,0,0,0,0,0,1.71E+09,0, 2024-03-15 15:23:08.038
65,-7253.856332,-19236.09009,-7865.198894,-13928.64602,-4899.927068,11158.39316,-3741.771429,8416.459968,0.064,0.948,-0.108,192,0,0,0,0,0,0,0,0,0,1.71E+09,0, 2024-03-15 15:23:08.038
66,-5971.737918,-19341.65738,-7934.399895,-13987.58757,-4526.272956,11457.79478,-3266.841563,11633.50184,0.064,0.948,-0.108,192,0,0,0,0,0,0,0,0,0,1.71E+09,0, 2024-03-15 15:23:08.038
67,-6408.915688,-19129.65109,-7968.709823,-14017.09187,-5864.337786,11048.10966,-4499.272048,10074.1771,0.064,0.948,-0.108,192,0,0,0,0,0,0,0,0,0,1.71E+09,0, 2024-03-15 15:23:08.038
68,-8194.730663,-18860.67019,-7932.187072,-13996.37181,-7288.590942,10383.16761,-5927.995554,5551.592177,0.064,0.948,-0.108,192,0,0,0,0,0,0,0,0,0,1.71E+09,0, 2024-03-15 15:23:08.038
69,-8653.097886,-18931.61463,-7862.717851,-13927.23786,-6617.680981,10477.2461,-5404.02596,4525.311831,0.064,0.948,-0.108,192,0,0,0,0,0,0,0,0,0,1.71E+09,0, 2024-03-15 15:23:08.038
70,-7249.028355,-19218.52162,-7878.051147,-13931.39528,-4922.770551,11148.26782,-3763.787897,8380.205438,0.062,0.95,-0.11,192,1,240,29,176,252,144,0,0,0,1.71E+09,0, 2024-03-15 15:23:08.038
71,-5972.117898,-19328.4922,-7951.297814,-13990.94033,-4538.991098,11454.35261,-3280.453775,11630.52906,0.062,0.95,-0.11,192,0,0,0,0,0,0,0,0,0,1.71E+09,0, 2024-03-15 15:23:08.038
72,-6394.319999,-19119.39163,-7978.499887,-14015.28138,-5862.773164,11053.02704,-4494.667589,10110.43162,0.062,0.95,-0.11,192,0,0,0,0,0,0,0,0,0,1.71E+09,0, 2024-03-15 15:23:08.038
73,-8185.901724,-18856.02103,-7944.793456,-13999.05401,-7294.000065,10381.87121,-5927.95085,5587.89141,0.062,0.95,-0.11,192,0,0,0,0,0,0,0,0,0,1.71E+09,0, 2024-03-15 15:23:08.038
74,-8675.270817,-18926.22786,-7876.710043,-13930.18829,-6647.922891,10467.6125,-5431.496254,4508.346857,0.062,0.95,-0.11,192,0,0,0,0,0,0,0,0,0,1.71E+09,0, 2024-03-15 15:23:08.038
75,-7280.343149,-19217.35933,-7888.534115,-13930.41181,-4956.432278,11137.74015,-3793.359255,8331.679801,0.062,0.95,-0.11,192,0,0,0,0,0,0,0,0,0,1.71E+09,0, 2024-03-15 15:23:08.038
76,-5969.793316,-19318.90331,-7946.805113,-13976.59051,-4539.169912,11457.4148,-3282.800708,11607.12679,0.062,0.95,-0.11,192,0,0,0,0,0,0,0,0,0,1.71E+09,0, 2024-03-15 15:23:08.038
77,-6372.348234,-19118.31875,-7977.248189,-14009.20171,-5850.278538,11054.56931,-4486.755071,10122.23335,0.062,0.95,-0.11,192,0,0,0,0,0,0,0,0,0,1.71E+09,0, 2024-03-15 15:23:08.038
78,-8174.32352,-18863.77708,-7953.287119,-14006.02776,-7298.246896,10372.1035,-5932.912938,5609.639658,0.062,0.95,-0.11,192,0,0,0,0,0,0,0,0,0,1.71E+09,0, 2024-03-15 15:23:08.038
79,-8690.55941,-18935.81676,-7888.690578,-13937.34085,-6668.888827,10449.84286,-5452.462191,4497.528612,0.062,0.95,-0.11,192,0,0,0,0,0,0,0,0,0,1.71E+09,0, 2024-03-15 15:23:08.038
80,-7298.9398,-19219.32628,-7888.400005,-13927.52843,-4960.075612,11125.87138,-3797.024941,8312.345542,0.062,0.952,-0.118,192,1,240,29,192,252,80,0,0,0,1.71E+09,0, 2024-03-15 15:23:08.038
81,-5990.647494,-19327.26286,-7945.843988,-13974.69061,-4529.446903,11448.63057,-3268.741461,11608.73611,0.062,0.952,-0.118,192,0,0,0,0,0,0,0,0,0,1.71E+09,0, 2024-03-15 15:23:08.038
82,-6383.613513,-19139.97759,-7990.391015,-14017.02482,-5837.202768,11052.11062,-4463.173981,10189.64621,0.062,0.952,-0.118,192,0,0,0,0,0,0,0,0,0,1.71E+09,0, 2024-03-15 15:23:08.038
83,-8181.006692,-18875.37764,-7957.824523,-14007.90531,-7296.50346,10371.23178,-5921.960583,5665.988405,0.062,0.952,-0.118,192,0,0,0,0,0,0,0,0,0,1.71E+09,0, 2024-03-15 15:23:08.038
84,-8694.985055,-18930.40764,-7873.334929,-13927.41667,-6667.190095,10450.06638,-5436.81597,4491.560697,0.062,0.952,-0.118,192,0,0,0,0,0,0,0,0,0,1.71E+09,0, 2024-03-15 15:23:08.038
85,-7320.375123,-19223.48371,-7884.779022,-13928.28839,-4968.189295,11118.54,-3792.91222,8274.079355,0.062,0.952,-0.118,192,0,0,0,0,0,0,0,0,0,1.71E+09,0, 2024-03-15 15:23:08.038
86,-6006.964267,-19338.61754,-7944.726401,-13980.81499,-4521.914366,11448.11648,-3251.620025,11607.21619,0.062,0.952,-0.118,192,0,0,0,0,0,0,0,0,0,1.71E+09,0, 2024-03-15 15:23:08.038
87,-6372.191772,-19140.98342,-7973.068413,-14010.4087,-5803.988076,11065.43226,-4425.86892,10233.32152,0.062,0.952,-0.118,192,0,0,0,0,0,0,0,0,0,1.71E+09,0, 2024-03-15 15:23:08.038
88,-8157.760877,-18872.51662,-7936.813883,-13997.44469,-7262.886436,10392.0636,-5885.214315,5725.24288,0.062,0.952,-0.118,192,0,0,0,0,0,0,0,0,0,1.71E+09,0, 2024-03-15 15:23:08.038
89,-8712.441768,-18926.22786,-7857.956929,-13920.10765,-6670.520505,10455.16258,-5448.148304,4482.754109,0.062,0.952,-0.118,192,0,0,0,0,0,0,0,0,0,1.71E+09,0, 2024-03-15 15:23:08.038
90,-7351.578158,-19221.36029,-7868.976339,-13920.0406,-4966.132935,11120.14933,-3804.848052,8236.573128,0.066,0.956,-0.114,192,2,16,29,224,252,112,0,0,0,1.71E+09,0, 2024-03-15 15:23:08.038
91,-6018.698933,-19342.68556,-7933.975212,-13975.07059,-4505.508185,11451.26807,-3248.937815,11605.29394,0.066,0.956,-0.114,192,0,0,0,0,0,0,0,0,0,1.71E+09,0, 2024-03-15 15:23:08.518
92,-6358.400745,-19147.55483,-7964.172419,-14001.55741,-5777.52361,11076.58578,-4409.909774,10278.09206,0.066,0.956,-0.114,192,0,0,0,0,0,0,0,0,0,1.71E+09,0, 2024-03-15 15:23:08.518
93,-8151.033002,-18872.06958,-7930.980078,-13985.73237,-7259.98071,10395.99751,-5891.94219,5750.500351,0.066,0.956,-0.114,192,0,0,0,0,0,0,0,0,0,1.71E+09,0, 2024-03-15 15:23:08.518
94,-8719.057884,-18925.4232,-7858.023984,-13909.08824,-6687.016092,10451.22867,-5467.169639,4453.383917,0.066,0.956,-0.114,192,0,0,0,0,0,0,0,0,0,1.71E+09,0, 2024-03-15 15:23:08.518
95,-7358.686013,-19215.7053,-7870.585665,-13910.87638,-4984.684883,11117.57888,-3828.898529,8187.019311,0.066,0.956,-0.114,192,0,0,0,0,0,0,0,0,0,1.71E+09,0, 2024-03-15 15:23:08.518
96,-6018.27425,-19341.12094,-7942.334764,-13972.63425,-4513.353647,11446.75302,-3262.058289,11595.25801,0.066,0.956,-0.114,192,0,0,0,0,0,0,0,0,0,1.71E+09,0, 2024-03-15 15:23:08.518
97,-6354.444486,-19149.67825,-7978.902218,-14006.74301,-5781.524573,11072.45071,-4420.258632,10308.84806,0.066,0.956,-0.114,192,0,0,0,0,0,0,0,0,0,1.71E+09,0, 2024-03-15 15:23:08.518
98,-8138.694839,-18876.51758,-7950.157875,-13997.15412,-7271.804782,10390.7672,-5909.085978,5791.269933,0.066,0.956,-0.114,192,0,0,0,0,0,0,0,0,0,1.71E+09,0, 2024-03-15 15:23:08.518
99,-8715.861585,-18907.65356,-7860.348566,-13909.57998,-6710.775997,10443.13734,-5499.557316,4418.962231,0.066,0.956,-0.114,192,0,0,0,0,0,0,0,0,0,1.71E+09,0, 2024-03-15 15:23:08.518
100,-7359.356565,-19203.45655,-7875.033662,-13912.91039,-4998.386502,11107.6547,-3841.326099,8128.301278,0.06,0.954,-0.106,192,1,224,29,208,252,176,0,0,0,1.71E+09,0, 2024-03-15 15:23:08.518
101,-6028.131369,-19341.34446,-7956.483419,-13984.97242,-4516.371133,11441.74623,-3261.43244,11566.37956,0.06,0.954,-0.106,192,0,0,0,0,0,0,0,0,0,1.71E+09,0, 2024-03-15 15:23:08.518
102,-6344.296794,-19160.85412,-7999.93521,-14027.37367,-5768.471154,11066.21457,-4404.053617,10341.36985,0.06,0.954,-0.106,192,0,0,0,0,0,0,0,0,0,1.71E+09,0, 2024-03-15 15:23:08.518
103,-8120.76874,-18879.19979,-7962.384279,-14011.16866,-7265.970977,10382.65352,-5899.899411,5819.008448,0.06,0.954,-0.106,192,0,0,0,0,0,0,0,0,0,1.71E+09,0, 2024-03-15 15:23:08.518
104,-8732.312469,-18923.85857,-7886.656569,-13937.58672,-6738.134532,10418.2822,-5515.963497,4408.367504,0.06,0.954,-0.106,192,0,0,0,0,0,0,0,0,0,1.71E+09,0, 2024-03-15 15:23:08.518
105,-7404.283572,-19216.50996,-7897.56422,-13934.79275,-5029.790703,11077.43515,-3866.158887,8080.625007,0.06,0.954,-0.106,192,0,0,0,0,0,0,0,0,0,1.71E+09,0, 2024-03-15 15:23:08.518
106,-6033.65225,-19346.46301,-7964.798267,-13991.81205,-4512.571336,11430.03391,-3250.480086,11564.77023,0.06,0.954,-0.106,192,0,0,0,0,0,0,0,0,0,1.71E+09,0, 2024-03-15 15:23:08.518
107,-6321.43096,-19160.36238,-8004.360855,-14028.3348,-5760.469229,11067.89095,-4388.675617,10381.98297,0.06,0.954,-0.106,192,0,0,0,0,0,0,0,0,0,1.71E+09,0, 2024-03-15 15:23:08.518
108,-8105.882478,-18880.5856,-7969.380375,-14012.77799,-7268.384965,10385.31338,-5889.483498,5862.415536,0.06,0.954,-0.106,192,0,0,0,0,0,0,0,0,0,1.71E+09,0, 2024-03-15 15:23:08.518
109,-8742.862492,-18923.09861,-7889.696406,-13936.96087,-6755.345375,10408.17921,-5521.596136,4409.038056,0.06,0.954,-0.106,192,0,0,0,0,0,0,0,0,0,1.71E+09,0, 2024-03-15 15:23:08.518
110,-7419.50511,-19214.92299,-7897.899496,-13934.90451,-5046.487456,11063.88999,-3874.138459,8055.255777,0.06,0.954,-0.108,192,1,224,29,208,252,160,0,0,0,1.71E+09,0, 2024-03-15 15:23:08.518
111,-6042.458837,-19340.00335,-7953.17536,-13981.10556,-4507.050455,11423.95424,-3240.913539,11556.83536,0.06,0.954,-0.108,192,0,0,0,0,0,0,0,0,0,1.71E+09,0, 2024-03-15 15:23:08.518
112,-6311.685599,-19154.81915,-7985.183058,-14013.15797,-5727.634517,11076.83165,-4347.883683,10416.76228,0.06,0.954,-0.108,192,0,0,0,0,0,0,0,0,0,1.71E+09,0, 2024-03-15 15:23:08.518
113,-8092.31497,-18881.77024,-7959.053869,-14006.09481,-7248.134285,10388.84495,-5861.409707,5912.95283,0.06,0.954,-0.108,192,0,0,0,0,0,0,0,0,0,1.71E+09,0, 2024-03-15 15:23:08.518
114,-8743.421286,-18914.85082,-7873.938426,-13925.85205,-6752.774924,10409.38621,-5518.064561,4397.638666,0.06,0.954,-0.108,192,0,0,0,0,0,0,0,0,0,1.71E+09,0, 2024-03-15 15:23:08.518
115,-7418.007543,-19205.53526,-7876.307711,-13921.20289,-5036.228005,11072.67422,-3859.833343,8020.543518,0.06,0.954,-0.108,192,0,0,0,0,0,0,0,0,0,1.71E+09,0, 2024-03-15 15:23:08.518
116,-6041.967099,-19350.39691,-7950.962538,-13985.03947,-4496.209859,11427.48581,-3224.328545,11563.58559,0.06,0.954,-0.108,192,0,0,0,0,0,0,0,0,0,1.71E+09,0, 2024-03-15 15:23:08.518
117,-6300.755596,-19163.91631,-7983.238457,-14014.65553,-5711.116578,11083.8501,-4334.226767,10469.75827,0.06,0.954,-0.108,192,0,0,0,0,0,0,0,0,0,1.71E+09,0, 2024-03-15 15:23:08.518
118,-8066.543408,-18879.80329,-7946.648651,-13999.90338,-7229.425875,10401.5631,-5841.539006,5964.473601,0.06,0.954,-0.108,192,0,0,0,0,0,0,0,0,0,1.71E+09,0, 2024-03-15 15:23:08.518
119,-8740.292041,-18915.40961,-7872.664377,-13931.14941,-6762.609692,10410.95083,-5516.879918,4415.184786,0.06,0.954,-0.108,192,0,0,0,0,0,0,0,0,0,1.71E+09,0, 2024-03-15 15:23:08.518
120,-7445.52254,-19202.13779,-7882.5662,-13933.09402,-5064.279445,11067.24275,-3890.902268,7984.803079,0.058,0.962,-0.112,192,1,208,30,16,252,128,0,0,0,1.71E+09,0, 2024-03-15 15:23:08.518
121,-6049.812561,-19339.95865,-7952.616567,-13996.30475,-4496.366322,11436.8512,-3233.045725,11540.33977,0.058,0.962,-0.112,192,0,0,0,0,0,0,0,0,0,1.71E+09,0, 2024-03-15 15:23:08.518
122,-6277.196858,-19157.81428,-7993.386149,-14035.08503,-5695.537412,11103.63139,-4319.698133,10506.57159,0.058,0.962,-0.112,192,0,0,0,0,0,0,0,0,0,1.71E+09,0, 2024-03-15 15:23:08.518
123,-8048.796123,-18875.08707,-7971.526143,-14029.60885,-7242.680459,10411.82255,-5857.364041,6002.695084,0.058,0.962,-0.112,192,0,0,0,0,0,0,0,0,0,1.71E+09,0, 2024-03-15 15:23:08.518
124,-8753.792495,-18899.11519,-7894.367921,-13955.53517,-6806.486166,10410.19087,-5568.870076,4373.811707,0.058,0.962,-0.112,192,0,0,0,0,0,0,0,0,0,1.71E+09,0, 2024-03-15 15:23:08.518
125,-7451.870436,-19177.50617,-7886.4107,-13942.59351,-5083.926628,11079.55856,-3913.455178,7909.99179,0.058,0.962,-0.112,192,0,0,0,0,0,0,0,0,0,1.71E+09,0, 2024-03-15 15:23:08.518
126,-6042.414134,-19313.98592,-7947.967404,-13995.7236,-4488.051473,11461.05814,-3232.241062,11491.76943,0.058,0.962,-0.112,192,0,0,0,0,0,0,0,0,0,1.71E+09,0, 2024-03-15 15:23:08.518
127,-6257.639081,-19149.72295,-7998.549402,-14040.06947,-5675.91258,11127.65951,-4306.376494,10515.6911,0.058,0.962,-0.112,192,0,0,0,0,0,0,0,0,0,1.71E+09,0, 2024-03-15 15:23:08.518
128,-8025.282088,-18870.16968,-7972.174343,-14039.57773,-7231.728105,10434.04018,-5844.91412,6030.143026,0.058,0.962,-0.112,192,0,0,0,0,0,0,0,0,0,1.71E+09,0, 2024-03-15 15:23:08.518
129,-8743.018954,-18893.63902,-7889.919924,-13966.62163,-6806.754387,10425.45711,-5566.389032,4351.795238,0.058,0.962,-0.112,192,0,0,0,0,0,0,0,0,0,1.71E+09,0, 2024-03-15 15:23:08.518
130,-7469.193038,-19191.58777,-7899.084139,-13966.88985,-5099.215221,11076.00463,-3927.804998,7864.438935,0.058,0.962,-0.112,192,0,0,0,0,0,0,0,0,0,1.71E+09,0, 2024-03-15 15:23:08.518
131,-6066.464611,-19342.66321,-7969.134506,-14026.77018,-4495.136976,11453.95028,-3235.012679,11484.9745,0.056,0.958,-0.108,192,1,192,29,240,252,160,0,0,0,1.71E+09,0, 2024-03-15 15:23:08.518
132,-6264.769288,-19162.5305,-8000.896335,-14055.91685,-5668.536504,11134.5215,-4293.926572,10539.67453,0.056,0.958,-0.108,192,0,0,0,0,0,0,0,0,0,1.71E+09,0, 2024-03-15 15:23:08.518
133,-8012.787463,-18880.29502,-7971.88377,-14047.08791,-7222.966221,10446.17718,-5830.430189,6068.63273,0.056,0.958,-0.108,192,0,0,0,0,0,0,0,0,0,1.71E+09,0, 2024-03-15 15:23:08.518
134,-8751.132637,-18905.68661,-7892.423319,-13972.5672,-6820.634821,10423.19958,-5566.098459,4357.383175,0.056,0.958,-0.108,192,0,0,0,0,0,0,0,0,0,1.71E+09,0, 2024-03-15 15:23:08.518
135,-7503.234744,-19204.03769,-7903.286267,-13974.82472,-5124.875024,11062.83946,-3942.087763,7826.038638,0.056,0.958,-0.108,192,0,0,0,0,0,0,0,0,0,1.71E+09,0, 2024-03-15 15:23:08.518
136,-6080.367396,-19347.80411,-7961.378451,-14025.92081,-4492.164194,11451.87157,-3229.13417,11460.05231,0.056,0.958,-0.108,192,0,0,0,0,0,0,0,0,0,1.71E+09,0, 2024-03-15 15:23:08.518
137,-6252.654642,-19173.79578,-7996.269524,-14058.71082,-5643.636661,11135.25911,-4270.099612,10573.89505,0.056,0.958,-0.108,192,0,0,0,0,0,0,0,0,0,1.71E+09,0, 2024-03-15 15:23:08.518
138,-7998.549402,-18890.10744,-7973.180172,-14054.75456,-7211.455072,10438.64464,-5824.439922,6108.038856,0.056,0.958,-0.108,192,0,0,0,0,0,0,0,0,0,1.71E+09,0, 2024-03-15 15:23:08.518
139,-8758.799286,-18908.03354,-7892.043339,-13979.98798,-6841.176074,10407.06163,-5596.876812,4334.360878,0.056,0.958,-0.108,192,0,0,0,0,0,0,0,0,0,1.71E+09,0, 2024-03-15 15:23:08.518
140,-7511.169614,-19189.28554,-7882.432089,-13965.28053,-5127.110198,11060.85015,-3958.091612,7775.948379,0.056,0.958,-0.108,192,0,0,0,0,0,0,0,0,0,1.71E+09,0, 2024-03-15 15:23:08.518
141,-6079.853306,-19333.78957,-7940.211349,-14013.78381,-4478.082595,11454.93376,-3225.80376,11428.93868,0.054,0.948,-0.106,192,1,176,29,160,252,176,0,0,0,1.71E+09,0, 2024-03-15 15:23:08.518
142,-6236.941366,-19168.2302,-7980.086861,-14049.47955,-5621.888414,11140.57882,-4257.269711,10586.43437,0.054,0.948,-0.106,192,0,0,0,0,0,0,0,0,0,1.71E+09,0, 2024-03-15 15:23:08.518
143,-7965.334709,-18876.87521,-7946.313375,-14036.26967,-7189.25979,10449.21702,-5804.770387,6126.747266,0.054,0.948,-0.106,192,0,0,0,0,0,0,0,0,0,1.71E+09,0, 2024-03-15 15:23:08.518
144,-8734.480588,-18885.70415,-7863.544865,-13954.77521,-6829.933146,10414.92944,-5586.304436,4309.393979,0.054,0.948,-0.106,192,0,0,0,0,0,0,0,0,0,1.71E+09,0, 2024-03-15 15:23:08.518
145,-7502.631247,-19174.91337,-7870.697423,-13948.40496,-5126.976088,11060.60428,-3956.28112,7721.499529,0.054,0.948,-0.106,192,0,0,0,0,0,0,0,0,0,1.71E+09,0, 2024-03-15 15:23:08.518
146,-6076.344082,-19333.23077,-7940.770142,-14009.82756,-4474.059281,11454.1738,-3215.834882,11408.39743,0.054,0.948,-0.106,192,0,0,0,0,0,0,0,0,0,1.71E+09,0, 2024-03-15 15:23:08.518
147,-6224.223223,-19169.90658,-7978.768108,-14043.64574,-5605.839861,11145.11623,-4231.11817,10601.27593,0.054,0.948,-0.106,192,0,0,0,0,0,0,0,0,0,1.71E+09,0, 2024-03-15 15:23:08.518
148,-7954.248244,-18890.95681,-7961.333747,-14046.48442,-7191.897296,10444.88078,-5795.06973,6160.207827,0.054,0.948,-0.106,192,0,0,0,0,0,0,0,0,0,1.71E+09,0, 2024-03-15 15:23:08.518
149,-8756.787629,-18894.73425,-7877.134726,-13969.12503,-6862.812562,10397.20451,-5609.818472,4275.329921,0.054,0.948,-0.106,192,0,0,0,0,0,0,0,0,0,1.71E+09,0, 2024-03-15 15:23:08.518
150,-7534.907166,-19175.04748,-7868.395194,-13946.68388,-5148.701984,11051.12714,-3970.094498,7653.304357,0.054,0.948,-0.106,192,0,0,0,0,0,0,0,0,0,1.71E+09,0, 2024-03-15 15:23:08.518
151,-6091.789137,-19332.51552,-7934.668116,-14001.51271,-4470.326539,11454.822,-3211.029257,11358.62009,0.06,0.948,-0.11,192,1,224,29,160,252,144,0,0,0,1.71E+09,0, 2024-03-15 15:23:08.518
152,-6206.297124,-19170.28656,-7975.191829,-14037.90135,-5585.075091,11159.42134,-4206.352437,10616.16219,0.06,0.948,-0.11,192,0,0,0,0,0,0,0,0,0,1.71E+09,0, 2024-03-15 15:23:08.518
153,-7935.405724,-18885.90531,-7956.058735,-14038.25897,-7177.525124,10460.92933,-5772.941503,6194.741272,0.06,0.948,-0.11,192,0,0,0,0,0,0,0,0,0,1.71E+09,0, 2024-03-15 15:23:08.518
154,-8770.019861,-18896.03065,-7882.141516,-13967.58276,-6884.493754,10397.49508,-5621.217861,4265.606912,0.06,0.948,-0.11,192,0,0,0,0,0,0,0,0,0,1.71E+09,0, 2024-03-15 15:23:08.518
155,-7568.680652,-19186.55863,-7885.13665,-13957.9268,-5182.520173,11042.70053,-3997.140109,7613.719417,0.06,0.948,-0.11,192,0,0,0,0,0,0,0,0,0,1.71E+09,0, 2024-03-15 15:23:08.518
156,-6106.787158,-19348.3182,-7952.214235,-14013.80617,-4477.680263,11454.55378,-3213.040914,11358.39657,0.06,0.948,-0.11,192,0,0,0,0,0,0,0,0,0,1.71E+09,0, 2024-03-15 15:23:08.518
157,-6203.659618,-19188.7938,-7991.173326,-14048.92076,-5577.25198,11160.56128,-4198.350513,10662.20679,0.06,0.948,-0.11,192,0,0,0,0,0,0,0,0,0,1.71E+09,0, 2024-03-15 15:23:08.518
158,-7930.980078,-18902.19973,-7972.397861,-14049.16663,-7180.296741,10456.77191,-5775.668416,6247.334927,0.06,0.948,-0.11,192,0,0,0,0,0,0,0,0,0,1.71E+09,0, 2024-03-15 15:23:08.518
159,-8772.545609,-18899.18225,-7888.757633,-13971.40491,-6893.859135,10391.86244,-5626.71639,4282.907162,0.06,0.948,-0.11,192,0,0,0,0,0,0,0,0,0,1.71E+09,0, 2024-03-15 15:23:08.518
160,-7587.009083,-19180.4119,-7885.00254,-13957.05509,-5195.461833,11033.22339,-4005.61142,7568.054803,0.06,0.948,-0.11,192,0,0,0,0,0,0,0,0,0,1.71E+09,0, 2024-03-15 15:23:08.518
161,-6114.543213,-19337.41055,-7944.681697,-14004.93252,-4470.371243,11456.67719,-3200.233364,11322.902,0.06,0.954,-0.106,192,1,224,29,208,252,176,0,0,0,1.71E+09,0, 2024-03-15 15:23:08.518
162,-6204.665447,-19181.86476,-7990.770995,-14047.42319,-5567.663082,11170.30664,-4183.263085,10667.81708,0.06,0.954,-0.106,192,0,0,0,0,0,0,0,0,0,1.71E+09,0, 2024-03-15 15:23:08.518
163,-7915.467967,-18889.10161,-7962.630148,-14039.51067,-7171.937188,10473.58042,-5765.923055,6244.652718,0.06,0.954,-0.106,192,0,0,0,0,0,0,0,0,0,1.71E+09,0, 2024-03-15 15:23:08.518
164,-8764.700146,-18896.20947,-7887.751804,-13968.7674,-6905.169118,10397.58449,-5632.416085,4250.988871,0.06,0.954,-0.106,192,0,0,0,0,0,0,0,0,0,1.71E+09,0, 2024-03-15 15:23:08.518
165,-7587.701987,-19180.74717,-7886.567162,-13956.20572,-5203.419054,11036.84438,-4008.874775,7534.281318,0.06,0.954,-0.106,192,0,0,0,0,0,0,0,0,0,1.71E+09,0, 2024-03-15 15:23:08.518
166,-6132.044629,-19341.56797,-7951.431924,-14012.28625,-4477.702615,11453.34678,-3206.71537,11295.14114,0.06,0.954,-0.106,192,0,0,0,0,0,0,0,0,0,1.71E+09,0, 2024-03-15 15:23:08.518
167,-6195.85886,-19192.66065,-7997.163593,-14053.25699,-5551.525122,11174.39701,-4167.728623,10687.48661,0.06,0.954,-0.106,192,0,0,0,0,0,0,0,0,0,1.71E+09,0, 2024-03-15 15:23:08.518
168,-7897.743034,-18901.1045,-7973.694262,-14049.07722,-7165.321072,10477.8496,-5757.496447,6301.761425,0.06,0.954,-0.106,192,0,0,0,0,0,0,0,0,0,1.71E+09,0, 2024-03-15 15:23:08.518
169,-8779.474649,-18890.42036,-7887.282418,-13969.43795,-6922.201147,10398.09858,-5650.900978,4238.606005,0.06,0.954,-0.106,192,0,0,0,0,0,0,0,0,0,1.71E+09,0, 2024-03-15 15:23:08.518
170,-7617.318048,-19172.63349,-7883.192048,-13953.05412,-5219.065275,11038.43135,-4029.259566,7477.954921,0.06,0.954,-0.106,192,0,0,0,0,0,0,0,0,0,1.71E+09,0, 2024-03-15 15:23:08.518
171,-6140.337126,-19342.99849,-7951.878959,-14007.41357,-4470.661815,11463.24861,-3208.12353,11274.08579,0.062,0.956,-0.11,192,1,240,29,224,252,144,0,0,0,1.71E+09,0, 2024-03-15 15:23:08.518
172,-6183.18542,-19194.98523,-7994.637846,-14044.27159,-5530.514482,11193.59716,-4155.122239,10724.43404,0.062,0.956,-0.11,192,0,0,0,0,0,0,0,0,0,1.71E+09,0, 2024-03-15 15:23:08.518
173,-7881.985054,-18902.15503,-7970.073279,-14039.04129,-7148.713726,10497.74265,-5741.202026,6341.815751,0.062,0.956,-0.11,192,0,0,0,0,0,0,0,0,0,1.71E+09,0, 2024-03-15 15:23:08.518
174,-8786.448394,-18892.72259,-7892.892706,-13965.83932,-6937.35563,10400.69138,-5666.43544,4222.780969,0.062,0.956,-0.11,192,0,0,0,0,0,0,0,0,0,1.71E+09,0, 2024-03-15 15:23:08.518
175,-7631.220833,-19168.67723,-7882.5662,-13940.85007,-5232.364563,11042.34291,-4046.805685,7425.003639,0.062,0.956,-0.11,192,0,0,0,0,0,0,0,0,0,1.71E+09,0, 2024-03-15 15:23:08.518
176,-6144.405144,-19337.4329,-7946.425134,-13995.25422,-4466.057356,11473.35159,-3198.199355,11259.37834,0.062,0.956,-0.11,192,0,0,0,0,0,0,0,0,0,1.71E+09,0, 2024-03-15 15:23:08.518
177,-6176.993987,-19190.58194,-7994.414329,-14040.67296,-5521.596136,11198.82747,-4133.932785,10748.57393,0.062,0.956,-0.11,192,0,0,0,0,0,0,0,0,0,1.71E+09,0, 2024-03-15 15:23:08.518
178,-7865.735336,-18896.12006,-7971.347329,-14037.14139,-7147.014993,10495.57453,-5734.697668,6372.68351,0.062,0.956,-0.11,192,0,0,0,0,0,0,0,0,0,1.71E+09,0, 2024-03-15 15:23:08.518
179,-8776.255998,-18881.12204,-7889.539944,-13962.3301,-6947.235101,10390.47663,-5678.438327,4209.392275,0.062,0.956,-0.11,192,0,0,0,0,0,0,0,0,0,1.71E+09,0, 2024-03-15 15:23:08.518
180,-7637.814598,-19156.83081,-7880.219266,-13945.52159,-5245.77561,11023.6345,-4062.898941,7382.512973,0.062,0.956,-0.11,192,0,0,0,0,0,0,0,0,0,1.71E+09,0, 2024-03-15 15:23:08.518
181,-6152.563531,-19330.66032,-7950.291985,-14003.18909,-4467.085536,11458.80061,-3201.619172,11248.11307,0.058,0.95,-0.118,192,1,208,29,176,252,80,0,0,0,1.71E+09,0, 2024-03-15 15:23:08.518
182,-6167.561551,-19188.27971,-7999.734044,-14045.94797,-5508.967401,11192.09959,-4124.76857,10793.50094,0.058,0.95,-0.118,192,0,0,0,0,0,0,0,0,0,1.71E+09,0, 2024-03-15 15:23:08.518
183,-7845.886987,-18896.94707,-7978.388128,-14040.5165,-7139.504807,10490.6348,-5725.868729,6436.318926,0.058,0.95,-0.118,192,0,0,0,0,0,0,0,0,0,1.71E+09,0, 2024-03-15 15:23:08.518
184,-8784.146164,-18882.37374,-7897.519517,-13965.14642,-6967.016395,10377.02088,-5692.899906,4219.808187,0.058,0.95,-0.118,192,0,0,0,0,0,0,0,0,0,1.71E+09,0, 2024-03-15 15:23:08.518
185,-7665.77663,-19155.82498,-7884.711967,-13942.92878,-5269.848438,11006.4013,-4085.56361,7335.32844,0.058,0.95,-0.118,192,0,0,0,0,0,0,0,0,0,1.71E+09,0, 2024-03-15 15:23:08.518
186,-6160.386641,-19329.60979,-7946.022802,-13992.95199,-4463.732775,11451.98333,-3202.937925,11217.40177,0.058,0.95,-0.118,192,0,0,0,0,0,0,0,0,0,1.71E+09,0, 2024-03-15 15:23:08.518
187,-6142.281728,-19185.53045,-7986.635922,-14027.10545,-5477.943179,11207.29878,-4098.460567,10825.86626,0.058,0.95,-0.118,192,0,0,0,0,0,0,0,0,0,1.71E+09,0, 2024-03-15 15:23:08.518
188,-7814.28162,-18895.98595,-7970.989701,-14032.67104,-7117.689504,10498.34615,-5704.254592,6482.36352,0.058,0.95,-0.118,192,0,0,0,0,0,0,0,0,0,1.71E+09,0, 2024-03-15 15:23:08.518
189,-8774.646673,-18878.86451,-7895.329046,-13965.32523,-6968.312796,10369.17542,-5687.356673,4214.801397,0.058,0.95,-0.118,192,0,0,0,0,0,0,0,0,0,1.71E+09,0, 2024-03-15 15:23:08.518
190,-7664.659043,-19153.88038,-7885.13665,-13945.29807,-5273.692939,10993.90668,-4080.445061,7304.237164,0.058,0.95,-0.118,192,0,0,0,0,0,0,0,0,0,1.71E+09,0, 2024-03-15 15:23:08.518
191,-6162.197132,-19332.60492,-7948.235625,-14000.05984,-4460.46942,11435.33128,-3188.297533,11198.73806,0.058,0.956,-0.12,192,1,208,29,224,252,64,0,0,0,1.71E+09,0, 2024-03-15 15:23:08.518
192,-6144.069868,-19202.62953,-8001.0975,-14048.2502,-5470.745918,11181.21429,-4082.367311,10851.90604,0.058,0.956,-0.12,192,0,0,0,0,0,0,0,0,0,1.71E+09,0, 2024-03-15 15:23:08.518
193,-7811.219431,-18914.64966,-7989.094614,-14056.87798,-7119.120016,10472.99927,-5698.376083,6531.202082,0.058,0.956,-0.12,192,0,0,0,0,0,0,0,0,0,1.71E+09,0, 2024-03-15 15:23:08.518
194,-8774.512562,-18877.45635,-7899.911153,-13974.24358,-6983.668445,10348.433,-5694.643342,4202.977324,0.058,0.956,-0.12,192,0,0,0,0,0,0,0,0,0,1.71E+09,0, 2024-03-15 15:23:08.518
195,-7679.187677,-19155.24383,-7895.954895,-13954.95402,-5294.368302,10970.57145,-4097.521794,7265.166314,0.058,0.956,-0.12,192,0,0,0,0,0,0,0,0,0,1.71E+09,0, 2024-03-15 15:23:08.518
196,-6176.211676,-19330.88384,-7958.696241,-14009.82756,-4467.376109,11420.80264,-3199.987495,11178.86736,0.058,0.956,-0.12,192,0,0,0,0,0,0,0,0,0,1.71E+09,0, 2024-03-15 15:23:08.518
197,-6125.048533,-19192.61595,-8004.070282,-14050.30656,-5456.731374,11186.10933,-4071.861991,10871.8885,0.058,0.956,-0.12,192,0,0,0,0,0,0,0,0,0,1.71E+09,0, 2024-03-15 15:23:08.518
198,-7772.059175,-18901.7527,-7991.016864,-14054.35223,-7109.888746,10485.44919,-5691.894077,6575.63735,0.058,0.956,-0.12,192,0,0,0,0,0,0,0,0,0,1.71E+09,0, 2024-03-15 15:23:08.518
199,-8776.121888,-18878.43983,-7914.797415,-13984.07835,-7016.681971,10334.10553,-5731.702534,4200.116301,0.058,0.956,-0.12,192,0,0,0,0,0,0,0,0,0,1.71E+09,0, 2024-03-15 15:23:08.518
200,-7709.876622,-19157.3896,-7905.25322,-13964.49822,-5334.176759,10946.61038,-4140.683012,7195.160651,0.058,0.956,-0.12,192,0,0,0,0,0,0,0,0,0,1.71E+09,0, 2024-03-15 15:23:08.518
201,-6177.016339,-19337.18703,-7958.830352,-14010.90044,-4469.410118,11415.99702,-3200.121605,11148.67015,0.062,0.952,-0.116,192,1,240,29,192,252,96,0,0,0,1.71E+09,0, 2024-03-15 15:23:08.518
202,-6103.747321,-19201.31078,-8000.896335,-14044.65157,-5437.687688,11193.01602,-4047.185665,10908.54536,0.062,0.952,-0.116,192,0,0,0,0,0,0,0,0,0,1.71E+09,0, 2024-03-15 15:23:08.518
203,-7762.336166,-18903.78671,-7983.305512,-14044.09278,-7100.299847,10492.44529,-5676.650188,6611.601306,0.062,0.952,-0.116,192,0,0,0,0,0,0,0,0,0,1.71E+09,0, 2024-03-15 15:23:08.518
204,-8795.769071,-18869.20856,-7901.654589,-13971.89665,-7026.337925,10337.52535,-5731.344906,4174.814126,0.062,0.952,-0.116,192,0,0,0,0,0,0,0,0,0,1.71E+09,0, 2024-03-15 15:23:08.518
205,-7736.452846,-19150.77348,-7897.787738,-13954.17171,-5346.514922,10947.83973,-4141.085343,7144.355135,0.062,0.952,-0.116,192,0,0,0,0,0,0,0,0,0,1.71E+09,0, 2024-03-15 15:23:08.518
206,-6192.684912,-19332.2473,-7955.723459,-14004.10551,-4471.35472,11419.41684,-3193.147861,11128.75475,0.062,0.952,-0.116,192,0,0,0,0,0,0,0,0,0,1.71E+09,0, 2024-03-15 15:23:08.518
207,-6103.277934,-19193.21945,-7995.755434,-14039.24245,-5424.52251,11201.57673,-4027.605537,10925.77856,0.062,0.952,-0.116,192,0,0,0,0,0,0,0,0,0,1.71E+09,0, 2024-03-15 15:23:08.518
208,-7748.67925,-18904.70313,-7986.770032,-14046.32795,-7090.420376,10494.43459,-5656.354804,6661.400993,0.062,0.952,-0.116,192,0,0,0,0,0,0,0,0,0,1.71E+09,0, 2024-03-15 15:23:08.518
209,-8783.743833,-18864.53704,-7903.576839,-13973.46127,-7032.462303,10330.5516,-5734.272985,4197.367036,0.062,0.952,-0.116,192,0,0,0,0,0,0,0,0,0,1.71E+09,0, 2024-03-15 15:23:08.518
210,-7731.870738,-19132.48976,-7886.142479,-13945.20866,-5352.527541,10944.8893,-4152.797658,7120.997563,0.062,0.952,-0.116,192,0,0,0,0,0,0,0,0,0,1.71E+09,0, 2024-03-15 15:23:08.518
211,-6195.702397,-19324.06656,-7947.810942,-13996.59532,-4465.923246,11420.10974,-3193.192565,11114.09201,0.066,0.946,-0.118,192,2,16,29,144,252,80,0,0,0,1.71E+09,0, 2024-03-15 15:23:08.999
212,-6101.825071,-19200.08143,-7995.308399,-14037.9684,-5413.391341,11201.57673,-4017.413141,10954.41114,0.066,0.946,-0.118,192,0,0,0,0,0,0,0,0,0,1.71E+09,0, 2024-03-15 15:23:08.999
213,-7732.720105,-18913.30855,-7985.652445,-14045.63505,-7076.606998,10500.9166,-5644.083696,6701.388264,0.066,0.946,-0.118,192,0,0,0,0,0,0,0,0,0,1.71E+09,0, 2024-03-15 15:23:08.999
214,-8791.365777,-18872.85189,-7905.074406,-13974.78002,-7041.760628,10331.93741,-5742.677241,4193.500184,0.066,0.946,-0.118,192,0,0,0,0,0,0,0,0,0,1.71E+09,0, 2024-03-15 15:23:08.999
215,-7769.198152,-19142.68215,-7892.132746,-13953.05412,-5366.542085,10938.96609,-4168.086251,7067.375728,0.066,0.946,-0.118,192,0,0,0,0,0,0,0,0,0,1.71E+09,0, 2024-03-15 15:23:09.000
216,-6218.657639,-19334.05779,-7952.169532,-14006.25128,-4458.636577,11413.35951,-3186.062358,11081.36905,0.066,0.946,-0.118,192,0,0,0,0,0,0,0,0,0,1.71E+09,0, 2024-03-15 15:23:09.000
217,-6087.005864,-19202.42837,-7993.363797,-14042.81873,-5385.116385,11205.35418,-3989.384054,10982.66375,0.066,0.946,-0.118,192,0,0,0,0,0,0,0,0,0,1.71E+09,0, 2024-03-15 15:23:09.000
218,-7712.000038,-18914.04616,-7987.328826,-14056.60976,-7056.155152,10497.60854,-5623.095408,6742.515474,0.066,0.946,-0.118,192,0,0,0,0,0,0,0,0,0,1.71E+09,0, 2024-03-15 15:23:09.000
219,-8797.333693,-18876.76345,-7916.13852,-13996.9306,-7052.601224,10306.1435,-5748.287529,4195.958876,0.066,0.946,-0.118,192,0,0,0,0,0,0,0,0,0,1.71E+09,0, 2024-03-15 15:23:09.000
220,-7780.843411,-19142.41393,-7893.518554,-13966.15225,-5378.880248,10910.35586,-4171.483716,7031.121198,0.066,0.946,-0.118,192,0,0,0,0,0,0,0,0,0,1.71E+09,0, 2024-03-15 15:23:09.000
221,-6225.676087,-19339.15399,-7956.908102,-14020.10936,-4460.067089,11388.50437,-3188.409291,11060.7831,0.066,0.946,-0.108,192,2,16,29,144,252,160,0,0,0,1.71E+09,0, 2024-03-15 15:23:09.000
222,-6090.649198,-19206.92107,-7999.287009,-14054.53104,-5377.337978,11187.49513,-3991.395711,10993.21377,0.066,0.946,-0.108,192,0,0,0,0,0,0,0,0,0,1.71E+09,0, 2024-03-15 15:23:09.000
223,-7698.276067,-18907.56415,-7983.841954,-14055.62628,-7051.349527,10491.21594,-5624.66003,6774.344358,0.066,0.946,-0.108,192,0,0,0,0,0,0,0,0,0,1.71E+09,0, 2024-03-15 15:23:09.000
224,-8780.100498,-18856.28925,-7902.056921,-13981.03851,-7057.362146,10303.14837,-5763.330253,4172.713062,0.066,0.946,-0.108,192,0,0,0,0,0,0,0,0,0,1.71E+09,0, 2024-03-15 15:23:09.000
225,-7765.688928,-19121.69386,-7885.986017,-13948.76259,-5389.251457,10907.58424,-4194.707178,6988.362311,0.066,0.946,-0.108,192,0,0,0,0,0,0,0,0,0,1.71E+09,0, 2024-03-15 15:23:09.000
226,-6219.752874,-19320.31147,-7953.242416,-14001.57976,-4465.789135,11391.70067,-3202.379132,11047.75203,0.066,0.946,-0.108,192,0,0,0,0,0,0,0,0,0,1.71E+09,0, 2024-03-15 15:23:09.000
227,-6075.338253,-19201.06491,-8002.304495,-14043.77986,-5371.593579,11196.92757,-3988.489984,11033.06693,0.066,0.946,-0.108,192,0,0,0,0,0,0,0,0,0,1.71E+09,0, 2024-03-15 15:23:09.000
228,-7677.533648,-18904.03258,-7986.524163,-14047.49024,-7051.461286,10499.53079,-5622.558966,6823.96523,0.066,0.946,-0.108,192,0,0,0,0,0,0,0,0,0,1.71E+09,0, 2024-03-15 15:23:09.000
229,-8775.0043,-18855.03755,-7906.348456,-13973.39421,-7070.616731,10307.26109,-5767.688843,4192.337894,0.066,0.946,-0.108,192,0,0,0,0,0,0,0,0,0,1.71E+09,0, 2024-03-15 15:23:09.000
230,-7800.624704,-19124.64429,-7896.67015,-13951.28834,-5420.16392,10899.64937,-4223.116246,6957.85218,0.066,0.946,-0.108,192,0,0,0,0,0,0,0,0,0,1.71E+09,0, 2024-03-15 15:23:09.000
231,-6240.741162,-19312.3766,-7944.45818,-13991.92381,-4465.185638,11398.13797,-3200.658047,11013.59856,0.06,0.95,-0.106,192,1,224,29,176,252,176,0,0,0,1.71E+09,0, 2024-03-15 15:23:09.000
232,-6055.780477,-19193.91235,-7985.0713,-14026.03257,-5336.836617,11217.08884,-3950.939053,11056.17864,0.06,0.95,-0.106,192,0,0,0,0,0,0,0,0,0,1.71E+09,0, 2024-03-15 15:23:09.000
233,-7649.437505,-18906.15599,-7981.159744,-14039.75654,-7025.689724,10514.19354,-5595.334541,6877.207086,0.06,0.95,-0.106,192,0,0,0,0,0,0,0,0,0,1.71E+09,0, 2024-03-15 15:23:09.000
234,-8783.83324,-18845.76158,-7897.810089,-13963.64885,-7082.485507,10311.39616,-5778.350625,4174.47885,0.06,0.95,-0.106,192,0,0,0,0,0,0,0,0,0,1.71E+09,0, 2024-03-15 15:23:09.000
235,-7815.153338,-19116.57531,-7883.482621,-13937.25144,-5429.26108,10907.00309,-4226.603118,6899.93881,0.06,0.95,-0.106,192,0,0,0,0,0,0,0,0,0,1.71E+09,0, 2024-03-15 15:23:09.000
236,-6250.754744,-19317.5622,-7945.128732,-13989.21925,-4466.325577,11400.93194,-3198.020541,10987.29056,0.06,0.95,-0.106,192,0,0,0,0,0,0,0,0,0,1.71E+09,0, 2024-03-15 15:23:09.000
237,-6055.735774,-19201.75781,-7991.508602,-14030.05588,-5327.627698,11217.96056,-3939.696126,11081.27965,0.06,0.95,-0.106,192,0,0,0,0,0,0,0,0,0,1.71E+09,0, 2024-03-15 15:23:09.000
238,-7639.490979,-18910.76045,-7985.965369,-14040.60591,-7014.849128,10515.95932,-5580.135355,6924.771598,0.06,0.95,-0.106,192,0,0,0,0,0,0,0,0,0,1.71E+09,0, 2024-03-15 15:23:09.000
239,-8786.26958,-18856.49042,-7910.192956,-13971.40491,-7096.23183,10298.23098,-5783.916209,4181.206725,0.06,0.95,-0.106,192,0,0,0,0,0,0,0,0,0,1.71E+09,0, 2024-03-15 15:23:09.000
240,-7829.480807,-19120.241,-7891.730415,-13944.24754,-5450.27172,10889.25581,-4238.80717,6858.029289,0.06,0.95,-0.106,192,0,0,0,0,0,0,0,0,0,1.71E+09,0, 2024-03-15 15:23:09.000
241,-6261.707099,-19318.2104,-7949.509674,-13989.82274,-4468.985435,11394.18172,-3193.974876,10954.05352,0.058,0.952,-0.106,192,1,208,29,192,252,176,0,0,0,1.71E+09,0, 2024-03-15 15:23:09.000
242,-6052.338308,-19209.13389,-8001.008093,-14032.64869,-5320.318677,11221.22392,-3924.206367,11099.89865,0.058,0.952,-0.106,192,0,0,0,0,0,0,0,0,0,1.71E+09,0, 2024-03-15 15:23:09.000
243,-7615.261688,-18909.397,-7986.054776,-14037.34255,-6996.744215,10528.90098,-5552.754468,6958.925063,0.058,0.952,-0.106,192,0,0,0,0,0,0,0,0,0,1.71E+09,0, 2024-03-15 15:23:09.000
244,-8777.954731,-18848.68966,-7908.784796,-13969.30384,-7092.566144,10305.31648,-5769.83461,4181.78787,0.058,0.952,-0.106,192,0,0,0,0,0,0,0,0,0,1.71E+09,0, 2024-03-15 15:23:09.000
245,-7848.278624,-19115.25656,-7895.105528,-13947.19797,-5459.055955,10884.94192,-4238.740115,6820.388951,0.058,0.952,-0.106,192,0,0,0,0,0,0,0,0,0,1.71E+09,0, 2024-03-15 15:23:09.000
246,-6266.780945,-19312.22013,-7946.983927,-13991.58853,-4457.720155,11398.51795,-3173.545381,10936.39564,0.058,0.952,-0.106,192,0,0,0,0,0,0,0,0,0,1.71E+09,0, 2024-03-15 15:23:09.000
247,-6017.0002,-19203.21068,-7995.911896,-14030.54762,-5285.673474,11233.98676,-3885.627256,11146.94907,0.058,0.952,-0.106,192,0,0,0,0,0,0,0,0,0,1.71E+09,0, 2024-03-15 15:23:09.000
248,-7574.916789,-18908.10059,-7992.603838,-14040.74002,-6981.790898,10536.07589,-5540.259843,7032.730524,0.058,0.952,-0.106,192,0,0,0,0,0,0,0,0,0,1.71E+09,0, 2024-03-15 15:23:09.000
249,-8776.725385,-18841.67121,-7913.679828,-13972.6566,-7113.107397,10298.4992,-5794.667398,4187.331103,0.058,0.952,-0.106,192,0,0,0,0,0,0,0,0,0,1.71E+09,0, 2024-03-15 15:23:09.000
250,-7862.293167,-19102.89605,-7895.932543,-13945.83451,-5482.413528,10874.25779,-4270.83722,6771.148058,0.058,0.952,-0.106,192,0,0,0,0,0,0,0,0,0,1.71E+09,0, 2024-03-15 15:23:09.000
251,-6269.753727,-19317.78572,-7961.177285,-14002.60794,-4468.203124,11379.80954,-3195.83007,10926.73968,0.066,0.952,-0.108,192,2,16,29,192,252,160,0,0,0,1.71E+09,0, 2024-03-15 15:23:09.000
252,-6015.234413,-19206.54109,-8005.903126,-14040.76237,-5289.674436,11224.33081,-3896.043169,11180.96843,0.066,0.952,-0.108,192,0,0,0,0,0,0,0,0,0,1.71E+09,0, 2024-03-15 15:23:09.000
253,-7557.214207,-18896.6118,-7983.506678,-14037.05198,-6978.728709,10540.21097,-5541.24332,7063.911207,0.066,0.952,-0.108,192,0,0,0,0,0,0,0,0,0,1.71E+09,0, 2024-03-15 15:23:09.000
254,-8755.580635,-18827.23198,-7903.666246,-13968.09685,-7122.539833,10297.91806,-5810.514785,4177.518687,0.066,0.952,-0.108,192,0,0,0,0,0,0,0,0,0,1.71E+09,0, 2024-03-15 15:23:09.000
255,-7846.758705,-19090.89316,-7884.890781,-13937.83259,-5489.588438,10876.20239,-4287.936305,6734.737067,0.066,0.952,-0.108,192,0,0,0,0,0,0,0,0,0,1.71E+09,0, 2024-03-15 15:23:09.000
0,-6258.197875,-19301.71481,-7943.027668,-13986.58174,-4460.871751,11396.5063,-3196.925306,10904.87968,0.066,0.952,-0.108,192,0,0,0,0,0,0,0,0,0,1.71E+09,0, 2024-03-15 15:23:09.000
1,-6002.940953,-19197.84626,-7988.334654,-14022.90333,-5271.547171,11242.30161,-3885.381387,11187.62925,0.066,0.952,-0.108,192,0,0,0,0,0,0,0,0,0,1.71E+09,0, 2024-03-15 15:23:09.000
2,-7540.875082,-18908.81585,-7985.518335,-14036.85081,-6967.530485,10542.5579,-5529.352192,7113.286211,0.066,0.952,-0.108,192,0,0,0,0,0,0,0,0,0,1.71E+09,0, 2024-03-15 15:23:09.000
3,-8761.861475,-18838.27374,-7905.990828,-13971.22609,-7129.80415,10294.74411,-5815.454521,4191.39912,0.066,0.952,-0.108,192,0,0,0,0,0,0,0,0,0,1.71E+09,0, 2024-03-15 15:23:09.000
4,-7875.5254,-19090.06615,-7873.044356,-13930.59062,-5500.406683,10873.45313,-4296.251153,6697.186136,0.066,0.952,-0.108,192,0,0,0,0,0,0,0,0,0,1.71E+09,0, 2024-03-15 15:23:09.000
5,-6274.179372,-19296.95389,-7922.374656,-13971.94135,-4446.007841,11401.98247,-3183.871887,10883.01967,0.064,0.954,-0.106,192,2,0,29,208,252,176,0,0,0,1.71E+09,0, 2024-03-15 15:23:09.000
6,-5997.218907,-19200.48376,-7975.929436,-14018.88001,-5243.205159,11251.0635,-3862.381442,11217.66999,0.064,0.954,-0.106,192,0,0,0,0,0,0,0,0,0,1.71E+09,0, 2024-03-15 15:23:09.000
7,-7525.407675,-18909.95579,-7972.621378,-14027.66425,-6940.261357,10558.76291,-5500.11611,7166.461011,0.064,0.954,-0.106,192,0,0,0,0,0,0,0,0,0,1.71E+09,0, 2024-03-15 15:23:09.000
8,-8767.404707,-18836.08327,-7898.637104,-13964.11824,-7129.558281,10295.32525,-5807.452596,4217.863586,0.064,0.954,-0.106,192,0,0,0,0,0,0,0,0,0,1.71E+09,0, 2024-03-15 15:23:09.000
9,-7895.954895,-19082.82418,-7869.713947,-13928.3331,-5511.984886,10866.85936,-4305.638886,6670.274636,0.064,0.954,-0.106,192,0,0,0,0,0,0,0,0,0,1.71E+09,0, 2024-03-15 15:23:09.000
10,-6289.758538,-19293.69054,-7925.325087,-13973.61773,-4450.522894,11394.82992,-3188.744567,10859.50564,0.064,0.954,-0.106,192,0,0,0,0,0,0,0,0,0,1.71E+09,0, 2024-03-15 15:23:09.000
11,-5993.173241,-19193.37591,-7968.508657,-14012.44271,-5219.109979,11258.46192,-3831.468979,11245.81084,0.064,0.954,-0.106,192,0,0,0,0,0,0,0,0,0,1.71E+09,0, 2024-03-15 15:23:09.000
12,-7507.101596,-18899.22695,-7962.361927,-14022.23277,-6909.460653,10566.04958,-5462.565179,7208.549346,0.064,0.954,-0.106,192,0,0,0,0,0,0,0,0,0,1.71E+09,0, 2024-03-15 15:23:09.000
13,-8747.332841,-18829.9589,-7896.826613,-13966.95691,-7118.985906,10293.62652,-5793.549811,4209.45933,0.064,0.954,-0.106,192,0,0,0,0,0,0,0,0,0,1.71E+09,0, 2024-03-15 15:23:09.000
14,-7883.348511,-19083.42768,-7871.323272,-13935.68682,-5510.599078,10862.52312,-4298.240459,6640.166836,0.064,0.954,-0.106,192,0,0,0,0,0,0,0,0,0,1.71E+09,0, 2024-03-15 15:23:09.000
15,-6297.738111,-19302.27361,-7933.170549,-13986.53704,-4448.980623,11389.91253,-3178.574524,10839.29966,0.064,0.954,-0.106,192,0,0,0,0,0,0,0,0,0,1.71E+09,0, 2024-03-15 15:23:09.000
16,-6008.037151,-19202.74129,-7984.55721,-14025.92081,-5225.033191,11253.67865,-3833.65945,11264.27338,0.062,0.956,-0.106,192,1,240,29,224,252,176,0,0,0,1.71E+09,0, 2024-03-15 15:23:09.000
17,-7504.307628,-18907.16182,-7981.584428,-14034.7721,-6919.965973,10562.62977,-5480.915961,7250.101239,0.062,0.956,-0.106,192,0,0,0,0,0,0,0,0,0,1.71E+09,0, 2024-03-15 15:23:09.000
18,-8742.795437,-18821.1076,-7898.368883,-13966.84515,-7134.386257,10289.08912,-5813.599326,4211.605097,0.062,0.956,-0.106,192,0,0,0,0,0,0,0,0,0,1.71E+09,0, 2024-03-15 15:23:09.000
19,-7894.23381,-19067.64735,-7867.903455,-13929.04835,-5523.719552,10856.86813,-4313.752569,6592.468213,0.062,0.956,-0.106,192,0,0,0,0,0,0,0,0,0,1.71E+09,0, 2024-03-15 15:23:09.000
20,-6306.298829,-19286.35917,-7926.688543,-13974.5565,-4446.007841,11392.0583,-3183.044873,10816.43383,0.062,0.956,-0.106,192,0,0,0,0,0,0,0,0,0,1.71E+09,0, 2024-03-15 15:23:09.000
21,-5998.783529,-19200.01438,-7985.183058,-14023.95386,-5208.381141,11256.76319,-3831.178407,11289.62026,0.062,0.956,-0.106,192,0,0,0,0,0,0,0,0,0,1.71E+09,0, 2024-03-15 15:23:09.000
22,-7486.001549,-18908.65939,-7983.998416,-14036.00145,-6911.360551,10567.70361,-5479.463098,7286.802803,0.062,0.956,-0.106,192,0,0,0,0,0,0,0,0,0,1.71E+09,0, 2024-03-15 15:23:09.000
23,-8745.388239,-18821.84521,-7908.561278,-13971.53902,-7155.531008,10286.58572,-5833.291213,4206.77712,0.062,0.956,-0.106,192,0,0,0,0,0,0,0,0,0,1.71E+09,0, 2024-03-15 15:23:09.000
24,-7921.122959,-19070.75424,-7883.795546,-13938.7043,-5566.143163,10840.4396,-4356.779677,6536.991183,0.062,0.956,-0.106,192,0,0,0,0,0,0,0,0,0,1.71E+09,0, 2024-03-15 15:23:09.000
25,-6321.542719,-19290.36013,-7940.032535,-13983.05017,-4468.270179,11380.05541,-3207.721199,10777.0724,0.062,0.956,-0.106,192,0,0,0,0,0,0,0,0,0,1.71E+09,0, 2024-03-15 15:23:09.000
26,-5994.983732,-19202.36131,-7992.290913,-14027.28427,-5211.510385,11257.5008,-3827.624479,11301.17611,0.058,0.95,-0.102,192,1,208,29,176,252,208,0,0,0,1.71E+09,0, 2024-03-15 15:23:09.000
27,-7466.957863,-18912.86152,-7989.742814,-14039.77889,-6909.483005,10572.26337,-5469.11424,7340.424638,0.058,0.95,-0.102,192,0,0,0,0,0,0,0,0,0,1.71E+09,0, 2024-03-15 15:23:09.000
28,-8742.616623,-18820.68292,-7905.387331,-13969.9744,-7165.544589,10284.99875,-5842.969518,4216.835405,0.058,0.95,-0.102,192,0,0,0,0,0,0,0,0,0,1.71E+09,0, 2024-03-15 15:23:09.000
29,-7926.12975,-19059.69012,-7866.80822,-13923.2816,-5567.730137,10845.98283,-4363.59696,6498.434424,0.058,0.95,-0.102,192,0,0,0,0,0,0,0,0,0,1.71E+09,0, 2024-03-15 15:23:09.000
30,-6336.026649,-19283.09581,-7923.782816,-13967.15808,-4460.871751,11395.23225,-3205.038989,10750.25031,0.058,0.95,-0.102,192,0,0,0,0,0,0,0,0,0,1.71E+09,0, 2024-03-15 15:23:09.000
31,-5997.107148,-19204.14945,-7982.232628,-14011.72745,-5188.689254,11281.216,-3810.391284,11345.72313,0.058,0.95,-0.102,192,0,0,0,0,0,0,0,0,0,1.71E+09,0, 2024-03-15 15:23:09.000
32,-7459.805305,-18908.36881,-7976.398823,-14019.70703,-6886.661874,10598.01258,-5453.311557,7403.970647,0.058,0.95,-0.102,192,0,0,0,0,0,0,0,0,0,1.71E+09,0, 2024-03-15 15:23:09.000
33,-8748.964518,-18812.54689,-7897.117185,-13952.98707,-7171.311339,10298.74507,-5850.725573,4220.322278,0.058,0.95,-0.102,192,0,0,0,0,0,0,0,0,0,1.71E+09,0, 2024-03-15 15:23:09.000
34,-7948.16857,-19064.67456,-7869.848057,-13917.02311,-5586.639713,10847.56981,-4383.512364,6464.727994,0.058,0.95,-0.102,192,0,0,0,0,0,0,0,0,0,1.71E+09,0, 2024-03-15 15:23:09.000
35,-6354.019803,-19294.07052,-7930.086008,-13969.88499,-4467.376109,11392.19241,-3213.957335,10726.08807,0.058,0.95,-0.102,192,0,0,0,0,0,0,0,0,0,1.71E+09,0, 2024-03-15 15:23:09.000
36,-5992.435633,-19213.98422,-7987.887619,-14018.7906,-5177.49103,11280.50074,-3804.691589,11348.11477,0.062,0.95,-0.106,192,1,240,29,176,252,176,0,0,0,1.71E+09,0, 2024-03-15 15:23:09.000
37,-7429.25047,-18923.59035,-7989.496945,-14033.00631,-6872.446164,10596.22444,-5437.777095,7446.506017,0.062,0.95,-0.106,192,0,0,0,0,0,0,0,0,0,1.71E+09,0, 2024-03-15 15:23:09.000
38,-8743.35423,-18831.00943,-7919.379523,-13975.33881,-7186.242305,10279.29905,-5859.330995,4249.223083,0.062,0.95,-0.106,192,0,0,0,0,0,0,0,0,0,1.71E+09,0, 2024-03-15 15:23:09.000
39,-7969.223913,-19069.12256,-7882.901476,-13934.09985,-5610.533727,10821.59708,-4399.851489,6435.514264,0.062,0.95,-0.106,192,0,0,0,0,0,0,0,0,0,1.71E+09,0, 2024-03-15 15:23:09.000
40,-6363.519295,-19279.13955,-7923.82752,-13964.14059,-4471.399423,11382.24588,-3214.314963,10679.77526,0.062,0.95,-0.106,192,0,0,0,0,0,0,0,0,0,1.71E+09,0, 2024-03-15 15:23:09.000
41,-5964.294787,-19194.78407,-7970.944997,-13997.5341,-5145.70685,11295.85639,-3766.335996,11374.80275,0.062,0.95,-0.106,192,0,0,0,0,0,0,0,0,0,1.71E+09,0, 2024-03-15 15:23:09.000
42,-7393.442976,-18896.16476,-7963.725384,-14002.0715,-6837.376277,10622.35363,-5400.94142,7495.635151,0.062,0.95,-0.106,192,0,0,0,0,0,0,0,0,0,1.71E+09,0, 2024-03-15 15:23:09.000
43,-8725.249317,-18806.73543,-7895.887839,-13949.74607,-7174.887618,10295.07939,-5846.031707,4248.7984,0.062,0.95,-0.106,192,0,0,0,0,0,0,0,0,0,1.71E+09,0, 2024-03-15 15:23:09.000
44,-7970.229741,-19057.18673,-7872.507915,-13922.07461,-5616.009905,10821.08299,-4408.859242,6396.197545,0.062,0.95,-0.106,192,0,0,0,0,0,0,0,0,0,1.71E+09,0, 2024-03-15 15:23:09.000
45,-6371.744737,-19288.92962,-7931.538872,-13973.03658,-4473.008749,11370.37711,-3222.965088,10669.49346,0.062,0.95,-0.106,192,0,0,0,0,0,0,0,0,0,1.71E+09,0, 2024-03-15 15:23:09.000
46,-5971.492049,-19208.68685,-7981.852648,-14014.76729,-5142.331736,11282.4677,-3771.38749,11399.25556,0.062,0.952,-0.106,192,1,240,29,192,252,176,0,0,0,1.71E+09,0, 2024-03-15 15:23:09.000
47,-7387.787984,-18915.38726,-7980.33273,-14028.20069,-6836.593966,10603.13113,-5407.021094,7548.094696,0.062,0.952,-0.106,192,0,0,0,0,0,0,0,0,0,1.71E+09,0, 2024-03-15 15:23:09.000
48,-8723.014143,-18809.79762,-7900.201726,-13964.9676,-7184.051834,10277.08623,-5860.515637,4253.894598,0.062,0.952,-0.106,192,0,0,0,0,0,0,0,0,0,1.71E+09,0, 2024-03-15 15:23:09.000
49,-7978.254018,-19044.91562,-7864.640101,-13921.56052,-5624.481216,10817.26084,-4418.492844,6351.494056,0.062,0.952,-0.106,192,0,0,0,0,0,0,0,0,0,1.71E+09,0, 2024-03-15 15:23:09.000
50,-6379.590199,-19275.58562,-7924.296907,-13967.91803,-4466.973778,11381.59768,-3216.572489,10644.54891,0.062,0.952,-0.106,192,0,0,0,0,0,0,0,0,0,1.71E+09,0, 2024-03-15 15:23:09.000
51,-5963.512476,-19205.4235,-7984.601913,-14018.25416,-5124.003306,11297.39866,-3756.098897,11438.52758,0.062,0.952,-0.106,192,0,0,0,0,0,0,0,0,0,1.71E+09,0, 2024-03-15 15:23:09.000
52,-7370.577141,-18919.63409,-7989.228724,-14034.7274,-6828.614393,10616.36336,-5398.035693,7613.250031,0.062,0.952,-0.106,192,0,0,0,0,0,0,0,0,0,1.71E+09,0, 2024-03-15 15:23:09.000
53,-8725.249317,-18806.06488,-7906.571973,-13964.94525,-7203.967238,10286.18339,-5879.38051,4279.755566,0.062,0.952,-0.106,192,0,0,0,0,0,0,0,0,0,1.71E+09,0, 2024-03-15 15:23:09.000
54,-8006.059588,-19034.32089,-7867.232903,-13915.88317,-5657.092411,10818.37843,-4456.870789,6311.350323,0.062,0.952,-0.106,192,0,0,0,0,0,0,0,0,0,1.71E+09,0, 2024-03-15 15:23:09.000
55,-6402.79131,-19271.65172,-7923.849872,-13960.27374,-4480.898914,11379.69779,-3234.856216,10600.2701,0.062,0.952,-0.106,192,0,0,0,0,0,0,0,0,0,1.71E+09,0, 2024-03-15 15:23:09.000
56,-5965.412374,-19208.84332,-7981.629131,-14005.42426,-5116.314306,11305.13237,-3743.358403,11442.7297,0.066,0.956,-0.108,192,2,16,29,224,252,160,0,0,0,1.71E+09,0, 2024-03-15 15:23:09.000
57,-7348.717135,-18912.83916,-7976.309416,-14012.80034,-6807.335533,10642.73842,-5370.83362,7656.947691,0.066,0.956,-0.108,192,0,0,0,0,0,0,0,0,0,1.71E+09,0, 2024-03-15 15:23:09.000
58,-8727.283326,-18809.79762,-7905.789662,-13956.22807,-7212.930287,10291.07842,-5881.727443,4279.085014,0.066,0.956,-0.108,192,0,0,0,0,0,0,0,0,0,1.71E+09,0, 2024-03-15 15:23:09.000
59,-8032.47935,-19047.2402,-7871.636197,-13915.34673,-5678.885362,10807.7837,-4473.880467,6261.863561,0.066,0.956,-0.108,192,0,0,0,0,0,0,0,0,0,1.71E+09,0, 2024-03-15 15:23:09.000
60,-6418.839862,-19281.21826,-7921.547642,-13954.86462,-4484.318731,11377.3285,-3233.537463,10576.37609,0.066,0.956,-0.108,192,0,0,0,0,0,0,0,0,0,1.71E+09,0, 2024-03-15 15:23:09.000
61,-5971.693214,-19217.98518,-7978.790459,-13998.8752,-5105.294896,11306.38406,-3732.361344,11472.92691,0.066,0.956,-0.108,192,0,0,0,0,0,0,0,0,0,1.71E+09,0, 2024-03-15 15:23:09.000
62,-7348.068934,-18931.18995,-7983.484326,-14013.40383,-6798.305428,10636.09995,-5364.910408,7728.719143,0.066,0.956,-0.108,192,0,0,0,0,0,0,0,0,0,1.71E+09,0, 2024-03-15 15:23:09.000
63,-8730.881957,-18810.87051,-7904.247392,-13947.51089,-7214.159633,10285.87047,-5884.834335,4303.493119,0.066,0.956,-0.108,192,0,0,0,0,0,0,0,0,0,1.71E+09,0, 2024-03-15 15:23:09.000
64,-8051.612443,-19055.44329,-7883.035586,-13921.20289,-5694.039845,10787.15304,-4484.743414,6238.997726,0.066,0.956,-0.108,192,0,0,0,0,0,0,0,0,0,1.71E+09,0, 2024-03-15 15:23:09.000
65,-6450.177008,-19285.4651,-7938.490264,-13965.45934,-4500.054359,11353.27802,-3249.407202,10549.39753,0.066,0.956,-0.108,192,0,0,0,0,0,0,0,0,0,1.71E+09,0, 2024-03-15 15:23:09.000
66,-5976.521191,-19213.87246,-7988.647579,-14002.51853,-5096.689474,11296.39283,-3719.151463,11483.61105,0.064,0.95,-0.11,192,2,0,29,176,252,144,0,0,0,1.71E+09,0, 2024-03-15 15:23:09.000
67,-7329.271117,-18922.89745,-7992.00034,-14017.98594,-6791.890477,10628.32154,-5348.481875,7750.713259,0.064,0.95,-0.11,192,0,0,0,0,0,0,0,0,0,1.71E+09,0, 2024-03-15 15:23:09.000
68,-8725.472835,-18799.9405,-7915.333857,-13955.66928,-7239.61827,10267.96672,-5899.385321,4290.95379,0.064,0.95,-0.11,192,0,0,0,0,0,0,0,0,0,1.71E+09,0, 2024-03-15 15:23:09.000
69,-8064.419992,-19023.25678,-7867.858752,-13904.32732,-5716.860976,10779.06171,-4506.759883,6158.933778,0.064,0.95,-0.11,192,0,0,0,0,0,0,0,0,0,1.71E+09,0, 2024-03-15 15:23:09.000
70,-6437.01183,-19266.35435,-7920.251241,-13944.56046,-4483.759938,11361.14584,-3233.604519,10500.2237,0.064,0.95,-0.11,192,0,0,0,0,0,0,0,0,0,1.71E+09,0, 2024-03-15 15:23:09.000
71,-5948.626214,-19211.59258,-7978.835163,-13993.22021,-5069.97914,11301.35492,-3698.4761,11493.66933,0.064,0.95,-0.11,192,0,0,0,0,0,0,0,0,0,1.71E+09,0, 2024-03-15 15:23:09.000
72,-7296.50346,-18924.88675,-7983.305512,-14010.09578,-6764.129611,10636.47993,-5323.80555,7805.586792,0.064,0.95,-0.11,192,0,0,0,0,0,0,0,0,0,1.71E+09,0, 2024-03-15 15:23:09.000
73,-8725.91987,-18807.00365,-7912.897517,-13959.31261,-7239.081828,10261.10473,-5898.692417,4308.097578,0.064,0.95,-0.11,192,0,0,0,0,0,0,0,0,0,1.71E+09,0, 2024-03-15 15:23:09.000
74,-8088.537525,-19045.96615,-7881.090984,-13926.25438,-5732.462493,10751.90434,-4517.533424,6145.455676,0.064,0.95,-0.11,192,0,0,0,0,0,0,0,0,0,1.71E+09,0, 2024-03-15 15:23:09.000
75,-6463.833924,-19286.89561,-7932.857625,-13968.09685,-4492.767691,11335.44133,-3237.024336,10492.31118,0.064,0.95,-0.11,192,0,0,0,0,0,0,0,0,0,1.71E+09,0, 2024-03-15 15:23:09.000
76,-5960.450287,-19220.17565,-7983.529029,-14007.34651,-5062.04427,11293.80003,-3685.959123,11518.21155,0.06,0.954,-0.11,192,1,224,29,208,252,144,0,0,0,1.71E+09,0, 2024-03-15 15:23:09.480
77,-7288.859163,-18929.22299,-7987.440585,-14023.21625,-6751.165599,10632.25545,-5309.299267,7848.837417,0.06,0.954,-0.11,192,0,0,0,0,0,0,0,0,0,1.71E+09,0, 2024-03-15 15:23:09.480
78,-8717.225041,-18803.31562,-7916.004409,-13966.42047,-7243.038087,10250.3759,-5897.328961,4322.98384,0.06,0.954,-0.11,192,0,0,0,0,0,0,0,0,0,1.71E+09,0, 2024-03-15 15:23:09.480
79,-8084.782432,-19021.13337,-7870.183333,-13914.87734,-5741.850226,10753.44661,-4526.250604,6103.680265,0.06,0.954,-0.11,192,0,0,0,0,0,0,0,0,0,1.71E+09,0, 2024-03-15 15:23:09.480
80,-6457.910712,-19267.6284,-7925.168625,-13957.70329,-4489.481984,11346.23722,-3231.145827,10465.84671,0.06,0.954,-0.11,192,0,0,0,0,0,0,0,0,0,1.71E+09,0, 2024-03-15 15:23:09.480
81,-5942.591243,-19212.91133,-7985.808907,-14005.89365,-5050.063735,11300.25969,-3666.222533,11557.88589,0.06,0.954,-0.11,192,0,0,0,0,0,0,0,0,0,1.71E+09,0, 2024-03-15 15:23:09.480
82,-7255.018622,-18913.48736,-7977.091727,-14005.75954,-6737.173407,10650.22625,-5287.238096,7908.650685,0.06,0.954,-0.11,192,0,0,0,0,0,0,0,0,0,1.71E+09,0, 2024-03-15 15:23:09.480
83,-8696.437919,-18786.97649,-7902.548659,-13944.404,-7243.887454,10269.57605,-5894.736158,4341.468733,0.06,0.954,-0.11,192,0,0,0,0,0,0,0,0,0,1.71E+09,0, 2024-03-15 15:23:09.480
84,-8097.902906,-19017.93707,-7869.177505,-13901.89098,-5762.257369,10753.15604,-4543.193226,6077.059338,0.06,0.954,-0.11,192,0,0,0,0,0,0,0,0,0,1.71E+09,0, 2024-03-15 15:23:09.480
85,-6470.651206,-19252.8539,-7910.416473,-13931.37293,-4492.052435,11351.98162,-3240.15358,10417.56695,0.06,0.954,-0.11,192,0,0,0,0,0,0,0,0,0,1.71E+09,0, 2024-03-15 15:23:09.480
86,-5918.049028,-19202.38366,-7966.921683,-13976.67992,-5020.559433,11327.3053,-3644.943672,11556.32127,0.062,0.948,-0.114,192,1,240,29,160,252,112,0,0,0,1.71E+09,0, 2024-03-15 15:23:09.480
87,-7224.821416,-18928.0607,-7981.159744,-13999.45635,-6711.20068,10674.34379,-5259.298415,7977.806983,0.062,0.948,-0.114,192,0,0,0,0,0,0,0,0,0,1.71E+09,0, 2024-03-15 15:23:09.480
88,-8710.564221,-18801.21455,-7915.512671,-13948.02498,-7260.472448,10273.37584,-5906.359065,4378.952608,0.062,0.948,-0.114,192,0,0,0,0,0,0,0,0,0,1.71E+09,0, 2024-03-15 15:23:09.480
89,-8125.730828,-19019.16641,-7871.30092,-13899.11937,-5781.770442,10757.31346,-4561.029918,6062.664814,0.062,0.948,-0.114,192,0,0,0,0,0,0,0,0,0,1.71E+09,0, 2024-03-15 15:23:09.480
90,-6494.41111,-19259.44767,-7917.904308,-13939.57602,-4506.737531,11349.7241,-3254.078717,10390.56604,0.062,0.948,-0.114,192,0,0,0,0,0,0,0,0,0,1.71E+09,0, 2024-03-15 15:23:09.480
91,-5926.386228,-19207.50221,-7972.621378,-13985.3971,-5021.654668,11328.0429,-3649.65989,11564.9714,0.062,0.948,-0.114,192,0,0,0,0,0,0,0,0,0,1.71E+09,0, 2024-03-15 15:23:09.480
92,-7213.533785,-18910.00049,-7970.363852,-13991.8791,-6702.036464,10685.78788,-5260.371299,8000.762224,0.062,0.948,-0.114,192,0,0,0,0,0,0,0,0,0,1.71E+09,0, 2024-03-15 15:23:09.480
93,-8682.333968,-18768.91628,-7896.178412,-13933.85398,-7250.257701,10285.11051,-5896.926629,4382.238314,0.062,0.948,-0.114,192,0,0,0,0,0,0,0,0,0,1.71E+09,0, 2024-03-15 15:23:09.480
94,-8103.915525,-18992.18786,-7868.462249,-13900.19225,-5786.933695,10756.41939,-4563.555665,6040.022497,0.062,0.948,-0.114,192,0,0,0,0,0,0,0,0,0,1.71E+09,0, 2024-03-15 15:23:09.480
95,-6496.489822,-19241.87919,-7928.320221,-13953.4341,-4518.472197,11341.67747,-3269.389661,10378.42904,0.062,0.948,-0.114,192,0,0,0,0,0,0,0,0,0,1.71E+09,0, 2024-03-15 15:23:09.480
96,-5931.996516,-19192.50419,-7982.411442,-14002.92087,-5021.632316,11323.79607,-3649.682242,11584.12684,0.066,0.954,-0.11,192,2,16,29,208,252,144,0,0,0,1.71E+09,0, 2024-03-15 15:23:09.480
97,-7204.995418,-18902.66912,-7985.473631,-14017.29304,-6701.455319,10678.12123,-5253.9787,8037.083809,0.066,0.954,-0.11,192,0,0,0,0,0,0,0,0,0,1.71E+09,0, 2024-03-15 15:23:09.480
98,-8678.802392,-18762.76955,-7914.506842,-13961.32427,-7268.966111,10275.78983,-5911.969353,4380.405471,0.066,0.954,-0.11,192,0,0,0,0,0,0,0,0,0,1.71E+09,0, 2024-03-15 15:23:09.480
99,-8121.908679,-18985.61644,-7877.537057,-13922.05225,-5811.654724,10749.37859,-4585.482727,5979.516325,0.066,0.954,-0.11,192,0,0,0,0,0,0,0,0,0,1.71E+09,0, 2024-03-15 15:23:09.480
100,-6503.217698,-19229.85396,-7924.229851,-13965.12407,-4511.610211,11348.60651,-3256.04567,10320.00158,0.066,0.954,-0.11,192,0,0,0,0,0,0,0,0,0,1.71E+09,0, 2024-03-15 15:23:09.480
101,-5908.773054,-19179.00374,-7974.275407,-14006.43009,-4985.087214,11347.10894,-3607.5045,11575.63318,0.066,0.954,-0.11,192,0,0,0,0,0,0,0,0,0,1.71E+09,0, 2024-03-15 15:23:09.480
102,-7166.952749,-18909.86638,-7993.65437,-14040.15887,-6668.575903,10699.75772,-5211.353923,8085.296522,0.066,0.954,-0.11,192,0,0,0,0,0,0,0,0,0,1.71E+09,0, 2024-03-15 15:23:09.480
103,-8676.813087,-18779.53336,-7933.885805,-14003.27849,-7277.973864,10272.59353,-5908.147205,4407.764007,0.066,0.954,-0.11,192,0,0,0,0,0,0,0,0,0,1.71E+09,0, 2024-03-15 15:23:09.480
104,-8151.703555,-18995.11594,-7886.947142,-13956.47394,-5830.363134,10735.83343,-4593.149375,5944.46879,0.066,0.954,-0.11,192,0,0,0,0,0,0,0,0,0,1.71E+09,0, 2024-03-15 15:23:09.480
105,-6529.682163,-19238.74995,-7924.47572,-13991.34266,-4510.894956,11337.60945,-3246.277958,10285.44578,0.066,0.954,-0.11,192,0,0,0,0,0,0,0,0,0,1.71E+09,0, 2024-03-15 15:23:09.480
106,-5918.160786,-19198.94149,-7979.550419,-14035.68852,-4969.619807,11337.76591,-3581.576476,11587.25608,0.064,0.952,-0.108,192,2,0,29,192,252,160,0,0,0,1.71E+09,0, 2024-03-15 15:23:09.480
107,-7155.978043,-18920.77403,-7994.190811,-14059.7837,-6648.392278,10694.37095,-5187.549315,8133.19631,0.064,0.952,-0.108,192,0,0,0,0,0,0,0,0,0,1.71E+09,0, 2024-03-15 15:23:09.480
108,-8660.250444,-18776.8288,-7922.665229,-14005.42426,-7270.374271,10269.84427,-5895.65258,4419.901004,0.064,0.952,-0.108,192,0,0,0,0,0,0,0,0,0,1.71E+09,0, 2024-03-15 15:23:09.480
109,-8149.602491,-18998.75927,-7882.767365,-13964.11824,-5841.181379,10722.19887,-4597.351503,5906.470824,0.064,0.952,-0.108,192,0,0,0,0,0,0,0,0,0,1.71E+09,0, 2024-03-15 15:23:09.480
110,-6541.327422,-19249.59055,-7929.370752,-14000.90921,-4520.908537,11329.54047,-3249.094278,10253.10281,0.064,0.952,-0.108,192,0,0,0,0,0,0,0,0,0,1.71E+09,0, 2024-03-15 15:23:09.480
111,-5934.544615,-19208.061,-7979.729233,-14041.45527,-4968.055185,11339.95638,-3580.123613,11582.87514,0.064,0.952,-0.108,192,0,0,0,0,0,0,0,0,0,1.71E+09,0, 2024-03-15 15:23:09.480
112,-7153.25113,-18929.44651,-7985.58539,-14058.71082,-6638.110475,10704.76451,-5177.848658,8159.683127,0.064,0.952,-0.108,192,0,0,0,0,0,0,0,0,0,1.71E+09,0, 2024-03-15 15:23:09.480
113,-8658.819933,-18788.9658,-7916.093816,-14006.34068,-7274.129364,10269.71016,-5898.267734,4435.435466,0.064,0.952,-0.108,192,0,0,0,0,0,0,0,0,0,1.71E+09,0, 2024-03-15 15:23:09.481
114,-8171.149572,-19002.02262,-7869.512781,-13955.49046,-5856.425268,10722.51179,-4616.283431,5877.413556,0.064,0.952,-0.108,192,0,0,0,0,0,0,0,0,0,1.71E+09,0, 2024-03-15 15:23:09.481
115,-6556.370146,-19254.59734,-7913.389255,-13990.00156,-4519.433322,11332.42385,-3257.677347,10227.28654,0.064,0.952,-0.108,192,0,0,0,0,0,0,0,0,0,1.71E+09,0, 2024-03-15 15:23:09.481
116,-5918.674877,-19223.72958,-7969.648596,-14037.83429,-4950.576121,11341.63276,-3568.992444,11618.72734,0.06,0.946,-0.108,192,1,224,29,144,252,160,0,0,0,1.71E+09,0, 2024-03-15 15:23:09.481
117,-7120.818749,-18943.23754,-7979.997454,-14058.66612,-6622.397199,10709.25721,-5167.209228,8227.923003,0.06,0.946,-0.108,192,0,0,0,0,0,0,0,0,0,1.71E+09,0, 2024-03-15 15:23:09.481
118,-8651.443857,-18784.87543,-7906.616677,-14002.89851,-7286.601637,10267.58674,-5916.596164,4439.525835,0.06,0.946,-0.108,192,0,0,0,0,0,0,0,0,0,1.71E+09,0, 2024-03-15 15:23:09.481
119,-8184.404157,-19001.15091,-7869.423374,-13958.37384,-5884.566114,10705.79269,-4645.631271,5829.133788,0.06,0.946,-0.108,192,0,0,0,0,0,0,0,0,0,1.71E+09,0, 2024-03-15 15:23:09.481
120,-6568.440088,-19251.80337,-7912.539889,-13990.538,-4541.650956,11315.36946,-3283.694778,10174.96111,0.06,0.946,-0.108,192,0,0,0,0,0,0,0,0,0,1.71E+09,0, 2024-03-15 15:23:09.481
121,-5905.979086,-19205.71407,-7956.975157,-14021.42811,-4942.015403,11348.15947,-3566.131421,11607.05973,0.06,0.946,-0.108,192,0,0,0,0,0,0,0,0,0,1.71E+09,0, 2024-03-15 15:23:09.481
122,-7091.515612,-18919.7235,-7965.98291,-14035.53206,-6604.158175,10727.98797,-5149.484295,8246.854931,0.06,0.946,-0.108,192,0,0,0,0,0,0,0,0,0,1.71E+09,0, 2024-03-15 15:23:09.481
123,-8629.874424,-18769.1398,-7905.141462,-13990.4933,-7292.27898,10278.47204,-5919.010153,4448.958272,0.06,0.946,-0.108,192,0,0,0,0,0,0,0,0,0,1.71E+09,0, 2024-03-15 15:23:09.481
124,-8174.748203,-18974.64174,-7857.889874,-13936.60324,-5894.177365,10718.91316,-4655.689556,5793.572163,0.06,0.946,-0.108,192,0,0,0,0,0,0,0,0,0,1.71E+09,0, 2024-03-15 15:23:09.481
125,-6566.651948,-19228.04346,-7901.7887,-13967.98509,-4531.682078,11336.44716,-3273.591789,10152.07292,0.06,0.946,-0.108,192,0,0,0,0,0,0,0,0,0,1.71E+09,0, 2024-03-15 15:23:09.481
126,-5914.763321,-19208.79861,-7969.894465,-14025.36202,-4937.433295,11353.6133,-3563.359805,11616.82744,0.062,0.946,-0.11,192,1,240,29,144,252,144,0,0,0,1.71E+09,0, 2024-03-15 15:23:09.481
127,-7086.151193,-18926.83136,-7975.795326,-14042.4164,-6598.726702,10733.88883,-5147.003251,8281.857763,0.062,0.946,-0.11,192,0,0,0,0,0,0,0,0,0,1.71E+09,0, 2024-03-15 15:23:09.481
128,-8621.827796,-18769.98917,-7904.716778,-13988.68281,-7298.336303,10281.75775,-5924.531034,4455.59674,0.062,0.946,-0.11,192,0,0,0,0,0,0,0,0,0,1.71E+09,0, 2024-03-15 15:23:09.481
129,-8184.627674,-18970.05963,-7852.547807,-13932.2223,-5908.907164,10714.62163,-4674.554428,5742.654889,0.062,0.946,-0.11,192,0,0,0,0,0,0,0,0,0,1.71E+09,0, 2024-03-15 15:23:09.481
130,-6577.31373,-19230.30099,-7899.598229,-13972.83542,-4536.264185,11328.84757,-3278.509173,10098.11581,0.062,0.946,-0.11,192,0,0,0,0,0,0,0,0,0,1.71E+09,0, 2024-03-15 15:23:09.481
131,-5893.015074,-19204.48473,-7953.17536,-14020.28817,-4908.15251,11364.40919,-3528.289918,11625.38816,0.062,0.946,-0.11,192,0,0,0,0,0,0,0,0,0,1.71E+09,0, 2024-03-15 15:23:09.481
132,-7044.509893,-18927.47956,-7965.60293,-14038.68366,-6562.516876,10752.1055,-5100.042236,8340.709906,0.062,0.946,-0.11,192,0,0,0,0,0,0,0,0,0,1.71E+09,0, 2024-03-15 15:23:09.481
133,-8621.201947,-18773.87837,-7908.494223,-14001.31154,-7300.705588,10283.21061,-5913.444568,4489.705502,0.062,0.946,-0.11,192,0,0,0,0,0,0,0,0,0,1.71E+09,0, 2024-03-15 15:23:09.481
134,-8228.280631,-18976.60869,-7859.812124,-13950.03664,-5932.845883,10702.61874,-4679.404757,5714.290525,0.062,0.946,-0.11,192,0,0,0,0,0,0,0,0,0,1.71E+09,0, 2024-03-15 15:23:09.481
135,-6611.735417,-19244.44964,-7910.304714,-13985.46415,-4546.724802,11323.19258,-3274.262342,10073.26067,0.062,0.946,-0.11,192,0,0,0,0,0,0,0,0,0,1.71E+09,0, 2024-03-15 15:23:09.481
136,-5909.153033,-19233.29612,-7978.991625,-14042.4611,-4911.527623,11360.87762,-3522.858444,11643.8954,0.064,0.952,-0.11,192,2,0,29,192,252,144,0,0,0,1.71E+09,0, 2024-03-15 15:23:09.481
137,-7050.768381,-18945.27155,-7978.254018,-14054.75456,-6562.226303,10751.4573,-5100.243402,8376.293883,0.064,0.952,-0.11,192,0,0,0,0,0,0,0,0,0,1.71E+09,0, 2024-03-15 15:23:09.481
138,-8624.800578,-18778.21461,-7908.315409,-13999.16577,-7306.584097,10287.14452,-5922.005286,4496.366322,0.064,0.952,-0.11,192,0,0,0,0,0,0,0,0,0,1.71E+09,0, 2024-03-15 15:23:09.481
139,-8234.092085,-18979.51442,-7860.795601,-13946.46036,-5947.888607,10703.11048,-4700.683618,5681.67933,0.064,0.952,-0.11,192,0,0,0,0,0,0,0,0,0,1.71E+09,0, 2024-03-15 15:23:09.481
140,-6617.256298,-19235.21837,-7896.066653,-13972.54485,-4536.979441,11337.29653,-3274.575266,10034.54745,0.064,0.952,-0.11,192,0,0,0,0,0,0,0,0,0,1.71E+09,0, 2024-03-15 15:23:09.481
141,-5909.600068,-19216.66643,-7956.528122,-14020.82461,-4883.386777,11389.73372,-3503.345371,11646.89054,0.064,0.952,-0.11,192,0,0,0,0,0,0,0,0,0,1.71E+09,0, 2024-03-15 15:23:09.481
142,-7041.023021,-18942.87991,-7971.414384,-14041.65644,-6540.612166,10775.32897,-5081.691454,8424.104264,0.064,0.952,-0.11,192,0,0,0,0,0,0,0,0,0,1.71E+09,0, 2024-03-15 15:23:09.481
143,-8608.930839,-18783.55667,-7910.438825,-13996.68473,-7305.064178,10296.97928,-5922.005286,4530.050401,0.064,0.952,-0.11,192,0,0,0,0,0,0,0,0,0,1.71E+09,0, 2024-03-15 15:23:09.481
144,-8233.846215,-18974.32881,-7858.649833,-13940.20187,-5963.132496,10706.06091,-4722.722438,5660.959263,0.064,0.952,-0.11,192,0,0,0,0,0,0,0,0,0,1.71E+09,0, 2024-03-15 15:23:09.481
145,-6624.677077,-19221.96379,-7893.004464,-13961.83836,-4553.475029,11341.34219,-3302.291429,9993.330836,0.064,0.952,-0.11,192,0,0,0,0,0,0,0,0,0,1.71E+09,0, 2024-03-15 15:23:09.481
146,-5889.707016,-19202.29425,-7952.571863,-14008.08412,-4877.552972,11400.41785,-3504.261792,11651.91968,0.064,0.952,-0.11,192,0,0,0,0,0,0,0,0,0,1.71E+09,0, 2024-03-15 15:23:09.481
147,-6993.123232,-18925.60201,-7964.686509,-14026.25609,-6520.316782,10792.4057,-5073.510715,8457.073087,0.066,0.948,-0.114,192,2,16,29,160,252,112,0,0,0,1.71E+09,0, 2024-03-15 15:23:09.481
148,-8587.562571,-18757.85217,-7904.314447,-13983.38544,-7312.015571,10306.45642,-5936.288051,4514.381828,0.066,0.948,-0.114,192,0,0,0,0,0,0,0,0,0,1.71E+09,0, 2024-03-15 15:23:09.481
149,-8243.524521,-18952.53586,-7859.566255,-13931.50704,-5992.413281,10708.38549,-4749.209255,5583.778689,0.066,0.948,-0.114,192,0,0,0,0,0,0,0,0,0,1.71E+09,0, 2024-03-15 15:23:09.481
150,-6629.683868,-19214.74418,-7899.039435,-13959.58083,-4562.371023,11348.45005,-3305.867708,9941.832416,0.066,0.948,-0.114,192,0,0,0,0,0,0,0,0,0,1.71E+09,0, 2024-03-15 15:23:09.481
151,-5881.727443,-19206.27287,-7961.669023,-14011.88392,-4869.148716,11408.95622,-3486.000417,11644.38714,0.066,0.948,-0.114,192,0,0,0,0,0,0,0,0,0,1.71E+09,0, 2024-03-15 15:23:09.481
152,-6977.409956,-18940.26475,-7981.629131,-14037.3202,-6520.16032,10799.84883,-5057.059831,8484.27516,0.066,0.948,-0.114,192,0,0,0,0,0,0,0,0,0,1.71E+09,0, 2024-03-15 15:23:09.481
153,-8580.298255,-18768.11162,-7915.445616,-13990.22508,-7323.973754,10311.66438,-5931.28126,4520.483854,0.066,0.948,-0.114,192,0,0,0,0,0,0,0,0,0,1.71E+09,0, 2024-03-15 15:23:09.481
154,-8247.033745,-18959.01787,-7865.757688,-13934.47982,-6004.349113,10711.82766,-4745.789438,5553.693241,0.066,0.948,-0.114,192,0,0,0,0,0,0,0,0,0,1.71E+09,0, 2024-03-15 15:23:09.481
155,-6644.681888,-19225.38361,-7908.762444,-13970.15321,-4572.96575,11347.66774,-3300.257421,9901.845145,0.066,0.948,-0.114,192,0,0,0,0,0,0,0,0,0,1.71E+09,0, 2024-03-15 15:23:09.481
156,-5894.289123,-19221.98614,-7971.772012,-14023.50682,-4868.455812,11407.14573,-3470.868286,11647.047,0.066,0.948,-0.114,192,0,0,0,0,0,0,0,0,0,1.71E+09,0, 2024-03-15 15:23:09.481
157,-6971.799668,-18943.46105,-7976.376471,-14035.01797,-6504.044712,10807.89546,-5023.979249,8524.932984,0.062,0.944,-0.114,192,1,240,29,128,252,112,0,0,0,1.71E+09,0, 2024-03-15 15:23:09.481
158,-8571.290502,-18776.38176,-7913.344552,-13995.0307,-7318.02819,10310.83737,-5910.181214,4550.435191,0.062,0.944,-0.114,192,0,0,0,0,0,0,0,0,0,1.71E+09,0, 2024-03-15 15:23:09.481
159,-8261.741193,-18963.10824,-7860.683842,-13939.24075,-6014.765026,10697.52254,-4746.862322,5521.394971,0.062,0.944,-0.114,192,0,0,0,0,0,0,0,0,0,1.71E+09,0, 2024-03-15 15:23:09.481
160,-6657.712955,-19231.35152,-7906.795491,-13971.40491,-4573.770413,11337.05066,-3290.154432,9882.130907,0.062,0.944,-0.114,192,0,0,0,0,0,0,0,0,0,1.71E+09,0, 2024-03-15 15:23:09.481
161,-5894.736158,-19229.02694,-7973.426041,-14027.70895,-4857.503457,11407.52571,-3457.010204,11669.75637,0.062,0.944,-0.114,192,0,0,0,0,0,0,0,0,0,1.71E+09,0, 2024-03-15 15:23:09.481
162,-6959.528561,-18963.15294,-7987.239419,-14054.12871,-6491.751253,10811.13646,-5010.635258,8587.719034,0.062,0.944,-0.114,192,0,0,0,0,0,0,0,0,0,1.71E+09,0, 2024-03-15 15:23:09.481
163,-8584.232162,-18784.98719,-7919.312467,-14007.23475,-7326.410094,10312.40199,-5912.617554,4576.229105,0.062,0.944,-0.114,192,0,0,0,0,0,0,0,0,0,1.71E+09,0, 2024-03-15 15:23:09.481
164,-8304.276562,-18966.99744,-7863.187237,-13945.63335,-6035.485093,10693.43218,-4761.793287,5480.89361,0.062,0.944,-0.114,192,0,0,0,0,0,0,0,0,0,1.71E+09,0, 2024-03-15 15:23:09.481
165,-6688.357197,-19239.24169,-7904.269743,-13978.04337,-4573.301026,11335.86601,-3288.20983,9838.075619,0.062,0.944,-0.114,192,0,0,0,0,0,0,0,0,0,1.71E+09,0, 2024-03-15 15:23:09.481
166,-5891.94219,-19230.90449,-7961.75843,-14025.80905,-4827.619174,11420.42266,-3429.361097,11681.82632,0.062,0.944,-0.114,192,0,0,0,0,0,0,0,0,0,1.71E+09,0, 2024-03-15 15:23:09.481
167,-6931.879453,-18960.35897,-7977.829334,-14045.47859,-6458.357746,10828.23555,-4978.426394,8653.008479,0.066,0.954,-0.12,192,2,16,29,208,252,64,0,0,0,1.71E+09,0, 2024-03-15 15:23:09.481
168,-8569.524714,-18773.43133,-7918.418398,-14002.96557,-7334.054391,10314.50305,-5925.648621,4598.267925,0.066,0.954,-0.12,192,0,0,0,0,0,0,0,0,0,1.71E+09,0, 2024-03-15 15:23:09.481
169,-8287.669216,-18951.39592,-7859.923882,-13938.48079,-6053.478247,10694.3933,-4786.17904,5466.700252,0.066,0.954,-0.12,192,0,0,0,0,0,0,0,0,0,1.71E+09,0, 2024-03-15 15:23:09.481
170,-6681.852839,-19222.1426,-7899.598229,-13968.20861,-4587.494384,11333.67554,-3310.673333,9811.56645,0.066,0.954,-0.12,192,0,0,0,0,0,0,0,0,0,1.71E+09,0, 2024-03-15 15:23:09.481
171,-5883.7391,-19215.75,-7958.271558,-14015.63901,-4830.748419,11419.88622,-3442.593329,11669.30934,0.066,0.954,-0.12,192,0,0,0,0,0,0,0,0,0,1.71E+09,0, 2024-03-15 15:23:09.481
172,-6904.789138,-18945.9868,-7969.492134,-14036.04615,-6445.527845,10835.76808,-4974.246618,8669.012328,0.066,0.954,-0.12,192,0,0,0,0,0,0,0,0,0,1.71E+09,0, 2024-03-15 15:23:09.481
173,-8535.080675,-18758.41096,-7904.22504,-13991.11915,-7326.253632,10321.49915,-5918.786635,4612.260117,0.066,0.954,-0.12,192,0,0,0,0,0,0,0,0,0,1.71E+09,0, 2024-03-15 15:23:09.481
174,-8270.637187,-18935.25796,-7848.636252,-13931.30588,-6058.663852,10694.63917,-4796.483194,5435.117237,0.066,0.954,-0.12,192,0,0,0,0,0,0,0,0,0,1.71E+09,0, 2024-03-15 15:23:09.481
175,-6672.755679,-19197.0863,-7885.807203,-13956.27278,-4587.606142,11343.4209,-3324.196139,9765.141876,0.066,0.954,-0.12,192,0,0,0,0,0,0,0,0,0,1.71E+09,0, 2024-03-15 15:23:09.481
176,-5853.608948,-19198.44975,-7949.800247,-14010.87809,-4809.424854,11431.82205,-3428.087047,11678.4512,0.066,0.954,-0.12,192,0,0,0,0,0,0,0,0,0,1.71E+09,0, 2024-03-15 15:23:09.481
177,-6864.466591,-18926.47373,-7963.613625,-14033.02867,-6426.260641,10844.977,-4957.415754,8694.739186,0.058,0.956,-0.114,192,1,208,29,224,252,112,0,0,0,1.71E+09,0, 2024-03-15 15:23:09.481
178,-8513.198318,-18740.17194,-7910.304714,-13995.12011,-7334.188501,10323.64492,-5927.325002,4598.938477,0.058,0.956,-0.114,192,0,0,0,0,0,0,0,0,0,1.71E+09,0, 2024-03-15 15:23:09.481
179,-8284.13764,-18920.08113,-7862.427278,-13939.33015,-6091.453861,10682.97156,-4826.054552,5370.297178,0.058,0.956,-0.114,192,0,0,0,0,0,0,0,0,0,1.71E+09,0, 2024-03-15 15:23:09.481
180,-6694.258057,-19191.67718,-7899.508822,-13963.06771,-4607.633306,11326.43358,-3337.093095,9690.330588,0.058,0.956,-0.114,192,0,0,0,0,0,0,0,0,0,1.71E+09,0, 2024-03-15 15:23:09.481
181,-5857.587559,-19202.00368,-7961.289044,-14009.22406,-4800.439453,11430.23508,-3415.882995,11653.66312,0.058,0.956,-0.114,192,0,0,0,0,0,0,0,0,0,1.71E+09,0, 2024-03-15 15:23:09.481
182,-6849.177998,-18938.49897,-7975.549457,-14031.01701,-6406.479348,10856.08582,-4932.650022,8738.906233,0.058,0.956,-0.114,192,0,0,0,0,0,0,0,0,0,1.71E+09,0, 2024-03-15 15:23:09.481
183,-8514.405312,-18754.76763,-7920.49711,-13994.3378,-7334.322612,10325.70128,-5919.390132,4643.30669,0.058,0.956,-0.114,192,0,0,0,0,0,0,0,0,0,1.71E+09,0, 2024-03-15 15:23:09.481
184,-8310.982086,-18930.29588,-7866.405888,-13934.99391,-6105.803681,10675.61783,-4835.107009,5348.303062,0.058,0.956,-0.114,192,0,0,0,0,0,0,0,0,0,1.71E+09,0, 2024-03-15 15:23:09.481
185,-6716.430988,-19202.36131,-7899.754691,-13958.5303,-4607.700361,11323.19258,-3336.042563,9669.454058,0.058,0.956,-0.114,192,0,0,0,0,0,0,0,0,0,1.71E+09,0, 2024-03-15 15:23:09.481
186,-5866.57296,-19210.92203,-7956.528122,-14005.75954,-4786.782537,11432.80553,-3398.582744,11671.09748,0.058,0.956,-0.114,192,0,0,0,0,0,0,0,0,0,1.71E+09,0, 2024-03-15 15:23:09.481
187,-6849.669737,-18953.6758,-7976.868209,-14034.86151,-6392.93419,10855.19175,-4915.483882,8781.15103,0.056,0.954,-0.118,192,1,192,29,208,252,80,0,0,0,1.71E+09,0, 2024-03-15 15:23:09.481
188,-8507.051588,-18761.07082,-7917.189052,-13997.46704,-7329.896966,10319.55455,-5912.863423,4651.085097,0.056,0.954,-0.118,192,0,0,0,0,0,0,0,0,0,1.71E+09,0, 2024-03-15 15:23:09.481
189,-8311.496176,-18934.92269,-7865.265949,-13941.83355,-6110.877527,10665.11252,-4839.018564,5307.488776,0.056,0.954,-0.118,192,0,0,0,0,0,0,0,0,0,1.71E+09,0, 2024-03-15 15:23:09.481
190,-6725.952831,-19209.9162,-7900.738168,-13970.48849,-4608.527375,11314.78832,-3333.583872,9631.210224,0.056,0.954,-0.118,192,0,0,0,0,0,0,0,0,0,1.71E+09,0, 2024-03-15 15:23:09.481
191,-5871.110364,-19219.97448,-7959.031517,-14019.59527,-4774.533781,11427.21759,-3378.957913,11675.61253,0.056,0.954,-0.118,192,0,0,0,0,0,0,0,0,0,1.71E+09,0, 2024-03-15 15:23:09.481
192,-6831.967155,-18962.14711,-7977.471707,-14045.12096,-6368.503734,10857.13635,-4890.561687,8828.402618,0.056,0.954,-0.118,192,0,0,0,0,0,0,0,0,0,1.71E+09,0, 2024-03-15 15:23:09.481
193,-8500.837803,-18768.4916,-7920.608869,-14005.51367,-7329.226414,10317.96757,-5909.711827,4683.226905,0.056,0.954,-0.118,192,0,0,0,0,0,0,0,0,0,1.71E+09,0, 2024-03-15 15:23:09.481
194,-8336.28426,-18938.43191,-7867.277606,-13945.49923,-6131.687001,10652.01439,-4852.586073,5281.448994,0.056,0.954,-0.118,192,0,0,0,0,0,0,0,0,0,1.71E+09,0, 2024-03-15 15:23:09.481
195,-6750.584453,-19215.30297,-7907.108415,-13974.06476,-4622.340753,11303.76891,-3343.843322,9595.760357,0.056,0.954,-0.118,192,0,0,0,0,0,0,0,0,0,1.71E+09,0, 2024-03-15 15:23:09.481
196,-5864.248379,-19227.43997,-7965.98291,-14020.42228,-4770.532819,11429.22925,-3377.706215,11693.62804,0.056,0.954,-0.118,192,0,0,0,0,0,0,0,0,0,1.71E+09,0, 2024-03-15 15:23:09.961
197,-6800.987637,-18968.22679,-7984.400747,-14042.50581,-6361.060603,10863.90893,-4884.459661,8894.049691,0.06,0.954,-0.112,192,1,224,29,208,252,128,0,0,0,1.71E+09,0, 2024-03-15 15:23:09.961
198,-8485.258637,-18766.16702,-7929.191939,-14003.3679,-7345.096152,10315.46418,-5925.872138,4717.447426,0.06,0.954,-0.112,192,0,0,0,0,0,0,0,0,0,1.71E+09,0, 2024-03-15 15:23:09.961
199,-8345.068496,-18931.34641,-7876.508877,-13944.404,-6164.231141,10638.69275,-4889.824079,5258.806677,0.06,0.954,-0.112,192,0,0,0,0,0,0,0,0,0,1.71E+09,0, 2024-03-15 15:23:09.961
200,-6758.139343,-19203.88123,-7911.578764,-13967.06867,-4645.474809,11292.83891,-3377.750919,9559.863455,0.06,0.954,-0.112,192,0,0,0,0,0,0,0,0,0,1.71E+09,0, 2024-03-15 15:23:09.961
201,-5855.955882,-19213.49248,-7966.36289,-14010.54281,-4768.342348,11430.21273,-3390.357302,11690.07411,0.06,0.954,-0.112,192,0,0,0,0,0,0,0,0,0,1.71E+09,0, 2024-03-15 15:23:09.961
202,-6775.573704,-18950.83713,-7980.019805,-14031.95578,-6349.10242,10873.52018,-4883.185611,8921.810558,0.06,0.954,-0.112,192,0,0,0,0,0,0,0,0,0,1.71E+09,0, 2024-03-15 15:23:09.961
203,-8458.280082,-18748.10681,-7922.620526,-13995.79066,-7343.598586,10321.81207,-5934.254042,4720.867243,0.06,0.954,-0.112,192,0,0,0,0,0,0,0,0,0,1.71E+09,0, 2024-03-15 15:23:09.961
204,-8332.216243,-18911.54276,-7866.316481,-13937.43026,-6172.702452,10641.75494,-4909.69478,5202.659095,0.06,0.954,-0.112,192,0,0,0,0,0,0,0,0,0,1.71E+09,0, 2024-03-15 15:23:09.961
205,-6755.054802,-19192.61595,-7906.460214,-13965.50405,-4645.22894,11292.68244,-3384.076462,9507.605077,0.06,0.954,-0.112,192,0,0,0,0,0,0,0,0,0,1.71E+09,0, 2024-03-15 15:23:09.961
206,-5848.982137,-19208.26217,-7965.848799,-14011.88392,-4756.920607,11429.65393,-3384.255276,11690.16352,0.06,0.954,-0.112,192,0,0,0,0,0,0,0,0,0,1.71E+09,0, 2024-03-15 15:23:09.961
207,-6753.601939,-18949.8313,-7981.293855,-14030.74879,-6324.89548,10879.84572,-4861.973806,8968.458649,0.06,0.96,-0.112,192,1,224,30,0,252,128,0,0,0,1.71E+09,0, 2024-03-15 15:23:09.961
208,-8449.965233,-18751.19135,-7925.325087,-13992.95199,-7339.396458,10319.75571,-5923.413446,4749.27631,0.06,0.96,-0.112,192,0,0,0,0,0,0,0,0,0,1.71E+09,0, 2024-03-15 15:23:09.961
209,-8353.517455,-18906.02188,-7862.248464,-13925.71794,-6189.399205,10633.82007,-4916.087379,5168.416222,0.06,0.96,-0.112,192,0,0,0,0,0,0,0,0,0,1.71E+09,0, 2024-03-15 15:23:09.961
210,-6779.23939,-19181.77535,-7892.423319,-13941.72179,-4647.620576,11301.71255,-3384.747015,9448.618823,0.06,0.96,-0.112,192,0,0,0,0,0,0,0,0,0,1.71E+09,0, 2024-03-15 15:23:09.961
211,-5847.372812,-19210.02796,-7954.739982,-13993.53313,-4731.864301,11449.92697,-3357.030851,11694.11977,0.06,0.96,-0.112,192,0,0,0,0,0,0,0,0,0,1.71E+09,0, 2024-03-15 15:23:09.961
212,-6735.698192,-18952.08883,-7971.079108,-14015.08022,-6297.022855,10904.87968,-4832.670669,9029.925946,0.06,0.96,-0.112,192,0,0,0,0,0,0,0,0,0,1.71E+09,0, 2024-03-15 15:23:09.961
213,-8445.539587,-18744.46347,-7915.892651,-13978.3116,-7331.282774,10343.11328,-5915.143301,4792.012846,0.06,0.96,-0.112,192,0,0,0,0,0,0,0,0,0,1.71E+09,0, 2024-03-15 15:23:09.961
214,-8378.216133,-18902.84793,-7862.002595,-13921.64992,-6206.677104,10639.85504,-4937.723868,5140.387135,0.06,0.96,-0.112,192,0,0,0,0,0,0,0,0,0,1.71E+09,0, 2024-03-15 15:23:09.961
215,-6800.76412,-19192.14656,-7906.415511,-13952.45063,-4659.042318,11291.52015,-3394.268858,9427.474073,0.06,0.96,-0.112,192,0,0,0,0,0,0,0,0,0,1.71E+09,0, 2024-03-15 15:23:09.961
216,-5865.03069,-19228.60226,-7975.638864,-14015.43784,-4731.953708,11428.93868,-3353.700442,11710.81653,0.06,0.96,-0.112,192,0,0,0,0,0,0,0,0,0,1.71E+09,0, 2024-03-15 15:23:09.961
217,-6741.710811,-18969.12086,-7987.105308,-14034.79445,-6287.165736,10884.49489,-4816.331543,9070.293196,0.064,0.95,-0.11,192,2,0,29,176,252,144,0,0,0,1.71E+09,0, 2024-03-15 15:23:09.961
218,-8454.815561,-18761.78607,-7931.315354,-14001.22213,-7335.462551,10311.8879,-5912.684609,4801.288819,0.064,0.95,-0.11,192,0,0,0,0,0,0,0,0,0,1.71E+09,0, 2024-03-15 15:23:09.961
219,-8396.522212,-18915.67784,-7869.266912,-13938.07846,-6213.270868,10611.28951,-4936.740391,5119.130626,0.064,0.95,-0.11,192,0,0,0,0,0,0,0,0,0,1.71E+09,0, 2024-03-15 15:23:09.961
220,-6827.586213,-19193.91235,-7898.033607,-13957.79269,-4656.784792,11279.40551,-3391.363131,9390.169011,0.064,0.95,-0.11,192,0,0,0,0,0,0,0,0,0,1.71E+09,0, 2024-03-15 15:23:09.961
221,-5874.060795,-19231.97737,-7968.262788,-14014.34261,-4715.681638,11434.48191,-3333.628575,11715.44334,0.064,0.95,-0.11,192,0,0,0,0,0,0,0,0,0,1.71E+09,0, 2024-03-15 15:23:09.961
222,-6731.384305,-18982.57661,-7993.743777,-14041.63409,-6274.537,10889.83695,-4794.24802,9127.468959,0.064,0.95,-0.11,192,0,0,0,0,0,0,0,0,0,1.71E+09,0, 2024-03-15 15:23:09.961
223,-8443.863206,-18765.16119,-7936.188035,-14004.0161,-7342.972737,10318.66048,-5910.561193,4843.935948,0.064,0.95,-0.11,192,0,0,0,0,0,0,0,0,0,1.71E+09,0, 2024-03-15 15:23:09.961
224,-8407.988657,-18915.47667,-7878.676996,-13944.4487,-6245.613843,10607.82499,-4962.936635,5099.416387,0.064,0.95,-0.11,192,0,0,0,0,0,0,0,0,0,1.71E+09,0, 2024-03-15 15:23:09.961
225,-6843.299489,-19194.76172,-7910.930563,-13964.83349,-4683.450423,11272.00708,-3411.569108,9365.917369,0.064,0.95,-0.11,192,0,0,0,0,0,0,0,0,0,1.71E+09,0, 2024-03-15 15:23:09.961
226,-5877.346501,-19233.05025,-7979.595122,-14021.96455,-4724.175301,11427.3517,-3340.334098,11726.59686,0.064,0.95,-0.11,192,0,0,0,0,0,0,0,0,0,1.71E+09,0, 2024-03-15 15:23:09.961
227,-6708.719636,-18978.26272,-7997.834146,-14045.50094,-6267.965587,10888.83113,-4790.850555,9164.729317,0.066,0.956,-0.106,192,2,16,29,224,252,176,0,0,0,1.71E+09,0, 2024-03-15 15:23:09.961
228,-8425.691238,-18759.81912,-7942.804151,-14009.7158,-7352.896911,10306.90346,-5918.406656,4873.037919,0.066,0.956,-0.106,192,0,0,0,0,0,0,0,0,0,1.71E+09,0, 2024-03-15 15:23:09.961
229,-8413.062503,-18901.17155,-7878.945217,-13940.00071,-6267.764421,10591.06119,-4987.523554,5073.57777,0.066,0.956,-0.106,192,0,0,0,0,0,0,0,0,0,1.71E+09,0, 2024-03-15 15:23:09.961
230,-6857.559902,-19176.5674,-7906.259049,-13954.0376,-4697.062635,11261.68057,-3434.166722,9317.458787,0.066,0.956,-0.106,192,0,0,0,0,0,0,0,0,0,1.71E+09,0, 2024-03-15 15:23:09.961
231,-5869.098707,-19211.99491,-7967.122849,-14001.95974,-4713.021781,11435.44304,-3338.613014,11719.22078,0.066,0.956,-0.106,192,0,0,0,0,0,0,0,0,0,1.71E+09,0, 2024-03-15 15:23:09.961
232,-6678.567133,-18958.25791,-7979.505715,-14017.04717,-6236.181407,10913.46275,-4765.727194,9218.686428,0.066,0.956,-0.106,192,0,0,0,0,0,0,0,0,0,1.71E+09,0, 2024-03-15 15:23:09.961
233,-8405.73113,-18742.78709,-7926.889709,-13984.27951,-7339.508216,10327.2659,-5906.046141,4910.655905,0.066,0.956,-0.106,192,0,0,0,0,0,0,0,0,0,1.71E+09,0, 2024-03-15 15:23:09.961
234,-8415.990581,-18886.9782,-7868.86458,-13923.54982,-6273.754689,10599.64426,-4992.150365,5045.325165,0.066,0.956,-0.106,192,0,0,0,0,0,0,0,0,0,1.71E+09,0, 2024-03-15 15:23:09.961
235,-6857.314033,-19169.54895,-7899.687636,-13940.24657,-4694.648647,11269.34722,-3428.288213,9281.874809,0.066,0.956,-0.106,192,0,0,0,0,0,0,0,0,0,1.71E+09,0, 2024-03-15 15:23:09.961
236,-5867.019995,-19208.26217,-7962.898369,-13988.12401,-4700.281286,11451.04455,-3320.508101,11726.57451,0.066,0.956,-0.106,192,0,0,0,0,0,0,0,0,0,1.71E+09,0, 2024-03-15 15:23:09.961
237,-6673.470935,-18961.20834,-7984.69132,-14007.30181,-6226.167825,10929.13132,-4752.562017,9265.267463,0.066,0.948,-0.108,192,2,16,29,160,252,160,0,0,0,1.71E+09,0, 2024-03-15 15:23:09.961
238,-8401.573706,-18741.96008,-7930.465988,-13972.79071,-7343.240958,10337.48064,-5914.182176,4934.572272,0.066,0.948,-0.108,192,0,0,0,0,0,0,0,0,0,1.71E+09,0, 2024-03-15 15:23:09.961
239,-8422.405532,-18880.09386,-7862.919016,-13903.58971,-6285.69052,10608.76377,-5008.310677,5028.002563,0.066,0.948,-0.108,192,0,0,0,0,0,0,0,0,0,1.71E+09,0, 2024-03-15 15:23:09.961
240,-6880.358682,-19171.02416,-7895.50786,-13926.67907,-4698.984885,11275.85158,-3437.921815,9261.065335,0.066,0.948,-0.108,192,0,0,0,0,0,0,0,0,0,1.71E+09,0, 2024-03-15 15:23:09.961
241,-5874.865457,-19216.46526,-7960.037346,-13984.59244,-4685.372673,11452.65388,-3316.976525,11732.72124,0.066,0.948,-0.108,192,0,0,0,0,0,0,0,0,0,1.71E+09,0, 2024-03-15 15:23:09.961
242,-6647.542911,-18970.19374,-7977.449355,-14006.65361,-6193.064891,10934.89807,-4731.350211,9310.574449,0.066,0.948,-0.108,192,0,0,0,0,0,0,0,0,0,1.71E+09,0, 2024-03-15 15:23:09.961
243,-8388.207363,-18757.74041,-7931.047133,-13984.16775,-7333.428542,10330.5069,-5904.123891,4979.096947,0.066,0.948,-0.108,192,0,0,0,0,0,0,0,0,0,1.71E+09,0, 2024-03-15 15:23:09.961
244,-8445.807808,-18889.81687,-7861.488505,-13915.25732,-6299.705064,10587.17198,-5021.967592,4997.805357,0.066,0.948,-0.108,192,0,0,0,0,0,0,0,0,0,1.71E+09,0, 2024-03-15 15:23:09.961
245,-6899.000037,-19171.13592,-7885.382519,-13931.30588,-4699.208403,11258.149,-3444.716745,9207.890535,0.066,0.948,-0.108,192,0,0,0,0,0,0,0,0,0,1.71E+09,0, 2024-03-15 15:23:09.961
246,-5860.269768,-19220.22035,-7948.906177,-13986.09,-4653.543789,11445.68013,-3289.081548,11745.59584,0.066,0.948,-0.108,192,0,0,0,0,0,0,0,0,0,1.71E+09,0, 2024-03-15 15:23:09.961
247,-6627.5381,-18972.2501,-7971.414384,-14014.67788,-6168.589731,10926.44911,-4709.780778,9369.627758,0.068,0.948,-0.112,192,2,32,29,160,252,128,0,0,0,1.71E+09,0, 2024-03-15 15:23:09.961
248,-8367.28613,-18739.79196,-7916.78672,-13980.79264,-7320.933917,10330.32809,-5899.385321,5001.806319,0.068,0.948,-0.112,192,0,0,0,0,0,0,0,0,0,1.71E+09,0, 2024-03-15 15:23:09.961
249,-8436.956517,-18872.65073,-7857.688708,-13916.35256,-6312.803187,10574.90087,-5038.284366,4972.726699,0.068,0.948,-0.112,192,0,0,0,0,0,0,0,0,0,1.71E+09,0, 2024-03-15 15:23:09.961
250,-6898.262429,-19156.76375,-7891.216325,-13938.36903,-4716.441598,11240.71464,-3467.269655,9173.73707,0.068,0.948,-0.112,192,0,0,0,0,0,0,0,0,0,1.71E+09,0, 2024-03-15 15:23:09.961
251,-5856.514675,-19206.58579,-7957.153971,-13995.14246,-4663.982053,11433.14081,-3302.291429,11734.19645,0.068,0.948,-0.112,192,0,0,0,0,0,0,0,0,0,1.71E+09,0, 2024-03-15 15:23:09.961
252,-6610.550774,-18972.54067,-7985.965369,-14030.32411,-6170.891961,10914.91561,-4708.774949,9399.981427,0.068,0.948,-0.112,192,0,0,0,0,0,0,0,0,0,1.71E+09,0, 2024-03-15 15:23:09.962
253,-8360.357089,-18754.85703,-7942.91591,-14009.96167,-7348.448914,10302.299,-5919.479539,5019.151273,0.068,0.948,-0.112,192,0,0,0,0,0,0,0,0,0,1.71E+09,0, 2024-03-15 15:23:09.962
254,-8455.910797,-18887.17936,-7877.805278,-13947.13091,-6353.9751,10538.53459,-5077.623436,4925.184539,0.068,0.948,-0.112,192,0,0,0,0,0,0,0,0,0,1.71E+09,0, 2024-03-15 15:23:09.962
255,-6925.531557,-19176.50034,-7906.639028,-13964.34176,-4743.464857,11209.60101,-3491.029559,9115.577831,0.068,0.948,-0.112,192,0,0,0,0,0,0,0,0,0,1.71E+09,0, 2024-03-15 15:23:09.962
0,-5869.590446,-19224.98128,-7965.893503,-14011.0122,-4663.713832,11419.79681,-3299.9892,11732.78829,0.068,0.948,-0.112,192,0,0,0,0,0,0,0,0,0,1.71E+09,0, 2024-03-15 15:23:09.962
1,-6597.698521,-18986.77873,-7992.626189,-14036.38143,-6159.693737,10919.40831,-4694.849812,9450.518721,0.064,0.946,-0.12,192,2,0,29,144,252,64,0,0,0,1.71E+09,0, 2024-03-15 15:23:09.962
2,-8354.433877,-18758.12039,-7942.446523,-14005.51367,-7346.638423,10307.57401,-5913.198699,5049.415535,0.064,0.946,-0.12,192,0,0,0,0,0,0,0,0,0,1.71E+09,0, 2024-03-15 15:23:09.962
3,-8485.660969,-18881.01028,-7875.100717,-13937.22909,-6374.73987,10537.03702,-5092.710864,4880.99514,0.064,0.946,-0.12,192,0,0,0,0,0,0,0,0,0,1.71E+09,0, 2024-03-15 15:23:09.962
4,-6952.376002,-19167.82786,-7899.508822,-13948.65083,-4748.292833,11216.97709,-3489.911972,9059.69847,0.064,0.946,-0.12,192,0,0,0,0,0,0,0,0,0,1.71E+09,0, 2024-03-15 15:23:09.962
5,-5873.993739,-19237.90058,-7978.879866,-14013.96263,-4657.634158,11421.20497,-3289.327418,11742.33249,0.064,0.946,-0.12,192,0,0,0,0,0,0,0,0,0,1.71E+09,0, 2024-03-15 15:23:09.962
6,-6594.390463,-18998.33459,-8003.086806,-14037.9237,-6147.735554,10922.13522,-4681.170545,9494.439899,0.064,0.946,-0.12,192,0,0,0,0,0,0,0,0,0,1.71E+09,0, 2024-03-15 15:23:09.962
7,-8363.06165,-18755.0582,-7943.340593,-13993.89076,-7347.37603,10314.92773,-5910.292972,5075.678834,0.064,0.946,-0.12,192,0,0,0,0,0,0,0,0,0,1.71E+09,0, 2024-03-15 15:23:09.962
8,-8501.06132,-18878.70805,-7877.671168,-13921.53816,-6381.91478,10542.6026,-5095.281314,4877.351806,0.064,0.946,-0.12,192,0,0,0,0,0,0,0,0,0,1.71E+09,0, 2024-03-15 15:23:09.962
9,-6980.360386,-19171.20298,-7907.019008,-13940.20187,-4758.976967,11218.63111,-3500.39494,9044.365173,0.064,0.946,-0.12,192,0,0,0,0,0,0,0,0,0,1.71E+09,0, 2024-03-15 15:23:09.962
10,-5903.542746,-19232.15619,-7969.872113,-13993.84606,-4648.201722,11440.0475,-3277.324531,11742.48895,0.064,0.946,-0.12,192,0,0,0,0,0,0,0,0,0,1.71E+09,0, 2024-03-15 15:23:09.962
11,-6599.59842,-18990.64559,-7986.412404,-14012.57682,-6116.756036,10954.63466,-4644.670146,9534.158949,0.062,0.952,-0.116,192,1,240,29,192,252,96,0,0,0,1.71E+09,0, 2024-03-15 15:23:09.962
12,-8354.120952,-18755.43818,-7933.014087,-13981.93258,-7329.606394,10337.77122,-5885.080205,5103.998495,0.062,0.952,-0.116,192,0,0,0,0,0,0,0,0,0,1.71E+09,0, 2024-03-15 15:23:09.962
13,-8502.290666,-18882.35138,-7868.283435,-13916.86665,-6378.003225,10556.036,-5086.720596,4856.788201,0.062,0.952,-0.116,192,0,0,0,0,0,0,0,0,0,1.71E+09,0, 2024-03-15 15:23:09.962
14,-6989.256381,-19172.0747,-7892.535078,-13932.98226,-4748.985737,11230.49989,-3485.955714,9010.904611,0.062,0.952,-0.116,192,0,0,0,0,0,0,0,0,0,1.71E+09,0, 2024-03-15 15:23:09.962
15,-5899.1171,-19234.83839,-7956.528122,-13990.20272,-4624.397114,11450.9775,-3252.312929,11747.78631,0.062,0.952,-0.116,192,0,0,0,0,0,0,0,0,0,1.71E+09,0, 2024-03-15 15:23:09.962
16,-6567.657777,-18993.52896,-7974.655387,-14009.8052,-6085.731815,10967.75514,-4615.299954,9585.567961,0.062,0.952,-0.116,192,0,0,0,0,0,0,0,0,0,1.71E+09,0, 2024-03-15 15:23:09.962
17,-8326.516548,-18754.00767,-7924.185148,-13980.59147,-7319.726922,10340.76635,-5877.234742,5150.981861,0.062,0.952,-0.116,192,0,0,0,0,0,0,0,0,0,1.71E+09,0, 2024-03-15 15:23:09.962
18,-8510.002018,-18872.74013,-7859.856827,-13918.096,-6398.56683,10541.48502,-5105.652524,4839.510302,0.062,0.952,-0.116,192,0,0,0,0,0,0,0,0,0,1.71E+09,0, 2024-03-15 15:23:09.962
19,-7002.332151,-19154.03684,-7880.912171,-13929.74126,-4763.313206,11220.28514,-3511.950792,8969.732698,0.062,0.952,-0.116,192,0,0,0,0,0,0,0,0,0,1.71E+09,0, 2024-03-15 15:23:09.962
20,-5877.97235,-19215.28062,-7944.815808,-13982.31256,-4611.65662,11454.33026,-3259.241969,11745.0147,0.062,0.952,-0.116,192,0,0,0,0,0,0,0,0,0,1.71E+09,0, 2024-03-15 15:23:09.962
21,-6526.619974,-18976.42988,-7968.195733,-14004.35138,-6073.036024,10975.73471,-4618.58566,9629.153863,0.06,0.952,-0.12,192,1,224,29,192,252,64,0,0,0,1.71E+09,0, 2024-03-15 15:23:09.962
22,-8296.542859,-18734.04756,-7923.089912,-13976.18818,-7332.243899,10343.00153,-5900.726426,5171.925446,0.06,0.952,-0.12,192,0,0,0,0,0,0,0,0,0,1.71E+09,0, 2024-03-15 15:23:09.962
23,-8498.960256,-18854.23289,-7864.416583,-13917.13487,-6430.172197,10536.45587,-5149.03726,4808.396674,0.06,0.952,-0.12,192,0,0,0,0,0,0,0,0,0,1.71E+09,0, 2024-03-15 15:23:09.962
24,-7003.785015,-19139.86583,-7887.595342,-13931.26117,-4789.621209,11213.04318,-3542.326813,8921.385875,0.06,0.952,-0.12,192,0,0,0,0,0,0,0,0,0,1.71E+09,0, 2024-03-15 15:23:09.962
25,-5883.537934,-19210.47499,-7951.946014,-13986.91702,-4622.139588,11451.04455,-3264.62874,11730.3743,0.06,0.952,-0.12,192,0,0,0,0,0,0,0,0,0,1.71E+09,0, 2024-03-15 15:23:09.962
26,-6527.670506,-18983.31421,-7981.159744,-14015.61666,-6070.599684,10975.77941,-4610.516681,9663.508494,0.06,0.952,-0.12,192,0,0,0,0,0,0,0,0,0,1.71E+09,0, 2024-03-15 15:23:09.962
27,-8296.453452,-18746.54219,-7941.038363,-13995.18716,-7338.345926,10341.97335,-5903.252173,5204.335475,0.06,0.952,-0.12,192,0,0,0,0,0,0,0,0,0,1.71E+09,0, 2024-03-15 15:23:09.962
28,-8510.91844,-18855.90927,-7870.585665,-13922.43223,-6444.05263,10538.7134,-5159.028489,4782.133374,0.06,0.952,-0.12,192,0,0,0,0,0,0,0,0,0,1.71E+09,0, 2024-03-15 15:23:09.962
29,-7030.808274,-19149.7453,-7897.9442,-13938.19021,-4798.830128,11216.23948,-3551.356918,8881.108031,0.06,0.952,-0.12,192,0,0,0,0,0,0,0,0,0,1.71E+09,0, 2024-03-15 15:23:09.962
30,-5906.426121,-19228.40109,-7966.072317,-13999.32224,-4618.339791,11455.15727,-3266.148659,11732.36361,0.06,0.952,-0.12,192,0,0,0,0,0,0,0,0,0,1.71E+09,0, 2024-03-15 15:23:09.962
31,-6526.038829,-18996.79232,-7986.390053,-14018.47768,-6050.080782,10991.20211,-4591.651808,9705.552126,0.06,0.952,-0.12,192,0,0,0,0,0,0,0,0,0,1.71E+09,0, 2024-03-15 15:23:09.962
32,-8297.548687,-18754.47705,-7942.602985,-13993.0414,-7329.785207,10355.00441,-5887.985931,5238.198368,0.062,0.946,-0.126,192,1,240,29,144,252,16,0,0,0,1.71E+09,0, 2024-03-15 15:23:09.962
33,-8542.657917,-18859.10557,-7873.312577,-13925.06974,-6459.94472,10539.02632,-5170.360824,4762.754412,0.062,0.946,-0.126,192,0,0,0,0,0,0,0,0,0,1.71E+09,0, 2024-03-15 15:23:09.962
34,-7062.391289,-19156.98727,-7900.805223,-13944.11343,-4814.051666,11209.39984,-3556.587226,8837.00804,0.062,0.946,-0.126,192,0,0,0,0,0,0,0,0,0,1.71E+09,0, 2024-03-15 15:23:09.962
35,-5905.196775,-19239.95694,-7970.006224,-13999.74692,-4611.634268,11453.32443,-3244.355708,11727.11095,0.062,0.946,-0.126,192,0,0,0,0,0,0,0,0,0,1.71E+09,0, 2024-03-15 15:23:09.962
36,-6500.624895,-19012.595,-7992.648541,-14020.31052,-6031.260613,10998.13116,-4560.873456,9753.384859,0.062,0.946,-0.126,192,0,0,0,0,0,0,0,0,0,1.71E+09,0, 2024-03-15 15:23:09.962
37,-8283.355329,-18768.29043,-7951.230759,-13997.82467,-7330.008725,10356.63609,-5877.748832,5273.134145,0.062,0.946,-0.126,192,0,0,0,0,0,0,0,0,0,1.71E+09,0, 2024-03-15 15:23:09.962
38,-8558.170028,-18871.22022,-7882.923828,-13925.89675,-6482.832907,10533.55015,-5184.174202,4732.825426,0.062,0.946,-0.126,192,0,0,0,0,0,0,0,0,0,1.71E+09,0, 2024-03-15 15:23:09.962
39,-7077.992806,-19159.9824,-7894.949066,-13929.85301,-4814.476349,11220.48631,-3558.889456,8801.245248,0.062,0.946,-0.126,192,0,0,0,0,0,0,0,0,0,1.71E+09,0, 2024-03-15 15:23:09.962
40,-5911.634077,-19241.38746,-7955.812866,-13982.60313,-4585.370968,11478.82777,-3222.495702,11748.3004,0.062,0.946,-0.126,192,0,0,0,0,0,0,0,0,0,1.71E+09,0, 2024-03-15 15:23:09.962
41,-6498.188555,-19011.58917,-7977.51641,-14005.35721,-6002.829194,11018.98533,-4533.492569,9819.367208,0.062,0.946,-0.126,192,0,0,0,0,0,0,0,0,0,1.71E+09,0, 2024-03-15 15:23:09.962
42,-8264.91514,-18764.33417,-7934.042267,-13980.79264,-7309.936858,10370.51652,-5859.867437,5333.595614,0.062,0.952,-0.118,192,1,240,29,192,252,80,0,0,0,1.71E+09,0, 2024-03-15 15:23:09.962
43,-8543.887263,-18874.64003,-7872.485563,-13921.87344,-6480.485973,10523.44716,-5182.542525,4748.359889,0.062,0.952,-0.118,192,0,0,0,0,0,0,0,0,0,1.71E+09,0, 2024-03-15 15:23:09.962
44,-7084.96655,-19167.55964,-7895.574915,-13938.74901,-4826.725105,11193.03837,-3571.227619,8780.234609,0.062,0.952,-0.118,192,0,0,0,0,0,0,0,0,0,1.71E+09,0, 2024-03-15 15:23:09.962
45,-5911.16469,-19242.19212,-7954.695279,-13990.69446,-4590.757738,11458.6665,-3231.816379,11731.82717,0.062,0.952,-0.118,192,0,0,0,0,0,0,0,0,0,1.71E+09,0, 2024-03-15 15:23:09.962
46,-6469.958302,-19020.01578,-7983.104346,-14019.05883,-5999.56584,11002.89208,-4534.252528,9842.791837,0.062,0.952,-0.118,192,0,0,0,0,0,0,0,0,0,1.71E+09,0, 2024-03-15 15:23:09.962
47,-8238.584785,-18763.95419,-7936.791532,-13997.35528,-7319.972792,10352.65748,-5871.937379,5350.582939,0.062,0.952,-0.118,192,0,0,0,0,0,0,0,0,0,1.71E+09,0, 2024-03-15 15:23:09.962
48,-8549.36344,-18856.02103,-7866.539999,-13929.6742,-6513.36539,10503.33059,-5212.940897,4696.839118,0.062,0.952,-0.118,192,0,0,0,0,0,0,0,0,0,1.71E+09,0, 2024-03-15 15:23:09.962
49,-7092.38733,-19142.0116,-7882.812069,-13937.87729,-4847.176951,11178.59914,-3591.835927,8695.230925,0.062,0.952,-0.118,192,0,0,0,0,0,0,0,0,0,1.71E+09,0, 2024-03-15 15:23:09.962
50,-5886.533068,-19216.86759,-7936.836235,-13981.77612,-4571.915218,11457.3701,-3220.416989,11694.11977,0.062,0.952,-0.118,192,0,0,0,0,0,0,0,0,0,1.71E+09,0, 2024-03-15 15:23:09.962
51,-6421.723237,-19002.20144,-7973.068413,-14013.35913,-5967.938121,11008.14474,-4512.347819,9875.134811,0.062,0.952,-0.118,192,0,0,0,0,0,0,0,0,0,1.71E+09,0, 2024-03-15 15:23:09.962
52,-8205.928887,-18748.0174,-7935.405724,-13991.2309,-7312.708475,10348.433,-5871.043309,5370.073661,0.062,0.95,-0.116,192,1,240,29,176,252,96,0,0,0,1.71E+09,0, 2024-03-15 15:23:09.962
53,-8542.009716,-18845.89569,-7870.451554,-13925.60618,-6525.524738,10491.30535,-5232.901005,4656.561274,0.062,0.95,-0.116,192,0,0,0,0,0,0,0,0,0,1.71E+09,0, 2024-03-15 15:23:09.962
54,-7092.543792,-19139.48585,-7889.852868,-13937.3632,-4855.022413,11167.64679,-3604.911697,8652.427334,0.062,0.95,-0.116,192,0,0,0,0,0,0,0,0,0,1.71E+09,0, 2024-03-15 15:23:09.962
55,-5901.061702,-19235.59835,-7963.792439,-14001.40095,-4582.308779,11438.48287,-3231.436399,11698.67953,0.062,0.95,-0.116,192,0,0,0,0,0,0,0,0,0,1.71E+09,0, 2024-03-15 15:23:09.962
56,-6443.806761,-19024.37437,-8001.34337,-14035.73323,-5979.829249,10989.88336,-4519.27686,9906.203736,0.062,0.95,-0.116,192,0,0,0,0,0,0,0,0,0,1.71E+09,0, 2024-03-15 15:23:09.962
57,-8222.223308,-18761.62961,-7951.364869,-14003.63612,-7321.693876,10341.16868,-5871.31153,5393.230068,0.062,0.95,-0.116,192,0,0,0,0,0,0,0,0,0,1.71E+09,0, 2024-03-15 15:23:09.962
58,-8567.311891,-18851.68479,-7881.783889,-13931.19412,-6546.602434,10484.55512,-5245.127409,4629.560367,0.062,0.95,-0.116,192,0,0,0,0,0,0,0,0,0,1.71E+09,0, 2024-03-15 15:23:09.962
59,-7134.699182,-19145.9008,-7902.481604,-13940.20187,-4877.038881,11160.87421,-3619.820311,8612.417711,0.062,0.95,-0.116,192,0,0,0,0,0,0,0,0,0,1.71E+09,0, 2024-03-15 15:23:09.962
60,-5928.442589,-19238.90641,-7968.307491,-13990.56035,-4580.453584,11447.60238,-3217.377152,11718.61729,0.062,0.95,-0.116,192,0,0,0,0,0,0,0,0,0,1.71E+09,0, 2024-03-15 15:23:10.443
61,-6437.749438,-19024.06144,-7994.347274,-14014.87905,-5950.74963,11014.47028,-4480.049548,9979.003367,0.062,0.95,-0.116,192,0,0,0,0,0,0,0,0,0,1.71E+09,0, 2024-03-15 15:23:10.443
62,-8210.086311,-18763.48481,-7948.414439,-13987.76638,-7309.44512,10360.6594,-5850.233835,5459.88297,0.06,0.95,-0.118,192,1,224,29,176,252,80,0,0,0,1.71E+09,0, 2024-03-15 15:23:10.443
63,-8586.109708,-18850.81307,-7875.123069,-13919.45945,-6558.873541,10488.51138,-5247.340232,4627.883986,0.06,0.95,-0.118,192,0,0,0,0,0,0,0,0,0,1.71E+09,0, 2024-03-15 15:23:10.443
64,-7154.256958,-19145.34201,-7891.886877,-13928.53426,-4875.74248,11167.28916,-3611.639573,8580.611179,0.06,0.95,-0.118,192,0,0,0,0,0,0,0,0,0,1.71E+09,0, 2024-03-15 15:23:10.443
65,-5923.324039,-19241.29805,-7957.824523,-13984.99477,-4555.553741,11459.62762,-3187.045835,11712.9623,0.06,0.95,-0.118,192,0,0,0,0,0,0,0,0,0,1.71E+09,0, 2024-03-15 15:23:10.443
66,-6410.837938,-19027.45891,-7986.702977,-14011.54864,-5921.915879,11033.64808,-4443.392687,10017.67189,0.06,0.95,-0.118,192,0,0,0,0,0,0,0,0,0,1.71E+09,0, 2024-03-15 15:23:10.443
67,-8196.183526,-18771.48673,-7946.693354,-13990.96268,-7298.179841,10373.17638,-5824.730495,5514.845909,0.06,0.95,-0.118,192,0,0,0,0,0,0,0,0,0,1.71E+09,0, 2024-03-15 15:23:10.444
68,-8596.12329,-18852.51181,-7867.881104,-13917.4478,-6567.009576,10495.68629,-5240.858226,4630.789713,0.06,0.95,-0.118,192,0,0,0,0,0,0,0,0,0,1.71E+09,0, 2024-03-15 15:23:10.444
69,-7172.250113,-19142.59275,-7879.906342,-13920.30882,-4880.637512,11175.04521,-3602.698875,8556.02426,0.06,0.95,-0.118,192,0,0,0,0,0,0,0,0,0,1.71E+09,0, 2024-03-15 15:23:10.444
70,-5930.945984,-19240.49339,-7947.542721,-13978.19984,-4546.836561,11472.54693,-3170.438489,11705.34035,0.06,0.95,-0.118,192,0,0,0,0,0,0,0,0,0,1.71E+09,0, 2024-03-15 15:23:10.444
71,-6401.89724,-19024.64259,-7980.489192,-14007.10064,-5908.281315,11053.02704,-4428.171149,10054.75343,0.06,0.95,-0.118,192,0,0,0,0,0,0,0,0,0,1.71E+09,0, 2024-03-15 15:23:10.444
72,-8173.183581,-18752.13012,-7938.065581,-13981.88787,-7297.889268,10393.29295,-5825.266936,5545.60191,0.062,0.952,-0.118,192,1,240,29,192,252,80,0,0,0,1.71E+09,0, 2024-03-15 15:23:10.444
73,-8584.008644,-18823.87922,-7869.646891,-13914.9444,-6587.640236,10503.44235,-5267.30034,4620.105579,0.062,0.952,-0.118,192,0,0,0,0,0,0,0,0,0,1.71E+09,0, 2024-03-15 15:23:10.444
74,-7171.937188,-19109.60157,-7885.159002,-13924.15332,-4902.743388,11180.78961,-3634.036021,8511.834861,0.062,0.952,-0.118,192,0,0,0,0,0,0,0,0,0,1.71E+09,0, 2024-03-15 15:23:10.444
75,-5921.938231,-19207.3681,-7951.7672,-13983.94424,-4549.585825,11485.01921,-3177.680454,11704.13336,0.062,0.952,-0.118,192,0,0,0,0,0,0,0,0,0,1.71E+09,0, 2024-03-15 15:23:10.444
76,-6376.237437,-19008.43757,-7996.403634,-14030.2794,-5903.363932,11061.63246,-4420.191577,10117.67359,0.062,0.952,-0.118,192,0,0,0,0,0,0,0,0,0,1.71E+09,0, 2024-03-15 15:23:10.444
77,-8152.642328,-18745.71517,-7962.339576,-14019.3941,-7309.534527,10392.73416,-5830.94428,5597.010922,0.062,0.952,-0.118,192,0,0,0,0,0,0,0,0,0,1.71E+09,0, 2024-03-15 15:23:10.444
78,-8598.246705,-18820.21353,-7890.299903,-13956.02691,-6623.537138,10492.89232,-5293.943619,4591.696512,0.062,0.952,-0.118,192,0,0,0,0,0,0,0,0,0,1.71E+09,0, 2024-03-15 15:23:10.444
79,-7196.121776,-19110.29447,-7899.911153,-13962.15128,-4934.236995,11169.50198,-3654.644329,8449.249977,0.062,0.952,-0.118,192,0,0,0,0,0,0,0,0,0,1.71E+09,0, 2024-03-15 15:23:10.444
80,-5925.827435,-19218.9016,-7968.486305,-14021.78574,-4556.425459,11476.14556,-3177.456937,11676.86423,0.062,0.952,-0.118,192,0,0,0,0,0,0,0,0,0,1.71E+09,0, 2024-03-15 15:23:10.444
81,-6355.450315,-19021.13337,-8007.512451,-14058.93434,-5886.890696,11065.40991,-4401.460815,10132.31398,0.062,0.952,-0.118,192,0,0,0,0,0,0,0,0,0,1.71E+09,0, 2024-03-15 15:23:10.444
82,-8139.030115,-18759.99794,-7973.917779,-14049.63601,-7310.607411,10390.7225,-5826.406875,5616.635754,0.06,0.942,-0.118,192,1,224,29,112,252,80,0,0,0,1.71E+09,0, 2024-03-15 15:23:10.444
83,-8605.935705,-18834.4516,-7900.268781,-13978.71393,-6643.586653,10480.353,-5302.973724,4566.751965,0.06,0.942,-0.118,192,0,0,0,0,0,0,0,0,0,1.71E+09,0, 2024-03-15 15:23:10.444
84,-7214.606668,-19127.34886,-7911.53406,-13984.21246,-4951.33608,11153.22991,-3660.746355,8400.433767,0.06,0.942,-0.118,192,0,0,0,0,0,0,0,0,0,1.71E+09,0, 2024-03-15 15:23:10.444
85,-5937.830322,-19237.92294,-7977.00232,-14039.95771,-4552.625662,11469.08241,-3164.716442,11649.30453,0.06,0.942,-0.118,192,0,0,0,0,0,0,0,0,0,1.71E+09,0, 2024-03-15 15:23:10.444
86,-6358.892484,-19038.14304,-8010.976972,-14071.45131,-5872.607931,11069.32146,-4379.131422,10148.38489,0.06,0.942,-0.118,192,0,0,0,0,0,0,0,0,0,1.71E+09,0, 2024-03-15 15:23:10.444
87,-8128.97183,-18768.22338,-7969.201561,-14048.56313,-7298.492765,10400.17729,-5809.106625,5635.187702,0.06,0.942,-0.118,192,0,0,0,0,0,0,0,0,0,1.71E+09,0, 2024-03-15 15:23:10.444
88,-8607.232107,-18835.65859,-7895.731377,-13976.18818,-6650.6051,10481.44823,-5310.550965,4542.813247,0.06,0.942,-0.118,192,0,0,0,0,0,0,0,0,0,1.71E+09,0, 2024-03-15 15:23:10.444
89,-7226.520148,-19124.53254,-7902.191031,-13975.51763,-4953.504199,11154.90629,-3669.664701,8355.462057,0.06,0.942,-0.118,192,0,0,0,0,0,0,0,0,0,1.71E+09,0, 2024-03-15 15:23:10.444
90,-5954.482371,-19239.35345,-7964.619454,-14031.24053,-4539.974575,11475.89969,-3161.22957,11631.44548,0.06,0.942,-0.118,192,0,0,0,0,0,0,0,0,0,1.71E+09,0, 2024-03-15 15:23:10.444
91,-6360.568864,-19042.21106,-7996.180117,-14064.11994,-5846.031707,11077.65866,-4361.853523,10173.28473,0.06,0.942,-0.118,192,0,0,0,0,0,0,0,0,0,1.71E+09,0, 2024-03-15 15:23:10.444
92,-8126.155511,-18775.80062,-7958.070392,-14047.98198,-7281.572495,10398.81383,-5799.003637,5659.305234,0.058,0.942,-0.112,192,1,208,29,112,252,128,0,0,0,1.71E+09,0, 2024-03-15 15:23:10.444
93,-8621.201947,-18837.96082,-7877.134726,-13972.20957,-6644.145446,10475.43561,-5312.003829,4527.390543,0.058,0.942,-0.112,192,0,0,0,0,0,0,0,0,0,1.71E+09,0, 2024-03-15 15:23:10.444
94,-7250.302404,-19127.10299,-7880.688653,-13971.00258,-4942.663603,11150.79357,-3667.004844,8326.650658,0.058,0.942,-0.112,192,0,0,0,0,0,0,0,0,0,1.71E+09,0, 2024-03-15 15:23:10.444
95,-5969.59215,-19250.46226,-7951.342517,-14029.05006,-4523.814264,11469.01536,-3153.898198,11632.87599,0.058,0.942,-0.112,192,0,0,0,0,0,0,0,0,0,1.71E+09,0, 2024-03-15 15:23:10.444
96,-6340.27348,-19047.68724,-7977.963445,-14052.85466,-5814.627506,11080.98907,-4331.343392,10208.46638,0.058,0.942,-0.112,192,0,0,0,0,0,0,0,0,0,1.71E+09,0, 2024-03-15 15:23:10.444
97,-8102.44031,-18779.13103,-7940.770142,-14036.31437,-7262.953492,10404.29001,-5774.95316,5696.990275,0.058,0.942,-0.112,192,0,0,0,0,0,0,0,0,0,1.71E+09,0, 2024-03-15 15:23:10.444
98,-8623.258307,-18840.59833,-7863.924845,-13958.88793,-6650.694507,10471.43465,-5313.568451,4508.637429,0.058,0.942,-0.112,192,0,0,0,0,0,0,0,0,0,1.71E+09,0, 2024-03-15 15:23:10.444
99,-7264.629872,-19133.76381,-7876.441822,-13960.54196,-4954.688842,11135.95201,-3670.648178,8283.243571,0.058,0.942,-0.112,192,0,0,0,0,0,0,0,0,0,1.71E+09,0, 2024-03-15 15:23:10.444
100,-5968.228694,-19241.52157,-7936.612718,-14009.60404,-4513.420703,11464.56736,-3138.788419,11593.69339,0.058,0.942,-0.112,192,0,0,0,0,0,0,0,0,0,1.71E+09,0, 2024-03-15 15:23:10.444
101,-6321.833291,-19039.4618,-7969.000395,-14041.61174,-5799.763596,11082.66545,-4319.072285,10208.60049,0.058,0.942,-0.112,192,0,0,0,0,0,0,0,0,0,1.71E+09,0, 2024-03-15 15:23:10.444
102,-8074.098298,-18768.67041,-7937.909119,-14032.11224,-7261.031242,10400.62432,-5778.462384,5708.769644,0.064,0.944,-0.106,192,2,0,29,128,252,176,0,0,0,1.71E+09,0, 2024-03-15 15:23:10.444
103,-8605.399264,-18827.74607,-7870.697423,-13965.16877,-6671.526333,10454.04499,-5335.495512,4495.4499,0.064,0.944,-0.106,192,0,0,0,0,0,0,0,0,0,1.71E+09,0, 2024-03-15 15:23:10.444
104,-7261.098297,-19106.42762,-7873.401984,-13959.80435,-4975.721833,11125.37964,-3698.923135,8215.093102,0.064,0.944,-0.106,192,0,0,0,0,0,0,0,0,0,1.71E+09,0, 2024-03-15 15:23:10.444
105,-5959.511514,-19216.80054,-7933.237604,-14010.05107,-4513.979496,11469.10476,-3144.82339,11549.32517,0.064,0.944,-0.106,192,0,0,0,0,0,0,0,0,0,1.71E+09,0, 2024-03-15 15:23:10.444
106,-6299.548602,-19019.85932,-7968.016919,-14040.20358,-5788.297151,11092.90255,-4309.706904,10217.29531,0.064,0.944,-0.106,192,0,0,0,0,0,0,0,0,0,1.71E+09,0, 2024-03-15 15:23:10.444
107,-8045.845693,-18749.9173,-7936.523311,-14028.11128,-7263.869913,10407.93334,-5783.983264,5707.294429,0.064,0.944,-0.106,192,0,0,0,0,0,0,0,0,0,1.71E+09,0, 2024-03-15 15:23:10.444
108,-8601.934743,-18811.474,-7871.256217,-13963.71591,-6696.716749,10450.17814,-5362.831695,4436.485998,0.064,0.944,-0.106,192,0,0,0,0,0,0,0,0,0,1.71E+09,0, 2024-03-15 15:23:10.444
109,-7277.593884,-19101.6667,-7885.762499,-13963.93942,-5002.856851,11113.68967,-3729.589728,8145.914453,0.064,0.944,-0.106,192,0,0,0,0,0,0,0,0,0,1.71E+09,0, 2024-03-15 15:23:10.444
110,-5964.764174,-19225.31655,-7955.231721,-14019.32705,-4525.714162,11458.17476,-3159.732003,11531.39907,0.064,0.944,-0.106,192,0,0,0,0,0,0,0,0,0,1.71E+09,0, 2024-03-15 15:23:10.444
111,-6279.856715,-19034.99145,-7991.530954,-14049.47955,-5780.33993,11092.232,-4302.956677,10257.03672,0.064,0.944,-0.106,192,0,0,0,0,0,0,0,0,0,1.71E+09,0, 2024-03-15 15:23:10.444
112,-8038.179045,-18768.37984,-7964.485343,-14043.69045,-7272.967073,10403.39594,-5789.146517,5763.106735,0.062,0.95,-0.112,192,1,240,29,176,252,128,0,0,0,1.71E+09,0, 2024-03-15 15:23:10.444
113,-8629.025057,-18814.29032,-7885.762499,-13966.01814,-6729.797331,10444.99254,-5395.532298,4406.847585,0.062,0.95,-0.112,192,0,0,0,0,0,0,0,0,0,1.71E+09,0, 2024-03-15 15:23:10.444
114,-7301.465547,-19105.17592,-7889.919924,-13958.70912,-5015.39618,11119.34467,-3741.011469,8102.820289,0.062,0.95,-0.112,192,0,0,0,0,0,0,0,0,0,1.71E+09,0, 2024-03-15 15:23:10.444
115,-5968.787488,-19229.69749,-7949.509674,-14009.98402,-4509.598554,11476.79376,-3142.364698,11532.67312,0.062,0.95,-0.112,192,0,0,0,0,0,0,0,0,0,1.71E+09,0, 2024-03-15 15:23:10.444
116,-6282.270704,-19047.68724,-7990.659236,-14048.02669,-5765.766593,11103.45258,-4288.115119,10290.05024,0.062,0.95,-0.112,192,0,0,0,0,0,0,0,0,0,1.71E+09,0, 2024-03-15 15:23:10.444
117,-8039.341335,-18776.91821,-7962.339576,-14041.32116,-7265.36748,10408.6039,-5780.988131,5793.303942,0.062,0.95,-0.112,192,0,0,0,0,0,0,0,0,0,1.71E+09,0, 2024-03-15 15:23:10.444
118,-8644.358354,-18820.01237,-7880.912171,-13964.18529,-6735.899357,10438.51053,-5397.298085,4393.034207,0.062,0.95,-0.112,192,0,0,0,0,0,0,0,0,0,1.71E+09,0, 2024-03-15 15:23:10.444
119,-7325.694838,-19110.29447,-7884.779022,-13957.56918,-5026.03561,11111.20863,-3751.203865,8057.535655,0.062,0.95,-0.112,192,0,0,0,0,0,0,0,0,0,1.71E+09,0, 2024-03-15 15:23:10.444
120,-5983.249066,-19233.27377,-7942.334764,-14007.19005,-4499.67438,11477.46432,-3138.564901,11508.28737,0.062,0.95,-0.112,192,0,0,0,0,0,0,0,0,0,1.71E+09,0, 2024-03-15 15:23:10.444
121,-6269.485506,-19048.40249,-7977.628169,-14039.95771,-5730.294374,11123.74796,-4256.889732,10328.96463,0.062,0.95,-0.112,192,0,0,0,0,0,0,0,0,0,1.71E+09,0, 2024-03-15 15:23:10.444
122,-8017.056646,-18772.53726,-7943.742924,-14026.85958,-7228.956488,10435.33658,-5747.818142,5840.220253,0.066,0.95,-0.114,192,2,16,29,176,252,112,0,0,0,1.71E+09,0, 2024-03-15 15:23:10.444
123,-8646.526473,-18820.48176,-7870.630368,-13959.24556,-6731.160787,10450.35695,-5391.285466,4398.532736,0.066,0.95,-0.114,192,0,0,0,0,0,0,0,0,0,1.71E+09,0, 2024-03-15 15:23:10.444
124,-7351.622862,-19106.65114,-7871.971473,-13947.39913,-5026.370886,11121.55749,-3750.37685,8014.687361,0.066,0.95,-0.114,192,0,0,0,0,0,0,0,0,0,1.71E+09,0, 2024-03-15 15:23:10.444
125,-6006.271363,-19244.67316,-7940.09959,-14002.60794,-4488.565563,11483.7228,-3118.537738,11492.90937,0.066,0.95,-0.114,192,0,0,0,0,0,0,0,0,0,1.71E+09,0, 2024-03-15 15:23:10.444
126,-6269.910189,-19062.28293,-7976.376471,-14031.32993,-5709.35079,11138.16483,-4220.970478,10358.31247,0.066,0.95,-0.114,192,0,0,0,0,0,0,0,0,0,1.71E+09,0, 2024-03-15 15:23:10.444
127,-8017.011943,-18792.09504,-7954.985852,-14025.69729,-7235.371439,10444.65726,-5731.814293,5873.23378,0.066,0.95,-0.114,192,0,0,0,0,0,0,0,0,0,1.71E+09,0, 2024-03-15 15:23:10.444
128,-8672.789773,-18831.9929,-7882.946179,-13957.81505,-6766.856523,10451.40749,-5410.329152,4358.09843,0.066,0.95,-0.114,192,0,0,0,0,0,0,0,0,0,1.71E+09,0, 2024-03-15 15:23:10.444
129,-7380.166039,-19110.69681,-7882.253275,-13944.04637,-5058.400936,11122.58567,-3772.929761,7942.714744,0.066,0.95,-0.114,192,0,0,0,0,0,0,0,0,0,1.71E+09,0, 2024-03-15 15:23:10.444
130,-6004.594982,-19234.48077,-7940.434866,-13985.68767,-4494.734644,11502.76649,-3121.443465,11466.69077,0.066,0.95,-0.114,192,0,0,0,0,0,0,0,0,0,1.71E+09,0, 2024-03-15 15:23:10.444
131,-6243.870407,-19047.2402,-7978.075204,-14019.05883,-5704.23224,11155.39803,-4223.876205,10388.97906,0.066,0.95,-0.114,192,0,0,0,0,0,0,0,0,0,1.71E+09,0, 2024-03-15 15:23:10.444
132,-7986.725329,-18773.83367,-7959.858532,-14021.9422,-7238.366573,10447.27241,-5749.338061,5909.75653,0.068,0.95,-0.11,192,2,32,29,176,252,144,0,0,0,1.71E+09,0, 2024-03-15 15:23:10.444
133,-8661.569197,-18800.4993,-7883.057938,-13953.12118,-6788.738881,10439.73988,-5445.711964,4334.047953,0.068,0.95,-0.11,192,0,0,0,0,0,0,0,0,0,1.71E+09,0, 2024-03-15 15:23:10.444
134,-7377.014444,-19090.15555,-7888.534115,-13950.21545,-5079.858611,11103.20671,-3804.31161,7890.121089,0.068,0.95,-0.11,192,0,0,0,0,0,0,0,0,0,1.71E+09,0, 2024-03-15 15:23:10.444
135,-6006.852508,-19238.83936,-7963.16659,-14019.77408,-4511.409046,11471.00466,-3143.906968,11446.90948,0.068,0.95,-0.11,192,0,0,0,0,0,0,0,0,0,1.71E+09,0, 2024-03-15 15:23:10.444
136,-6247.290224,-19060.20422,-8004.986704,-14059.11315,-5716.570403,11124.70908,-4237.64488,10401.02665,0.068,0.95,-0.11,192,0,0,0,0,0,0,0,0,0,1.71E+09,0, 2024-03-15 15:23:10.444
137,-7983.953712,-18780.53919,-7977.806983,-14051.04417,-7256.382079,10426.37353,-5760.782154,5914.293935,0.068,0.95,-0.11,192,0,0,0,0,0,0,0,0,0,1.71E+09,0, 2024-03-15 15:23:10.444
138,-8662.664433,-18810.95991,-7899.441767,-13978.11043,-6813.571669,10420.85265,-5465.560313,4304.78952,0.068,0.95,-0.11,192,0,0,0,0,0,0,0,0,0,1.71E+09,0, 2024-03-15 15:23:10.444
139,-7394.672322,-19095.54232,-7902.615714,-13970.84611,-5101.584506,11086.77817,-3823.623517,7841.349583,0.068,0.95,-0.11,192,0,0,0,0,0,0,0,0,0,1.71E+09,0, 2024-03-15 15:23:10.444
140,-6023.884538,-19236.73829,-7969.179209,-14024.98204,-4512.280764,11469.19417,-3141.001241,11423.28369,0.068,0.95,-0.11,192,0,0,0,0,0,0,0,0,0,1.71E+09,0, 2024-03-15 15:23:10.444
141,-6234.572081,-19061.09828,-8004.852594,-14054.30753,-5695.671522,11139.70711,-4212.27565,10450.44636,0.068,0.95,-0.11,192,0,0,0,0,0,0,0,0,0,1.71E+09,0, 2024-03-15 15:23:10.444
142,-7959.255035,-18784.04841,-7977.315244,-14046.77499,-7242.568701,10441.37155,-5744.510084,5982.287941,0.062,0.96,-0.112,192,1,240,30,0,252,128,0,0,0,1.71E+09,0, 2024-03-15 15:23:10.444
143,-8673.572084,-18813.3739,-7902.258086,-13977.39517,-6828.212062,10423.78073,-5477.026758,4308.388151,0.062,0.96,-0.112,192,0,0,0,0,0,0,0,0,0,1.71E+09,0, 2024-03-15 15:23:10.444
144,-7415.66061,-19091.9884,-7893.496203,-13955.06578,-5108.625306,11095.3836,-3829.054991,7816.047408,0.062,0.96,-0.112,192,0,0,0,0,0,0,0,0,0,1.71E+09,0, 2024-03-15 15:23:10.444
145,-6023.258689,-19233.76551,-7953.667099,-14003.79258,-4492.49947,11489.33309,-3124.997392,11435.15246,0.062,0.96,-0.112,192,0,0,0,0,0,0,0,0,0,1.71E+09,0, 2024-03-15 15:23:10.444
