Sample Index, EXG Channel 0, EXG Channel 1, EXG Channel 2, EXG Channel 3, EXG Channel 4, EXG Channel 5, EXG Channel 6, EXG Channel 7, Accel Channel 0, Accel Channel 1, Accel Channel 2, Other, Other, Other, Other, Other, Other, Other, Analog Channel 0, Analog Channel 1, Analog Channel 2, Timestamp, Other, Timestamp (Formatted)
0,-13486.10383,-26840.33237,-6871.775612,-4290.171479,-5930.498949,3670.223495,-16981.89431,-1443.229788,0.032,0.958,0,192,0,0,0,0,0,0,0,0,0,1.71E+09,0, 2024-03-15 15:20:02.233
1,-13831.63945,-26683.1102,-6910.913516,-4271.239551,-6600.157213,3392.458366,-17496.43147,-2967.350539,0.032,0.958,0,192,0,0,0,0,0,0,0,0,0,1.71E+09,0, 2024-03-15 15:20:02.233
2,-15038.0078,-26543.90353,-6887.622999,-4234.292118,-6977.544067,3206.357742,-17727.74967,-3999.755263,0.032,0.958,0,192,0,0,0,0,0,0,0,0,0,1.71E+09,0, 2024-03-15 15:20:02.233
3,-15410.32081,-26626.33677,-6834.917585,-4233.621566,-6508.24684,3388.703273,-17331.09562,-3034.025792,0.032,0.958,0,192,0,0,0,0,0,0,0,0,0,1.71E+09,0, 2024-03-15 15:20:02.233
4,-14425.12297,-26811.8339,-6835.632841,-4280.649636,-5884.63317,3654.443163,-16896.15302,-1493.029474,0.032,0.958,0,192,1,0,29,240,0,0,0,0,0,1.71E+09,0, 2024-03-15 15:20:02.233
5,-13455.99603,-26837.76192,-6866.36649,-4296.765244,-5916.886737,3673.866829,-16978.38509,-1433.171503,0.032,0.958,0,192,0,0,0,0,0,0,0,0,0,1.71E+09,0, 2024-03-15 15:20:02.233
6,-13801.75517,-26668.93919,-6894.440281,-4270.166668,-6578.990111,3405.377675,-17482.1487,-2942.517751,0.032,0.958,0,192,0,0,0,0,0,0,0,0,0,1.71E+09,0, 2024-03-15 15:20:02.233
7,-15021.08753,-26530.60425,-6874.904856,-4232.682792,-6964.736517,3216.013696,-17715.9703,-3979.661045,0.032,0.958,0,192,0,0,0,0,0,0,0,0,0,1.71E+09,0, 2024-03-15 15:20:02.233
8,-15403.65999,-26620.05593,-6828.949669,-4235.34265,-6497.339189,3388.703273,-17316.99167,-3017.798426,0.032,0.958,0,192,0,0,0,0,0,0,0,0,0,1.71E+09,0, 2024-03-15 15:20:02.233
9,-14430.19681,-26796.52295,-6821.350076,-4271.552476,-5864.494248,3664.926131,-16873.466,-1479.327855,0.032,0.958,0,192,0,0,0,0,0,0,0,0,0,1.71E+09,0, 2024-03-15 15:20:02.233
10,-13464.64616,-26830.63171,-6861.538513,-4285.410557,-5897.910106,3687.680207,-16959.78844,-1407.578755,0.032,0.958,0,192,0,0,0,0,0,0,0,0,0,1.71E+09,0, 2024-03-15 15:20:02.233
11,-13813.35572,-26669.56504,-6895.781385,-4262.075336,-6565.959044,3413.916041,-17469.16234,-2918.28846,0.032,0.958,0,192,0,0,0,0,0,0,0,0,0,1.71E+09,0, 2024-03-15 15:20:02.233
12,-15025.64729,-26529.01727,-6870.769783,-4226.424304,-6949.067944,3224.820283,-17695.65257,-3960.326786,0.032,0.958,0,192,0,0,0,0,0,0,0,0,0,1.71E+09,0, 2024-03-15 15:20:02.233
13,-15396.01569,-26614.91503,-6821.931222,-4226.469007,-6482.140003,3401.466119,-17300.45137,-2990.797519,0.032,0.958,0,192,0,0,0,0,0,0,0,0,0,1.71E+09,0, 2024-03-15 15:20:02.233
14,-14421.01025,-26800.97095,-6821.350076,-4268.244418,-5852.267844,3670.826992,-16855.76342,-1435.026698,0.032,0.958,0,192,1,0,29,240,0,0,0,0,0,1.71E+09,0, 2024-03-15 15:20:02.233
15,-13471.93283,-26834.43151,-6862.074955,-4292.473709,-5896.68076,3685.579143,-16949.26077,-1382.768319,0.032,0.958,0,192,0,0,0,0,0,0,0,0,0,1.71E+09,0, 2024-03-15 15:20:02.233
16,-13809.08654,-26674.30361,-6898.396539,-4273.899409,-6565.400251,3412.61964,-17458.54526,-2897.836613,0.032,0.958,0,192,0,0,0,0,0,0,0,0,0,1.71E+09,0, 2024-03-15 15:20:02.233
17,-15020.05935,-26533.50997,-6879.554019,-4237.130789,-6955.952281,3219.500568,-17697.91009,-3955.811734,0.032,0.958,0,192,0,0,0,0,0,0,0,0,0,1.71E+09,0, 2024-03-15 15:20:02.233
18,-15410.32081,-26613.17159,-6831.788341,-4237.197845,-6499.060273,3390.20084,-17310.86729,-3015.742065,0.032,0.958,0,192,0,0,0,0,0,0,0,0,0,1.71E+09,0, 2024-03-15 15:20:02.233
19,-14431.44851,-26790.8009,-6826.245108,-4273.854706,-5867.154106,3665.708442,-16867.58749,-1467.48143,0.032,0.958,0,192,0,0,0,0,0,0,0,0,0,1.71E+09,0, 2024-03-15 15:20:02.233
20,-13455.12431,-26827.54717,-6869.741603,-4294.194793,-5903.743911,3686.56262,-16964.59406,-1399.576831,0.032,0.958,0,192,0,0,0,0,0,0,0,0,0,1.71E+09,0, 2024-03-15 15:20:02.233
21,-13776.74356,-26657.94214,-6895.446109,-4262.567075,-6564.483829,3422.521463,-17470.5258,-2902.843404,0.032,0.958,0,192,0,0,0,0,0,0,0,0,0,1.71E+09,0, 2024-03-15 15:20:02.233
22,-14983.96128,-26506.37496,-6862.074955,-4215.673115,-6947.570377,3237.940757,-17696.7031,-3947.228664,0.032,0.958,0,192,0,0,0,0,0,0,0,0,0,1.71E+09,0, 2024-03-15 15:20:02.233
23,-15383.74458,-26597.79359,-6825.731018,-4226.62547,-6499.14968,3402.337837,-17322.98193,-3014.065685,0.032,0.958,0,192,0,0,0,0,0,0,0,0,0,1.71E+09,0, 2024-03-15 15:20:02.233
24,-14424.45242,-26781.0779,-6825.440446,-4271.2172,-5872.160896,3667.317768,-16880.12682,-1470.230695,0.034,0.956,0.002,192,1,16,29,224,0,16,0,0,0,1.71E+09,0, 2024-03-15 15:20:02.233
25,-13458.94646,-26812.81737,-6860.890312,-4288.584505,-5899.340618,3685.445033,-16959.87784,-1386.50106,0.034,0.956,0.002,192,0,0,0,0,0,0,0,0,0,1.71E+09,0, 2024-03-15 15:20:02.233
26,-13772.63084,-26647.68268,-6893.099176,-4266.210409,-6559.164114,3420.107474,-17465.49666,-2895.914363,0.034,0.956,0.002,192,0,0,0,0,0,0,0,0,0,1.71E+09,0, 2024-03-15 15:20:02.233
27,-14968.71739,-26504.65387,-6868.176981,-4230.60408,-6950.319642,3231.414048,-17701.57578,-3964.551266,0.034,0.956,0.002,192,0,0,0,0,0,0,0,0,0,1.71E+09,0, 2024-03-15 15:20:02.233
28,-15379.83303,-26601.50398,-6833.665888,-4241.914063,-6507.35277,3388.926791,-17328.72633,-3040.708964,0.034,0.956,0.002,192,0,0,0,0,0,0,0,0,0,1.71E+09,0, 2024-03-15 15:20:02.233
29,-14441.66326,-26789.68332,-6838.650327,-4290.57381,-5883.694396,3649.27991,-16892.12971,-1493.476509,0.034,0.956,0.002,192,0,0,0,0,0,0,0,0,0,1.71E+09,0, 2024-03-15 15:20:02.233
30,-13481.34291,-26826.92132,-6882.102118,-4316.166558,-5918.85369,3664.121469,-16982.98955,-1406.572927,0.034,0.956,0.002,192,0,0,0,0,0,0,0,0,0,1.71E+09,0, 2024-03-15 15:20:02.233
31,-13776.65416,-26670.01208,-6912.768711,-4294.127738,-6570.295283,3399.789739,-17474.97379,-2895.824956,0.034,0.956,0.002,192,0,0,0,0,0,0,0,0,0,1.71E+09,0, 2024-03-15 15:20:02.233
32,-14968.60563,-26531.72183,-6890.484022,-4257.873208,-6965.340014,3206.491853,-17707.61075,-3960.147972,0.034,0.956,0.002,192,0,0,0,0,0,0,0,0,0,1.71E+09,0, 2024-03-15 15:20:02.233
33,-15396.48508,-26609.01417,-6841.220777,-4256.688566,-6520.964983,3370.196029,-17335.52126,-3052.644795,0.034,0.956,0.002,192,0,0,0,0,0,0,0,0,0,1.71E+09,0, 2024-03-15 15:20:02.233
34,-14449.03933,-26789.66097,-6831.833045,-4291.892563,-5878.62055,3645.927149,-16875.85764,-1483.172355,0.028,0.956,0.008,192,0,224,29,224,0,64,0,0,0,1.71E+09,0, 2024-03-15 15:20:02.233
35,-13472.42456,-26831.97282,-6873.317882,-4315.831282,-5894.423234,3667.809506,-16947.42792,-1379.795537,0.028,0.956,0.008,192,0,0,0,0,0,0,0,0,0,1.71E+09,0, 2024-03-15 15:20:02.233
36,-13767.86992,-26668.29099,-6902.151633,-4287.533973,-6547.988242,3408.506919,-17447.5035,-2875.261351,0.028,0.956,0.008,192,0,0,0,0,0,0,0,0,0,1.71E+09,0, 2024-03-15 15:20:02.233
37,-14973.74654,-26533.28646,-6887.153612,-4255.414516,-6960.333223,3214.471425,-17702.24633,-3959.030385,0.028,0.956,0.008,192,0,0,0,0,0,0,0,0,0,1.71E+09,0, 2024-03-15 15:20:02.233
38,-15404.53171,-26605.41554,-6832.637707,-4247.90433,-6517.589869,3384.143518,-17329.55335,-3061.853714,0.028,0.956,0.008,192,0,0,0,0,0,0,0,0,0,1.71E+09,0, 2024-03-15 15:20:02.233
39,-14453.37557,-26784.9671,-6818.421998,-4281.968389,-5868.49521,3658.555884,-16861.84309,-1488.402663,0.028,0.956,0.008,192,0,0,0,0,0,0,0,0,0,1.71E+09,0, 2024-03-15 15:20:02.234
40,-13475.39735,-26824.105,-6855.212969,-4300.05095,-5881.123946,3685.646198,-16930.90998,-1366.496249,0.028,0.956,0.008,192,0,0,0,0,0,0,0,0,0,1.71E+09,0, 2024-03-15 15:20:02.234
41,-13764.04777,-26666.07817,-6886.706577,-4271.373662,-6531.515006,3426.477722,-17431.18673,-2836.369316,0.028,0.956,0.008,192,0,0,0,0,0,0,0,0,0,1.71E+09,0, 2024-03-15 15:20:02.234
42,-14963.33062,-26525.41864,-6871.10506,-4239.991813,-6945.290499,3225.200263,-17688.47766,-3942.020707,0.028,0.956,0.008,192,0,0,0,0,0,0,0,0,0,1.71E+09,0, 2024-03-15 15:20:02.234
43,-15397.20033,-26605.19202,-6826.178053,-4244.752734,-6511.19727,3381.61777,-17325.99942,-3059.551485,0.028,0.956,0.008,192,0,0,0,0,0,0,0,0,0,1.71E+09,0, 2024-03-15 15:20:02.234
44,-14456.9295,-26791.11383,-6822.177091,-4286.148165,-5872.384414,3646.038907,-16876.6623,-1491.487204,0.026,0.954,0.01,192,0,208,29,208,0,80,0,0,0,1.71E+09,0, 2024-03-15 15:20:02.234
45,-13466.83663,-26821.24398,-6846.24992,-4295.17827,-5867.869361,3683.723948,-16923.80213,-1359.187229,0.026,0.954,0.01,192,0,0,0,0,0,0,0,0,0,1.71E+09,0, 2024-03-15 15:20:02.234
46,-13744.80292,-26661.09373,-6882.146821,-4269.473764,-6524.541262,3425.382486,-17430.94086,-2837.799828,0.026,0.954,0.01,192,0,0,0,0,0,0,0,0,0,1.71E+09,0, 2024-03-15 15:20:02.234
47,-14944.13047,-26514.0416,-6864.310129,-4231.162874,-6945.648127,3226.094332,-17693.5515,-3956.191713,0.026,0.954,0.01,192,0,0,0,0,0,0,0,0,0,1.71E+09,0, 2024-03-15 15:20:02.234
48,-15389.08665,-26585.18721,-6814.063408,-4225.083199,-6509.655,3386.088119,-17321.90905,-3073.476621,0.026,0.954,0.01,192,0,0,0,0,0,0,0,0,0,1.71E+09,0, 2024-03-15 15:20:02.234
49,-14454.87314,-26769.27617,-6811.068274,-4269.339653,-5872.71969,3651.738602,-16873.75657,-1502.573669,0.026,0.954,0.01,192,0,0,0,0,0,0,0,0,0,1.71E+09,0, 2024-03-15 15:20:02.234
50,-13454.16319,-26811.69979,-6851.726097,-4293.032502,-5879.559324,3678.605399,-16947.24911,-1362.629397,0.026,0.954,0.01,192,0,0,0,0,0,0,0,0,0,1.71E+09,0, 2024-03-15 15:20:02.234
51,-13722.67469,-26649.96256,-6885.432528,-4269.540819,-6530.620936,3424.175492,-17445.22362,-2831.541339,0.026,0.954,0.01,192,0,0,0,0,0,0,0,0,0,1.71E+09,0, 2024-03-15 15:20:02.234
52,-14925.48912,-26497.45661,-6863.818391,-4229.888824,-6949.179703,3227.994231,-17696.18901,-3951.386088,0.026,0.954,0.01,192,0,0,0,0,0,0,0,0,0,1.71E+09,0, 2024-03-15 15:20:02.234
53,-15389.77955,-26580.31453,-6827.765027,-4235.812036,-6530.196253,3374.532267,-17341.53388,-3087.401758,0.026,0.954,0.01,192,0,0,0,0,0,0,0,0,0,1.71E+09,0, 2024-03-15 15:20:02.234
54,-14462.29392,-26771.26548,-6830.648402,-4286.841069,-5889.707016,3637.947576,-16890.47568,-1509.972097,0.028,0.954,0.008,192,0,224,29,208,0,64,0,0,0,1.71E+09,0, 2024-03-15 15:20:02.234
55,-13454.2973,-26813.53263,-6867.841705,-4308.589316,-5888.388263,3672.458669,-16951.16066,-1359.58956,0.028,0.954,0.008,192,0,0,0,0,0,0,0,0,0,1.71E+09,0, 2024-03-15 15:20:02.234
56,-13726.63095,-26650.85663,-6899.380016,-4282.616589,-6539.807503,3417.939355,-17454.07491,-2833.195368,0.028,0.954,0.008,192,0,0,0,0,0,0,0,0,0,1.71E+09,0, 2024-03-15 15:20:02.234
57,-14929.37832,-26507.64901,-6883.912609,-4248.41842,-6964.825924,3214.985515,-17716.35028,-3953.509504,0.028,0.954,0.008,192,0,0,0,0,0,0,0,0,0,1.71E+09,0, 2024-03-15 15:20:02.234
58,-15390.60657,-26583.64494,-6838.605623,-4250.005394,-6540.053372,3363.088174,-17357.1354,-3100.566936,0.028,0.954,0.008,192,0,0,0,0,0,0,0,0,0,1.71E+09,0, 2024-03-15 15:20:02.234
59,-14462.91977,-26772.42777,-6832.79417,-4291.534935,-5890.802251,3632.918433,-16885.58065,-1523.584309,0.028,0.954,0.008,192,0,0,0,0,0,0,0,0,0,1.71E+09,0, 2024-03-15 15:20:02.234
60,-13465.33906,-26813.73379,-6867.864057,-4308.835186,-5886.68953,3670.067033,-16945.08099,-1372.01713,0.028,0.954,0.008,192,0,0,0,0,0,0,0,0,0,1.71E+09,0, 2024-03-15 15:20:02.234
61,-13722.31707,-26654.45526,-6898.620057,-4280.046139,-6533.861939,3419.258108,-17444.39661,-2825.640479,0.028,0.954,0.008,192,0,0,0,0,0,0,0,0,0,1.71E+09,0, 2024-03-15 15:20:02.234
62,-14914.04503,-26511.22528,-6878.883467,-4244.797438,-6954.544122,3221.132245,-17700.5923,-3930.531911,0.028,0.954,0.008,192,0,0,0,0,0,0,0,0,0,1.71E+09,0, 2024-03-15 15:20:02.234
63,-15389.42193,-26586.21539,-6833.084742,-4245.177417,-6533.124332,3370.196029,-17341.8021,-3078.014025,0.028,0.954,0.008,192,0,0,0,0,0,0,0,0,0,1.71E+09,0, 2024-03-15 15:20:02.234
64,-14476.42022,-26774.23826,-6829.262594,-4285.879944,-5888.276504,3636.829989,-16886.56412,-1490.593134,0.028,0.962,0.004,192,0,224,30,16,0,32,0,0,0,1.71E+09,0, 2024-03-15 15:20:02.234
65,-13466.23313,-26815.29842,-6861.62792,-4301.324999,-5877.59237,3673.665663,-16940.6777,-1326.732496,0.028,0.962,0.004,192,0,0,0,0,0,0,0,0,0,1.71E+09,0, 2024-03-15 15:20:02.234
66,-13704.1898,-26659.17148,-6888.718234,-4272.513601,-6514.572384,3427.371791,-17431.99139,-2778.031263,0.028,0.962,0.004,192,0,0,0,0,0,0,0,0,0,1.71E+09,0, 2024-03-15 15:20:02.234
67,-14907.80889,-26514.62275,-6873.183772,-4236.594348,-6945.826941,3221.713391,-17699.60883,-3916.629126,0.028,0.962,0.004,192,0,0,0,0,0,0,0,0,0,1.71E+09,0, 2024-03-15 15:20:02.234
68,-15396.82035,-26587.75766,-6824.747542,-4233.845083,-6527.245823,3370.061919,-17336.32592,-3080.495069,0.028,0.962,0.004,192,0,0,0,0,0,0,0,0,0,1.71E+09,0, 2024-03-15 15:20:02.234
69,-14495.59802,-26777.03223,-6820.724228,-4276.894543,-5881.235705,3638.215797,-16874.0695,-1488.715588,0.028,0.962,0.004,192,0,0,0,0,0,0,0,0,0,1.71E+09,0, 2024-03-15 15:20:02.234
70,-13485.72385,-26818.94175,-6855.302376,-4299.045122,-5864.717765,3676.839611,-16925.41145,-1310.505129,0.028,0.962,0.004,192,0,0,0,0,0,0,0,0,0,1.71E+09,0, 2024-03-15 15:20:02.234
71,-13710.85062,-26663.66418,-6886.706577,-4272.62536,-6504.983485,3433.339707,-17420.74846,-2750.762135,0.028,0.962,0.004,192,0,0,0,0,0,0,0,0,0,1.71E+09,0, 2024-03-15 15:20:02.234
72,-14897.90707,-26512.27582,-6866.701766,-4232.258109,-6938.450866,3233.358649,-17691.27163,-3901.429939,0.028,0.962,0.004,192,0,0,0,0,0,0,0,0,0,1.71E+09,0, 2024-03-15 15:20:02.234
73,-15383.9681,-26578.28052,-6814.421036,-4226.133731,-6523.580137,3384.635256,-17332.61553,-3065.117069,0.028,0.962,0.004,192,0,0,0,0,0,0,0,0,0,1.71E+09,0, 2024-03-15 15:20:02.234
74,-14495.57567,-26762.88358,-6812.230565,-4270.45724,-5884.163783,3648.832875,-16881.8479,-1478.433785,0.02,0.958,0.006,192,0,160,29,240,0,48,0,0,0,1.71E+09,0, 2024-03-15 15:20:02.234
75,-13479.3089,-26800.23334,-6844.193559,-4286.461089,-5865.634187,3696.620905,-16935.93913,-1279.793832,0.02,0.958,0.006,192,0,0,0,0,0,0,0,0,0,1.71E+09,0, 2024-03-15 15:20:02.234
76,-13692.43278,-26644.6205,-6875.21778,-4262.857647,-6499.417901,3450.662309,-17423.90006,-2732.478408,0.02,0.958,0.006,192,0,0,0,0,0,0,0,0,0,1.71E+09,0, 2024-03-15 15:20:02.234
77,-14874.95182,-26496.16021,-6863.03608,-4228.614775,-6942.429476,3237.672536,-17702.96159,-3923.781684,0.02,0.958,0.006,192,0,0,0,0,0,0,0,0,0,1.71E+09,0, 2024-03-15 15:20:02.234
78,-15374.40155,-26558.32041,-6812.789358,-4220.836368,-6535.985355,3388.055073,-17354.83317,-3110.714628,0.02,0.958,0.006,192,0,0,0,0,0,0,0,0,0,1.71E+09,0, 2024-03-15 15:20:02.234
79,-14473.15687,-26750.16543,-6816.075065,-4271.530124,-5889.707016,3654.979605,-16889.87218,-1488.201498,0.02,0.958,0.006,192,0,0,0,0,0,0,0,0,0,1.71E+09,0, 2024-03-15 15:20:02.234
80,-13454.09613,-26807.74353,-6863.527818,-4305.862404,-5873.725518,3685.199164,-16939.09072,-1266.226323,0.02,0.958,0.006,192,0,0,0,0,0,0,0,0,0,1.71E+09,0, 2024-03-15 15:20:02.234
81,-13681.88276,-26658.7915,-6901.972819,-4290.216182,-6514.170052,3426.880053,-17429.35388,-2720.341411,0.02,0.958,0.006,192,0,0,0,0,0,0,0,0,0,1.71E+09,0, 2024-03-15 15:20:02.234
82,-14877.38816,-26507.91723,-6885.186659,-4255.012185,-6960.467334,3216.7066,-17708.75069,-3922.373524,0.02,0.958,0.006,192,0,0,0,0,0,0,0,0,0,1.71E+09,0, 2024-03-15 15:20:02.234
83,-15396.30626,-26576.78295,-6839.052658,-4254.363984,-6562.047489,3358.103735,-17365.22673,-3125.466779,0.02,0.958,0.006,192,0,0,0,0,0,0,0,0,0,1.71E+09,0, 2024-03-15 15:20:02.234
84,-14509.99254,-26760.55899,-6830.804864,-4295.424139,-5910.494138,3628.783361,-16898.4776,-1515.381219,0.022,0.952,0.01,192,0,176,29,192,0,80,0,0,0,1.71E+09,0, 2024-03-15 15:20:02.234
85,-13468.96004,-26809.71048,-6862.633748,-4312.389113,-5866.192981,3682.427547,-16920.18115,-1264.77346,0.022,0.952,0.01,192,0,0,0,0,0,0,0,0,0,1.71E+09,0, 2024-03-15 15:20:02.234
86,-13682.66507,-26661.20549,-6900.721121,-4293.010151,-6505.452872,3429.182283,-17414.48997,-2702.303553,0.022,0.952,0.01,192,0,0,0,0,0,0,0,0,0,1.71E+09,0, 2024-03-15 15:20:02.234
87,-14880.67387,-26504.29624,-6880.582199,-4250.787705,-6952.063078,3217.60067,-17696.92662,-3913.924565,0.022,0.952,0.01,192,0,0,0,0,0,0,0,0,0,1.71E+09,0, 2024-03-15 15:20:02.234
88,-15403.07884,-26574.61483,-6835.297565,-4251.704127,-6557.532437,3355.08625,-17357.71654,-3125.735,0.022,0.952,0.01,192,0,0,0,0,0,0,0,0,0,1.71E+09,0, 2024-03-15 15:20:02.234
89,-14518.55326,-26767.55509,-6832.41419,-4297.279334,-5906.716693,3620.602622,-16897.65059,-1513.8613,0.022,0.952,0.01,192,0,0,0,0,0,0,0,0,0,1.71E+09,0, 2024-03-15 15:20:02.234
90,-13478.86187,-26823.23329,-6866.008862,-4320.189872,-5862.661405,3666.468402,-16920.58348,-1270.048472,0.022,0.952,0.01,192,0,0,0,0,0,0,0,0,0,1.71E+09,0, 2024-03-15 15:20:02.234
91,-13680.27344,-26672.44842,-6894.552039,-4296.318209,-6490.387796,3425.270727,-17401.14598,-2689.406596,0.022,0.952,0.01,192,0,0,0,0,0,0,0,0,0,1.71E+09,0, 2024-03-15 15:20:02.234
92,-14866.97225,-26522.71408,-6879.129336,-4258.02967,-6944.619947,3220.17112,-17688.07533,-3890.566992,0.022,0.952,0.01,192,0,0,0,0,0,0,0,0,0,1.71E+09,0, 2024-03-15 15:20:02.234
93,-15397.75913,-26580.11336,-6824.479321,-4249.670118,-6551.653928,3361.434145,-17349.11112,-3115.967288,0.022,0.952,0.01,192,0,0,0,0,0,0,0,0,0,1.71E+09,0, 2024-03-15 15:20:02.234
94,-14514.03821,-26765.00699,-6813.638725,-4287.757491,-5890.958713,3635.153608,-16874.1589,-1493.856489,0.024,0.952,0.006,192,0,192,29,192,0,48,0,0,0,1.71E+09,0, 2024-03-15 15:20:02.234
95,-13468.84828,-26817.6677,-6846.495789,-4307.203508,-5844.221216,3686.9426,-16894.32018,-1228.496579,0.024,0.952,0.006,192,0,0,0,0,0,0,0,0,0,1.71E+09,0, 2024-03-15 15:20:02.234
96,-13658.59224,-26660.31142,-6874.971911,-4275.866363,-6468.952473,3446.594292,-17379.28598,-2655.253131,0.024,0.952,0.006,192,0,0,0,0,0,0,0,0,0,1.71E+09,0, 2024-03-15 15:20:02.234
97,-14852.2648,-26508.31956,-6864.019557,-4242.450505,-6934.427552,3230.967013,-17677.27943,-3877.848849,0.024,0.952,0.006,192,0,0,0,0,0,0,0,0,0,1.71E+09,0, 2024-03-15 15:20:02.234
98,-15393.84757,-26573.36313,-6819.919565,-4243.858664,-6554.470248,3362.797602,-17346.60773,-3119.498863,0.024,0.952,0.006,192,0,0,0,0,0,0,0,0,0,1.71E+09,0, 2024-03-15 15:20:02.234
99,-14510.77485,-26759.44141,-6811.068274,-4285.946999,-5891.852783,3633.030192,-16866.64872,-1502.350152,0.024,0.952,0.006,192,0,0,0,0,0,0,0,0,0,1.71E+09,0, 2024-03-15 15:20:02.234
100,-13455.50429,-26815.41017,-6849.960309,-4312.232651,-5841.606062,3685.310922,-16897.51648,-1225.613204,0.024,0.952,0.006,192,0,0,0,0,0,0,0,0,0,1.71E+09,0, 2024-03-15 15:20:02.234
101,-13639.05682,-26659.50676,-6879.95635,-4284.494136,-6464.996215,3443.710916,-17381.4541,-2650.872189,0.024,0.952,0.006,192,0,0,0,0,0,0,0,0,0,1.71E+09,0, 2024-03-15 15:20:02.234
102,-14835.61275,-26500.80937,-6869.205161,-4248.351365,-6935.589842,3222.205129,-17689.97522,-3899.239468,0.024,0.952,0.006,192,0,0,0,0,0,0,0,0,0,1.71E+09,0, 2024-03-15 15:20:02.234
103,-15377.39669,-26554.07358,-6815.538623,-4238.874225,-6551.162189,3361.210628,-17354.47554,-3145.270425,0.024,0.952,0.006,192,0,0,0,0,0,0,0,0,0,1.71E+09,0, 2024-03-15 15:20:02.234
104,-14500.09072,-26739.16837,-6806.106187,-4277.453336,-5889.282333,3639.981585,-16875.94704,-1503.177166,0.022,0.958,0.002,192,0,176,29,240,0,16,0,0,0,1.71E+09,0, 2024-03-15 15:20:02.234
105,-13441.42269,-26796.18767,-6847.211045,-4303.582526,-5839.884977,3694.698655,-16905.45135,-1216.091361,0.022,0.958,0.002,192,0,0,0,0,0,0,0,0,0,1.71E+09,0, 2024-03-15 15:20:02.715
106,-13623.76823,-26648.33088,-6887.310074,-4287.153994,-6476.485011,3444.26971,-17405.39281,-2654.269654,0.022,0.958,0.002,192,0,0,0,0,0,0,0,0,0,1.71E+09,0, 2024-03-15 15:20:02.715
107,-14806.95782,-26493.27683,-6875.038967,-4248.619586,-6943.949395,3227.904824,-17707.09666,-3896.512556,0.022,0.958,0.002,192,0,0,0,0,0,0,0,0,0,1.71E+09,0, 2024-03-15 15:20:02.715
108,-15355.112,-26558.25335,-6833.867053,-4246.429115,-6567.456611,3358.684881,-17382.16935,-3143.92932,0.022,0.958,0.002,192,0,0,0,0,0,0,0,0,0,1.71E+09,0, 2024-03-15 15:20:02.715
109,-14502.4153,-26733.49103,-6818.667867,-4280.247304,-5904.481519,3634.103076,-16899.41638,-1535.631899,0.022,0.958,0.002,192,0,0,0,0,0,0,0,0,0,1.71E+09,0, 2024-03-15 15:20:02.715
110,-13443.47905,-26792.85726,-6857.872827,-4309.103407,-5848.89273,3689.37894,-16913.47562,-1234.66566,0.022,0.958,0.002,192,0,0,0,0,0,0,0,0,0,1.71E+09,0, 2024-03-15 15:20:02.715
111,-13615.25221,-26645.62632,-6898.843574,-4293.792462,-6482.318816,3442.235701,-17408.63382,-2654.850799,0.022,0.958,0.002,192,0,0,0,0,0,0,0,0,0,1.71E+09,0, 2024-03-15 15:20:02.715
112,-14805.68377,-26493.81328,-6892.294513,-4259.996624,-6958.321566,3219.724085,-17712.52813,-3903.933335,0.022,0.958,0.002,192,0,0,0,0,0,0,0,0,0,1.71E+09,0, 2024-03-15 15:20:02.715
113,-15364.18681,-26553.89476,-6843.366545,-4251.681775,-6576.777289,3355.868561,-17374.77092,-3157.921512,0.022,0.958,0.002,192,0,0,0,0,0,0,0,0,0,1.71E+09,0, 2024-03-15 15:20:02.715
114,-14517.838,-26746.5668,-6839.991431,-4300.788558,-5921.893528,3618.367448,-16902.99265,-1538.895254,0.028,0.956,0.006,192,0,224,29,224,0,48,0,0,0,1.71E+09,0, 2024-03-15 15:20:02.715
115,-13455.99603,-26798.98164,-6866.455897,-4314.78075,-5857.654614,3682.472251,-16914.28029,-1231.514064,0.028,0.956,0.006,192,0,0,0,0,0,0,0,0,0,1.71E+09,0, 2024-03-15 15:20:02.715
116,-13618.15794,-26654.49997,-6901.190508,-4290.126776,-6479.815421,3442.414515,-17399.4249,-2635.561244,0.028,0.956,0.006,192,0,0,0,0,0,0,0,0,0,1.71E+09,0, 2024-03-15 15:20:02.715
117,-14816.21144,-26501.18935,-6889.187621,-4251.905292,-6952.666575,3220.618155,-17700.65936,-3888.287114,0.028,0.956,0.006,192,0,0,0,0,0,0,0,0,0,1.71E+09,0, 2024-03-15 15:20:02.715
118,-15374.58037,-26561.74023,-6835.766952,-4244.484513,-6570.183524,3354.907436,-17363.88562,-3146.052736,0.028,0.956,0.006,192,0,0,0,0,0,0,0,0,0,1.71E+09,0, 2024-03-15 15:20:02.715
119,-14519.7379,-26749.98662,-6827.139178,-4285.410557,-5912.237574,3631.174997,-16888.62048,-1508.563937,0.028,0.956,0.006,192,0,0,0,0,0,0,0,0,0,1.71E+09,0, 2024-03-15 15:20:02.715
120,-13465.33906,-26811.90095,-6863.125487,-4311.517395,-5851.06085,3687.993132,-16900.4222,-1203.194404,0.028,0.956,0.006,192,0,0,0,0,0,0,0,0,0,1.71E+09,0, 2024-03-15 15:20:02.715
121,-13628.73031,-26663.77594,-6893.367397,-4286.304627,-6467.298444,3447.510713,-17377.94487,-2618.350401,0.028,0.956,0.006,192,0,0,0,0,0,0,0,0,0,1.71E+09,0, 2024-03-15 15:20:02.715
122,-14807.40485,-26508.02899,-6880.47044,-4247.591406,-6939.501398,3228.418914,-17681.14629,-3873.981997,0.028,0.956,0.006,192,0,0,0,0,0,0,0,0,0,1.71E+09,0, 2024-03-15 15:20:02.715
123,-15364.52208,-26563.9307,-6828.837911,-4238.650708,-6563.746222,3364.541038,-17355.39196,-3137.78259,0.028,0.956,0.006,192,0,0,0,0,0,0,0,0,0,1.71E+09,0, 2024-03-15 15:20:02.715
124,-14518.93324,-26749.47253,-6822.087684,-4280.180249,-5905.330885,3635.488884,-16874.7177,-1502.461911,0.028,0.956,0.006,192,0,0,0,0,0,0,0,0,0,1.71E+09,0, 2024-03-15 15:20:02.715
125,-13467.44012,-26801.23917,-6852.53076,-4301.503813,-5839.482646,3692.575239,-16880.35034,-1196.622991,0.026,0.954,0.012,192,0,208,29,208,0,96,0,0,0,1.71E+09,0, 2024-03-15 15:20:02.715
126,-13613.12879,-26651.08015,-6883.15265,-4277.386281,-6457.731898,3456.250245,-17365.71847,-2601.363075,0.026,0.954,0.012,192,0,0,0,0,0,0,0,0,0,1.71E+09,0, 2024-03-15 15:20:02.715
127,-14790.08225,-26494.90851,-6871.194466,-4241.511731,-6935.276918,3236.085562,-17673.83727,-3860.749765,0.026,0.954,0.012,192,0,0,0,0,0,0,0,0,0,1.71E+09,0, 2024-03-15 15:20:02.715
128,-15362.33161,-26544.68585,-6819.651344,-4233.889786,-6567.590722,3365.748032,-17353.78264,-3147.706765,0.026,0.954,0.012,192,0,0,0,0,0,0,0,0,0,1.71E+09,0, 2024-03-15 15:20:02.715
129,-14518.91089,-26729.46772,-6811.492957,-4275.486383,-5908.21426,3638.729887,-16877.10933,-1526.557091,0.026,0.954,0.012,192,0,0,0,0,0,0,0,0,0,1.71E+09,0, 2024-03-15 15:20:02.715
130,-13448.57525,-26792.52199,-6848.708612,-4299.335694,-5838.521521,3700.554812,-16888.2405,-1187.481128,0.026,0.954,0.012,192,0,0,0,0,0,0,0,0,0,1.71E+09,0, 2024-03-15 15:20:02.715
131,-13590.17355,-26640.75364,-6878.816411,-4273.385319,-6447.025412,3463.536914,-17363.88562,-2584.912191,0.026,0.954,0.012,192,0,0,0,0,0,0,0,0,0,1.71E+09,0, 2024-03-15 15:20:02.715
132,-14773.25139,-26479.15053,-6867.864057,-4238.985984,-6929.443113,3239.952414,-17674.8878,-3870.740994,0.026,0.954,0.012,192,0,0,0,0,0,0,0,0,0,1.71E+09,0, 2024-03-15 15:20:02.715
133,-15355.62609,-26535.96867,-6823.853472,-4240.282385,-6569.647082,3362.484677,-17354.00615,-3182.039044,0.026,0.954,0.012,192,0,0,0,0,0,0,0,0,0,1.71E+09,0, 2024-03-15 15:20:02.715
134,-14522.9789,-26729.22185,-6827.094475,-4292.36195,-5920.060685,3627.486959,-16886.45236,-1553.267426,0.026,0.954,0.012,192,0,0,0,0,0,0,0,0,0,1.71E+09,0, 2024-03-15 15:20:02.715
135,-13453.71615,-26783.73775,-6855.190617,-4308.946944,-5837.538044,3698.364341,-16883.90426,-1193.672561,0.024,0.954,0.008,192,0,192,29,208,0,64,0,0,0,1.71E+09,0, 2024-03-15 15:20:02.715
136,-13588.54188,-26643.03352,-6892.7639,-4287.668084,-6451.384002,3459.692414,-17360.48816,-2573.557505,0.024,0.954,0.008,192,0,0,0,0,0,0,0,0,0,1.71E+09,0, 2024-03-15 15:20:02.715
137,-14766.12118,-26488.31475,-6884.56081,-4252.553493,-6936.796836,3230.430571,-17674.03843,-3860.727413,0.024,0.954,0.008,192,0,0,0,0,0,0,0,0,0,1.71E+09,0, 2024-03-15 15:20:02.715
138,-15355.51433,-26544.66349,-6841.488998,-4251.882941,-6580.554733,3349.587721,-17360.48816,-3175.221762,0.024,0.954,0.008,192,0,0,0,0,0,0,0,0,0,1.71E+09,0, 2024-03-15 15:20:02.715
139,-14539.16157,-26731.50173,-6833.420018,-4294.105386,-5919.546595,3624.648288,-16883.14431,-1535.318975,0.024,0.954,0.008,192,0,0,0,0,0,0,0,0,0,1.71E+09,0, 2024-03-15 15:20:02.715
140,-13467.46248,-26794.33248,-6862.030251,-4315.94304,-5836.956899,3692.932867,-16875.3659,-1174.874744,0.024,0.954,0.008,192,0,0,0,0,0,0,0,0,0,1.71E+09,0, 2024-03-15 15:20:02.715
141,-13592.52049,-26649.98491,-6894.082653,-4294.306552,-6448.075944,3457.948978,-17355.16844,-2557.754822,0.024,0.954,0.008,192,0,0,0,0,0,0,0,0,0,1.71E+09,0, 2024-03-15 15:20:02.715
142,-14768.55752,-26494.46148,-6887.287723,-4259.482534,-6937.266223,3229.961184,-17672.16088,-3853.194875,0.024,0.954,0.008,192,0,0,0,0,0,0,0,0,0,1.71E+09,0, 2024-03-15 15:20:02.715
143,-15370.37824,-26545.73638,-6836.906891,-4252.799362,-6581.515858,3350.772363,-17353.44736,-3185.838841,0.024,0.954,0.008,192,0,0,0,0,0,0,0,0,0,1.71E+09,0, 2024-03-15 15:20:02.715
144,-14548.99634,-26738.36371,-6829.888443,-4295.580601,-5918.026676,3627.665773,-16876.90817,-1516.342344,0.024,0.954,0.008,192,0,0,0,0,0,0,0,0,0,1.71E+09,0, 2024-03-15 15:20:02.715
145,-13461.9416,-26804.45782,-6861.672623,-4322.648564,-5829.312602,3696.330332,-16873.01896,-1146.353918,0.028,0.96,0.008,192,0,224,30,0,0,64,0,0,0,1.71E+09,0, 2024-03-15 15:20:02.715
146,-13564.87138,-26660.42318,-6891.512202,-4300.632095,-6429.009906,3464.922722,-17340.5504,-2522.75199,0.028,0.96,0.008,192,0,0,0,0,0,0,0,0,0,1.71E+09,0, 2024-03-15 15:20:02.715
147,-14754.83355,-26493.14272,-6877.542362,-4262.812944,-6925.285688,3236.979632,-17661.14147,-3831.7372,0.028,0.96,0.008,192,0,0,0,0,0,0,0,0,0,1.71E+09,0, 2024-03-15 15:20:02.715
148,-15367.87485,-26541.5119,-6827.250937,-4259.884865,-6576.307902,3356.360299,-17347.27828,-3166.48223,0.028,0.96,0.008,192,0,0,0,0,0,0,0,0,0,1.71E+09,0, 2024-03-15 15:20:02.715
149,-14538.08868,-26725.69027,-6813.392855,-4300.743854,-5903.743911,3635.958271,-16858.93737,-1518.309297,0.028,0.96,0.008,192,0,0,0,0,0,0,0,0,0,1.71E+09,0, 2024-03-15 15:20:02.715
150,-13449.31286,-26785.95058,-6843.768876,-4325.308421,-5810.380675,3711.238946,-16851.33777,-1137.435572,0.028,0.96,0.008,192,0,0,0,0,0,0,0,0,0,1.71E+09,0, 2024-03-15 15:20:02.715
151,-13557.11532,-26640.53013,-6880.179868,-4308.231689,-6420.09156,3477.797327,-17330.2239,-2505.429388,0.028,0.96,0.008,192,0,0,0,0,0,0,0,0,0,1.71E+09,0, 2024-03-15 15:20:02.715
152,-14727.02798,-26477.4071,-6871.440336,-4275.486383,-6918.066075,3247.552007,-17654.95004,-3814.504005,0.028,0.96,0.008,192,0,0,0,0,0,0,0,0,0,1.71E+09,0, 2024-03-15 15:20:02.715
153,-15330.56978,-26517.81905,-6819.897213,-4270.054909,-6570.608207,3370.061919,-17350.65339,-3162.794192,0.028,0.96,0.008,192,0,0,0,0,0,0,0,0,0,1.71E+09,0, 2024-03-15 15:20:02.715
154,-14516.60866,-26694.66605,-6803.222812,-4310.064532,-5896.121966,3651.96212,-16863.07244,-1522.06439,0.028,0.96,0.008,192,0,0,0,0,0,0,0,0,0,1.71E+09,0, 2024-03-15 15:20:02.716
155,-13432.92903,-26758.88261,-6838.337402,-4336.05961,-5800.300038,3726.885167,-16850.82368,-1131.601767,0.03,0.956,0.008,192,0,240,29,224,0,64,0,0,0,1.71E+09,0, 2024-03-15 15:20:02.716
156,-13518.22329,-26616.5467,-6876.782403,-4319.072285,-6408.133377,3499.567926,-17332.34731,-2483.859954,0.03,0.956,0.008,192,0,0,0,0,0,0,0,0,0,1.71E+09,0, 2024-03-15 15:20:02.716
157,-14677.3177,-26451.61318,-6867.260559,-4287.019883,-6907.717217,3271.267208,-17657.72166,-3793.515717,0.03,0.956,0.008,192,0,0,0,0,0,0,0,0,0,1.71E+09,0, 2024-03-15 15:20:02.716
158,-15298.62914,-26501.68109,-6823.428789,-4288.562153,-6572.731623,3378.443823,-17354.49789,-3163.330634,0.03,0.956,0.008,192,0,0,0,0,0,0,0,0,0,1.71E+09,0, 2024-03-15 15:20:02.716
159,-14503.46583,-26690.93331,-6820.031323,-4338.093619,-5913.779844,3646.418887,-16880.43974,-1551.412231,0.03,0.956,0.008,192,0,0,0,0,0,0,0,0,0,1.71E+09,0, 2024-03-15 15:20:02.716
160,-13414.13121,-26759.75433,-6857.224626,-4368.000253,-5815.007486,3718.682077,-16868.30275,-1172.013721,0.03,0.956,0.008,192,0,0,0,0,0,0,0,0,0,1.71E+09,0, 2024-03-15 15:20:02.716
161,-13494.61985,-26619.47478,-6891.691016,-4347.906035,-6411.307324,3496.505737,-17334.53778,-2506.09994,0.03,0.956,0.008,192,0,0,0,0,0,0,0,0,0,1.71E+09,0, 2024-03-15 15:20:02.716
162,-14661.895,-26460.03979,-6884.940789,-4314.043142,-6916.970839,3258.750231,-17659.86742,-3811.508871,0.03,0.956,0.008,192,0,0,0,0,0,0,0,0,0,1.71E+09,0, 2024-03-15 15:20:02.716
163,-15296.34926,-26506.71023,-6834.269385,-4307.114101,-6582.968722,3367.804392,-17357.87301,-3201.08273,0.03,0.956,0.008,192,0,0,0,0,0,0,0,0,0,1.71E+09,0, 2024-03-15 15:20:02.716
164,-14505.25397,-26697.1918,-6825.015762,-4349.537712,-5913.310458,3644.563692,-16873.66717,-1579.396615,0.03,0.956,0.008,192,0,0,0,0,0,0,0,0,0,1.71E+09,0, 2024-03-15 15:20:02.716
165,-13430.69386,-26775.80288,-6864.868923,-4382.595942,-5814.471044,3717.6986,-16865.26291,-1186.922334,0.026,0.952,0.018,192,0,208,29,192,0,144,0,0,0,1.71E+09,0, 2024-03-15 15:20:02.716
166,-13511.22719,-26636.81974,-6898.441243,-4363.462849,-6413.386037,3490.493118,-17338.5611,-2538.12999,0.026,0.952,0.018,192,0,0,0,0,0,0,0,0,0,1.71E+09,0, 2024-03-15 15:20:02.716
167,-14667.77351,-26480.49164,-6889.500545,-4328.214148,-6918.580165,3254.369289,-17666.39413,-3855.139477,0.026,0.952,0.018,192,0,0,0,0,0,0,0,0,0,1.71E+09,0, 2024-03-15 15:20:02.716
168,-15310.94495,-26533.57703,-6842.204254,-4324.056724,-6595.798623,3360.98711,-17374.5027,-3242.58992,0.026,0.952,0.018,192,0,0,0,0,0,0,0,0,0,1.71E+09,0, 2024-03-15 15:20:02.716
169,-14539.22862,-26725.69027,-6829.664925,-4366.480335,-5924.396923,3634.706573,-16883.81486,-1636.795895,0.026,0.952,0.018,192,0,0,0,0,0,0,0,0,0,1.71E+09,0, 2024-03-15 15:20:02.716
170,-13461.49456,-26802.20029,-6862.432583,-4393.950629,-5811.766483,3709.719027,-16862.80422,-1223.042753,0.026,0.952,0.018,192,0,0,0,0,0,0,0,0,0,1.71E+09,0, 2024-03-15 15:20:02.716
171,-13526.98517,-26666.16758,-6894.328522,-4373.275265,-6401.025522,3482.5806,-17326.62527,-2547.852999,0.026,0.952,0.018,192,0,0,0,0,0,0,0,0,0,1.71E+09,0, 2024-03-15 15:20:02.716
172,-14675.46251,-26505.07855,-6881.677435,-4337.825398,-6913.103987,3247.350841,-17662.97432,-3862.627311,0.026,0.952,0.018,192,0,0,0,0,0,0,0,0,0,1.71E+09,0, 2024-03-15 15:20:02.716
173,-15330.72625,-26546.38458,-6824.792245,-4323.140302,-6588.981341,3358.148439,-17369.20534,-3254.056365,0.026,0.952,0.018,192,0,0,0,0,0,0,0,0,0,1.71E+09,0, 2024-03-15 15:20:02.716
174,-14557.73587,-26732.50755,-6808.766044,-4359.50659,-5912.483443,3631.912605,-16870.09089,-1645.736592,0.026,0.952,0.018,192,0,0,0,0,0,0,0,0,0,1.71E+09,0, 2024-03-15 15:20:02.716
175,-13452.26329,-26806.49183,-6839.812617,-4387.647437,-5789.101814,3711.641277,-16836.20564,-1236.140875,0.026,0.958,0.018,192,0,208,29,240,0,144,0,0,0,1.71E+09,0, 2024-03-15 15:20:02.716
176,-13502.55471,-26670.41441,-6878.481135,-4369.542524,-6384.239362,3489.286123,-17306.26283,-2536.319499,0.026,0.958,0.018,192,0,0,0,0,0,0,0,0,0,1.71E+09,0, 2024-03-15 15:20:02.716
177,-14661.73853,-26491.35458,-6863.438411,-4319.564023,-6903.202165,3257.118554,-17651.75374,-3853.753669,0.026,0.958,0.018,192,0,0,0,0,0,0,0,0,0,1.71E+09,0, 2024-03-15 15:20:02.716
178,-15324.73598,-26529.03962,-6811.40355,-4308.052875,-6588.221382,3362.641139,-17359.7282,-3264.427574,0.026,0.958,0.018,192,0,0,0,0,0,0,0,0,0,1.71E+09,0, 2024-03-15 15:20:02.716
179,-14557.66881,-26719.81176,-6800.719416,-4353.650433,-5912.304629,3632.650212,-16860.83726,-1658.566494,0.026,0.958,0.018,192,0,0,0,0,0,0,0,0,0,1.71E+09,0, 2024-03-15 15:20:02.716
180,-13453.67145,-26789.39274,-6830.179015,-4375.845716,-5786.017273,3715.217556,-16830.99769,-1245.305091,0.026,0.958,0.018,192,0,0,0,0,0,0,0,0,0,1.71E+09,0, 2024-03-15 15:20:02.716
181,-13499.8278,-26655.84107,-6866.88058,-4357.316119,-6374.963388,3489.330827,-17299.5126,-2553.776211,0.026,0.958,0.018,192,0,0,0,0,0,0,0,0,0,1.71E+09,0, 2024-03-15 15:20:02.716
182,-14647.23225,-26488.47121,-6857.604606,-4322.581508,-6898.284781,3247.395545,-17643.28243,-3875.054881,0.026,0.958,0.018,192,0,0,0,0,0,0,0,0,0,1.71E+09,0, 2024-03-15 15:20:02.716
183,-15312.88955,-26528.54789,-6811.112977,-4316.054799,-6590.903591,3347.710174,-17367.14898,-3306.046522,0.026,0.958,0.018,192,0,0,0,0,0,0,0,0,0,1.71E+09,0, 2024-03-15 15:20:02.716
184,-14548.37049,-26711.16164,-6796.964323,-4356.511457,-5912.997533,3627.799884,-16875.76823,-1705.639268,0.026,0.958,0.018,192,0,0,0,0,0,0,0,0,0,1.71E+09,0, 2024-03-15 15:20:02.716
185,-13442.1603,-26788.54338,-6834.761123,-4388.675617,-5788.855945,3709.383751,-16842.93352,-1274.2506,0.026,0.964,0.016,192,0,208,30,32,0,128,0,0,0,1.71E+09,0, 2024-03-15 15:20:02.716
186,-13481.8123,-26650.56606,-6870.255693,-4371.598884,-6378.114984,3486.603914,-17308.81093,-2583.548735,0.026,0.964,0.016,192,0,0,0,0,0,0,0,0,0,1.71E+09,0, 2024-03-15 15:20:02.716
187,-14624.32171,-26481.60922,-6862.879618,-4336.618404,-6903.604496,3246.389716,-17651.88785,-3909.364809,0.026,0.964,0.016,192,0,0,0,0,0,0,0,0,0,1.71E+09,0, 2024-03-15 15:20:02.716
188,-15304.46295,-26519.71895,-6815.717437,-4324.548462,-6600.671303,3347.933691,-17369.11593,-3343.999784,0.026,0.964,0.016,192,0,0,0,0,0,0,0,0,0,1.71E+09,0, 2024-03-15 15:20:02.716
189,-14555.34423,-26710.28992,-6808.140195,-4367.620274,-5929.336659,3621.295526,-16876.93052,-1737.937538,0.026,0.964,0.016,192,0,0,0,0,0,0,0,0,0,1.71E+09,0, 2024-03-15 15:20:02.716
190,-13436.05828,-26790.44328,-6846.026402,-4401.572573,-5798.668361,3705.829824,-16839.06667,-1298.658705,0.026,0.964,0.016,192,0,0,0,0,0,0,0,0,0,1.71E+09,0, 2024-03-15 15:20:02.716
191,-13468.51301,-26664.82647,-6893.725025,-4392.274248,-6392.531859,3477.618513,-17316.36582,-2589.807223,0.026,0.964,0.016,192,0,0,0,0,0,0,0,0,0,1.71E+09,0, 2024-03-15 15:20:02.716
192,-14631.139,-26502.19518,-6890.439318,-4359.126611,-6928.347877,3229.849426,-17667.31056,-3920.451274,0.026,0.964,0.016,192,0,0,0,0,0,0,0,0,0,1.71E+09,0, 2024-03-15 15:20:02.716
193,-15324.55716,-26528.43613,-6832.570652,-4341.379326,-6624.20769,3335.282604,-17382.92931,-3371.783003,0.026,0.964,0.016,192,0,0,0,0,0,0,0,0,0,1.71E+09,0, 2024-03-15 15:20:02.716
194,-14563.972,-26704.70198,-6810.308315,-4368.357881,-5932.823531,3625.520006,-16876.86346,-1755.215437,0.026,0.964,0.016,192,0,0,0,0,0,0,0,0,0,1.71E+09,0, 2024-03-15 15:20:02.716
195,-13443.43435,-26784.29655,-6844.305318,-4398.510384,-5792.789852,3715.999867,-16829.18719,-1291.953181,0.024,0.97,0.014,192,0,192,30,80,0,112,0,0,0,1.71E+09,0, 2024-03-15 15:20:02.716
196,-13473.07276,-26654.947,-6882.012711,-4382.081852,-6373.175248,3495.946943,-17286.54859,-2565.153249,0.024,0.97,0.014,192,0,0,0,0,0,0,0,0,0,1.71E+09,0, 2024-03-15 15:20:02.716
197,-14623.18177,-26494.46148,-6877.452955,-4349.425954,-6911.941697,3244.623929,-17642.41071,-3899.530041,0.024,0.97,0.014,192,0,0,0,0,0,0,0,0,0,1.71E+09,0, 2024-03-15 15:20:02.716
198,-15306.07227,-26526.98326,-6823.272326,-4336.037259,-6612.718894,3339.529436,-17366.0761,-3364.272817,0.024,0.97,0.014,192,0,0,0,0,0,0,0,0,0,1.71E+09,0, 2024-03-15 15:20:02.716
199,-14560.84276,-26717.7107,-6812.565841,-4379.310236,-5934.09758,3618.859186,-16864.65941,-1755.930693,0.024,0.97,0.014,192,0,0,0,0,0,0,0,0,0,1.71E+09,0, 2024-03-15 15:20:02.716
200,-13456.39836,-26805.21778,-6853.693051,-4415.989449,-5798.198974,3707.036818,-16823.28633,-1306.727684,0.024,0.97,0.014,192,0,0,0,0,0,0,0,0,0,1.71E+09,0, 2024-03-15 15:20:02.716
201,-13475.03972,-26673.4766,-6891.065167,-4396.051692,-6377.109155,3488.794385,-17284.80515,-2585.470985,0.024,0.97,0.014,192,0,0,0,0,0,0,0,0,0,1.71E+09,0, 2024-03-15 15:20:02.716
202,-14603.22167,-26503.78215,-6886.639522,-4357.182009,-6917.10495,3245.16037,-17648.46804,-3902.771044,0.024,0.97,0.014,192,0,0,0,0,0,0,0,0,0,1.71E+09,0, 2024-03-15 15:20:02.716
203,-15299.9926,-26535.14165,-6837.979774,-4344.687384,-6628.365115,3337.629537,-17373.36276,-3371.604189,0.024,0.97,0.014,192,0,0,0,0,0,0,0,0,0,1.71E+09,0, 2024-03-15 15:20:02.716
204,-14575.52786,-26720.50467,-6821.953573,-4381.210134,-5944.871121,3616.266384,-16862.91598,-1778.863582,0.024,0.97,0.014,192,0,0,0,0,0,0,0,0,0,1.71E+09,0, 2024-03-15 15:20:02.716
205,-13456.59953,-26798.33344,-6850.563806,-4406.445254,-5792.655741,3712.356533,-16808.8024,-1315.64603,0.024,0.964,0.01,192,0,192,30,32,0,80,0,0,0,1.71E+09,0, 2024-03-15 15:20:02.716
206,-13456.35366,-26661.60782,-6881.006882,-4379.533753,-6364.681585,3504.977048,-17266.7673,-2576.373825,0.024,0.964,0.01,192,0,0,0,0,0,0,0,0,0,1.71E+09,0, 2024-03-15 15:20:02.716
207,-14588.246,-26489.16411,-6871.23917,-4339.077096,-6903.649199,3262.237103,-17621.91416,-3899.395931,0.024,0.964,0.01,192,0,0,0,0,0,0,0,0,0,1.71E+09,0, 2024-03-15 15:20:02.716
208,-15295.34343,-26530.98423,-6830.156664,-4340.731125,-6623.738304,3342.770439,-17359.61644,-3382.757709,0.024,0.964,0.01,192,0,0,0,0,0,0,0,0,0,1.71E+09,0, 2024-03-15 15:20:02.716
209,-14576.60074,-26713.70974,-6812.81171,-4381.657169,-5941.741877,3617.62984,-16861.95485,-1798.510766,0.024,0.964,0.01,192,0,0,0,0,0,0,0,0,0,1.71E+09,0, 2024-03-15 15:20:02.716
210,-13446.42948,-26794.35483,-6844.282966,-4408.233393,-5785.056148,3711.104835,-16808.73535,-1319.557586,0.024,0.964,0.01,192,0,0,0,0,0,0,0,0,0,1.71E+09,0, 2024-03-15 15:20:02.716
211,-13439.12046,-26663.9324,-6883.040891,-4393.503594,-6368.168458,3490.962504,-17272.01996,-2580.732415,0.024,0.964,0.01,192,0,0,0,0,0,0,0,0,0,1.71E+09,0, 2024-03-15 15:20:02.716
212,-14564.44139,-26500.96583,-6885.097252,-4368.626102,-6924.168101,3234.163312,-17644.2212,-3931.716553,0.024,0.964,0.01,192,0,0,0,0,0,0,0,0,0,1.71E+09,0, 2024-03-15 15:20:02.716
213,-15272.99169,-26533.55468,-6840.438466,-4362.591131,-6646.090048,3319.658735,-17384.47158,-3421.001544,0.024,0.964,0.01,192,0,0,0,0,0,0,0,0,0,1.71E+09,0, 2024-03-15 15:20:02.716
214,-14553.35493,-26708.81471,-6819.09255,-4393.660056,-5961.076136,3599.212003,-16879.70214,-1821.153083,0.024,0.964,0.01,192,0,0,0,0,0,0,0,0,0,1.71E+09,0, 2024-03-15 15:20:02.716
215,-13435.36537,-26788.72219,-6853.715402,-4422.493806,-5810.671247,3695.883297,-16832.02587,-1323.267975,0.022,0.966,0.008,192,0,176,30,48,0,64,0,0,0,1.71E+09,0, 2024-03-15 15:20:02.716
216,-13425.26238,-26658.67974,-6891.623961,-4405.573536,-6384.21701,3487.118004,-17287.26384,-2558.224208,0.022,0.966,0.008,192,0,0,0,0,0,0,0,0,0,1.71E+09,0, 2024-03-15 15:20:02.716
217,-14551.1421,-26480.33517,-6878.816411,-4363.194628,-6922.961107,3243.99808,-17638.78973,-3915.355076,0.022,0.966,0.008,192,0,0,0,0,0,0,0,0,0,1.71E+09,0, 2024-03-15 15:20:02.716
218,-15270.19772,-26516.29913,-6835.699896,-4353.963358,-6644.100743,3330.141703,-17384.0469,-3407.143463,0.022,0.966,0.008,192,0,0,0,0,0,0,0,0,0,1.71E+09,0, 2024-03-15 15:20:02.716
219,-14569.53759,-26703.5844,-6820.724228,-4394.420015,-5962.528999,3606.521023,-16882.85373,-1805.439807,0.022,0.966,0.008,192,0,0,0,0,0,0,0,0,0,1.71E+09,0, 2024-03-15 15:20:02.716
220,-13439.03106,-26786.53172,-6847.367507,-4417.084684,-5793.639218,3708.46733,-16812.37868,-1300.513899,0.022,0.966,0.008,192,0,0,0,0,0,0,0,0,0,1.71E+09,0, 2024-03-15 15:20:02.716
221,-13420.23324,-26668.4251,-6890.014635,-4408.278097,-6366.268559,3492.258905,-17270.18711,-2531.84915,0.022,0.966,0.008,192,0,0,0,0,0,0,0,0,0,1.71E+09,0, 2024-03-15 15:20:02.716
222,-14548.05756,-26498.70831,-6888.226496,-4374.61637,-6925.375095,3241.919368,-17645.04822,-3895.596134,0.022,0.966,0.008,192,0,0,0,0,0,0,0,0,0,1.71E+09,0, 2024-03-15 15:20:02.716
223,-15278.9149,-26525.73157,-6840.393763,-4362.859352,-6653.510827,3328.867653,-17391.26651,-3414.653649,0.022,0.966,0.008,192,0,0,0,0,0,0,0,0,0,1.71E+09,0, 2024-03-15 15:20:02.716
224,-14580.62405,-26708.88176,-6819.785454,-4396.722245,-5962.081964,3605.537546,-16880.75267,-1815.162815,0.022,0.966,0.008,192,0,0,0,0,0,0,0,0,0,1.71E+09,0, 2024-03-15 15:20:02.716
225,-13444.35077,-26796.47825,-6849.379164,-4421.532681,-5786.888991,3706.835652,-16808.98122,-1289.069806,0.024,0.962,0.006,192,0,192,30,16,0,48,0,0,0,1.71E+09,0, 2024-03-15 15:20:03.195
226,-13416.47815,-26672.64958,-6889.835821,-4404.85828,-6356.836123,3496.483385,-17261.51464,-2511.464359,0.024,0.962,0.006,192,0,0,0,0,0,0,0,0,0,1.71E+09,0, 2024-03-15 15:20:03.195
227,-14538.73688,-26497.56837,-6882.951484,-4367.95555,-6916.568508,3244.758039,-17630.11725,-3881.402776,0.024,0.962,0.006,192,0,0,0,0,0,0,0,0,0,1.71E+09,0, 2024-03-15 15:20:03.195
228,-15274.26574,-26532.72766,-6841.779571,-4362.747593,-6652.90733,3323.838511,-17380.47062,-3414.586593,0.024,0.962,0.006,192,0,0,0,0,0,0,0,0,0,1.71E+09,0, 2024-03-15 15:20:03.195
229,-14592.1352,-26721.17522,-6829.933146,-4405.573536,-5967.714604,3594.451081,-16875.38825,-1813.531138,0.024,0.962,0.006,192,0,0,0,0,0,0,0,0,0,1.71E+09,0, 2024-03-15 15:20:03.195
230,-13460.64519,-26807.67647,-6861.672623,-4439.771705,-5788.654779,3694.542193,-16798.4759,-1284.75592,0.024,0.962,0.006,192,0,0,0,0,0,0,0,0,0,1.71E+09,0, 2024-03-15 15:20:03.195
231,-13417.99807,-26687.22292,-6904.543269,-4429.244033,-6355.919702,3483.049987,-17250.09289,-2498.254478,0.024,0.962,0.006,192,0,0,0,0,0,0,0,0,0,1.71E+09,0, 2024-03-15 15:20:03.195
232,-14533.05954,-26510.44297,-6896.675455,-4388.765024,-6917.283764,3233.760981,-17628.61969,-3878.340587,0.024,0.962,0.006,192,0,0,0,0,0,0,0,0,0,1.71E+09,0, 2024-03-15 15:20:03.195
233,-15283.11703,-26533.84525,-6846.652251,-4377.142117,-6659.05406,3311.209775,-17380.29181,-3431.551568,0.024,0.962,0.006,192,0,0,0,0,0,0,0,0,0,1.71E+09,0, 2024-03-15 15:20:03.195
234,-14605.88152,-26708.23356,-6821.573594,-4409.820367,-5967.312272,3589.377235,-16871.85667,-1836.799304,0.024,0.962,0.006,192,0,0,0,0,0,0,0,0,0,1.71E+09,0, 2024-03-15 15:20:03.195
235,-13448.30703,-26796.32179,-6850.22853,-4438.520007,-5777.00952,3696.576202,-16787.18827,-1281.738434,0.022,0.954,0.006,192,0,176,29,208,0,48,0,0,0,1.71E+09,0, 2024-03-15 15:20:03.195
236,-13401.21191,-26672.40371,-6892.719196,-4427.657059,-6344.542664,3485.955714,-17249.04236,-2505.831719,0.022,0.954,0.006,192,0,0,0,0,0,0,0,0,0,1.71E+09,0, 2024-03-15 15:20:03.195
237,-14524.94586,-26489.6782,-6883.175002,-4384.339378,-6911.807586,3234.789161,-17630.76545,-3908.87307,0.022,0.954,0.006,192,0,0,0,0,0,0,0,0,0,1.71E+09,0, 2024-03-15 15:20:03.195
238,-15280.70304,-26513.63927,-6835.297565,-4371.531829,-6659.411688,3310.293354,-17387.2432,-3469.594237,0.022,0.954,0.006,192,0,0,0,0,0,0,0,0,0,1.71E+09,0, 2024-03-15 15:20:03.195
239,-14609.05547,-26694.62135,-6819.047847,-4408.568669,-5974.956569,3585.845659,-16888.70989,-1856.647653,0.022,0.954,0.006,192,0,0,0,0,0,0,0,0,0,1.71E+09,0, 2024-03-15 15:20:03.195
240,-13454.00673,-26780.31794,-6841.734867,-4431.143931,-5777.322445,3699.772501,-16797.53712,-1282.051358,0.022,0.954,0.006,192,0,0,0,0,0,0,0,0,0,1.71E+09,0, 2024-03-15 15:20:03.195
241,-13394.97577,-26668.29099,-6889.94758,-4424.840739,-6341.614585,3489.084958,-17249.62351,-2489.44789,0.022,0.954,0.006,192,0,0,0,0,0,0,0,0,0,1.71E+09,0, 2024-03-15 15:20:03.195
242,-14518.17328,-26497.63542,-6893.836784,-4394.554126,-6922.134092,3225.490835,-17645.33879,-3905.810881,0.022,0.954,0.006,192,0,0,0,0,0,0,0,0,0,1.71E+09,0, 2024-03-15 15:20:03.195
243,-15272.18703,-26518.60136,-6841.354888,-4378.46087,-6670.676967,3303.31961,-17403.9623,-3470.935341,0.022,0.954,0.006,192,0,0,0,0,0,0,0,0,0,1.71E+09,0, 2024-03-15 15:20:03.195
244,-14608.98842,-26702.62327,-6825.172225,-4417.129388,-5986.780642,3577.083776,-16904.42317,-1857.474668,0.022,0.954,0.006,192,0,0,0,0,0,0,0,0,0,1.71E+09,0, 2024-03-15 15:20:03.195
245,-13472.8716,-26790.24211,-6853.290719,-4444.957309,-5792.208706,3685.176812,-16811.48461,-1287.102853,0.028,0.952,0.012,192,0,224,29,192,0,96,0,0,0,1.71E+09,0, 2024-03-15 15:20:03.195
246,-13398.79792,-26670.68263,-6890.215801,-4427.075914,-6340.161722,3485.955714,-17243.72265,-2476.7521,0.028,0.952,0.012,192,0,0,0,0,0,0,0,0,0,1.71E+09,0, 2024-03-15 15:20:03.195
247,-14500.94008,-26492.7851,-6885.320769,-4387.669788,-6912.947525,3233.246891,-17634.18527,-3877.312407,0.028,0.952,0.012,192,0,0,0,0,0,0,0,0,0,1.71E+09,0, 2024-03-15 15:20:03.195
248,-15265.4368,-26518.42255,-6841.913681,-4379.042015,-6673.649749,3301.307953,-17407.33742,-3464.0063,0.028,0.952,0.012,192,0,0,0,0,0,0,0,0,0,1.71E+09,0, 2024-03-15 15:20:03.195
249,-14614.28578,-26694.42018,-6816.5221,-4409.507443,-5982.354996,3582.291732,-16898.00822,-1856.558246,0.028,0.952,0.012,192,0,0,0,0,0,0,0,0,0,1.71E+09,0, 2024-03-15 15:20:03.195
250,-13461.15928,-26778.12747,-6835.856359,-4426.673582,-5775.08727,3702.655876,-16794.40788,-1266.494544,0.028,0.952,0.012,192,0,0,0,0,0,0,0,0,0,1.71E+09,0, 2024-03-15 15:20:03.195
251,-13378.50253,-26665.69819,-6882.370339,-4420.660963,-6330.729286,3495.186984,-17239.54287,-2452.522809,0.028,0.952,0.012,192,0,0,0,0,0,0,0,0,0,1.71E+09,0, 2024-03-15 15:20:03.195
252,-14489.33953,-26486.92894,-6876.894161,-4383.311198,-6909.058322,3236.018507,-17628.97731,-3873.043224,0.028,0.952,0.012,192,0,0,0,0,0,0,0,0,0,1.71E+09,0, 2024-03-15 15:20:03.195
253,-15268.18606,-26506.50907,-6827.027419,-4370.324835,-6669.201752,3308.70638,-17391.69119,-3460.608835,0.028,0.952,0.012,192,0,0,0,0,0,0,0,0,0,1.71E+09,0, 2024-03-15 15:20:03.195
254,-14621.48304,-26686.91,-6807.42494,-4407.115806,-5975.314197,3587.410282,-16874.1142,-1854.703051,0.028,0.952,0.012,192,0,0,0,0,0,0,0,0,0,1.71E+09,0, 2024-03-15 15:20:03.196
255,-13467.79775,-26788.69984,-6846.428734,-4443.571501,-5778.440032,3691.703521,-16787.18827,-1256.525666,0.022,0.954,0.008,192,0,176,29,208,0,64,0,0,0,1.71E+09,0, 2024-03-15 15:20:03.196
0,-13390.30425,-26676.96347,-6897.211897,-4436.374239,-6338.753562,3487.788557,-17242.94034,-2440.922253,0.022,0.954,0.008,192,0,0,0,0,0,0,0,0,0,1.71E+09,0, 2024-03-15 15:20:03.196
1,-14493.02757,-26497.59072,-6891.087519,-4399.069178,-6910.198261,3235.616176,-17622.09298,-3858.983977,0.022,0.954,0.008,192,0,0,0,0,0,0,0,0,0,1.71E+09,0, 2024-03-15 15:20:03.196
2,-15271.65059,-26521.26122,-6848.060411,-4391.91662,-6674.365005,3297.128176,-17389.52308,-3466.666158,0.022,0.954,0.008,192,0,0,0,0,0,0,0,0,0,1.71E+09,0, 2024-03-15 15:20:03.196
3,-14628.92617,-26710.93812,-6838.225643,-4436.955385,-5993.195593,3560.834057,-16892.0403,-1865.007206,0.022,0.954,0.008,192,0,0,0,0,0,0,0,0,0,1.71E+09,0, 2024-03-15 15:20:03.196
4,-13482.72872,-26798.22168,-6865.070089,-4463.017519,-5791.985189,3673.531553,-16801.89571,-1264.90757,0.022,0.954,0.008,192,0,0,0,0,0,0,0,0,0,1.71E+09,0, 2024-03-15 15:20:03.196
5,-13388.69493,-26682.12672,-6908.611287,-4449.427658,-6339.491169,3475.986835,-17239.63228,-2435.535483,0.022,0.954,0.008,192,0,0,0,0,0,0,0,0,0,1.71E+09,0, 2024-03-15 15:20:03.196
6,-14494.43573,-26497.59072,-6905.884374,-4409.462739,-6925.039819,3218.606498,-17640.84609,-3871.478602,0.022,0.954,0.008,192,0,0,0,0,0,0,0,0,0,1.71E+09,0, 2024-03-15 15:20:03.196
7,-15273.37167,-26508.99011,-6851.279062,-4387.714492,-6684.5574,3295.496499,-17404.34228,-3479.071376,0.022,0.954,0.008,192,0,0,0,0,0,0,0,0,0,1.71E+09,0, 2024-03-15 15:20:03.196
8,-14635.36348,-26690.70979,-6829.620222,-4421.107998,-5993.240296,3569.752403,-16886.22885,-1857.787592,0.022,0.954,0.008,192,0,0,0,0,0,0,0,0,0,1.71E+09,0, 2024-03-15 15:20:03.196
9,-13489.92598,-26780.76497,-6859.616263,-4450.657004,-5791.582858,3682.472251,-16798.00651,-1246.690899,0.022,0.954,0.008,192,0,0,0,0,0,0,0,0,0,1.71E+09,0, 2024-03-15 15:20:03.196
10,-13384.5375,-26670.48146,-6906.621981,-4444.934958,-6338.328879,3483.049987,-17239.98991,-2415.933003,0.02,0.956,0.008,192,0,160,29,224,0,64,0,0,0,1.71E+09,0, 2024-03-15 15:20:03.196
11,-14483.75159,-26495.10968,-6903.179813,-4410.535623,-6920.792987,3223.434475,-17632.82181,-3857.48641,0.02,0.956,0.008,192,0,0,0,0,0,0,0,0,0,1.71E+09,0, 2024-03-15 15:20:03.196
12,-15282.96057,-26511.82878,-6855.011804,-4393.548297,-6691.486441,3292.635476,-17410.19844,-3478.467879,0.02,0.956,0.008,192,0,0,0,0,0,0,0,0,0,1.71E+09,0, 2024-03-15 15:20:03.196
13,-14647.8134,-26688.58638,-6831.251899,-4425.801864,-5998.738825,3569.126555,-16896.80122,-1869.142278,0.02,0.956,0.008,192,0,0,0,0,0,0,0,0,0,1.71E+09,0, 2024-03-15 15:20:03.196
14,-13485.098,-26780.4744,-6856.598777,-4451.595777,-5784.05032,3687.724911,-16796.97833,-1238.420753,0.02,0.956,0.008,192,0,0,0,0,0,0,0,0,0,1.71E+09,0, 2024-03-15 15:20:03.196
15,-13378.77075,-26663.82064,-6898.083615,-4435.793094,-6328.494111,3493.331789,-17237.97825,-2395.950543,0.02,0.956,0.008,192,0,0,0,0,0,0,0,0,0,1.71E+09,0, 2024-03-15 15:20:03.196
16,-14470.74288,-26487.97947,-6895.088481,-4397.638666,-6910.801758,3233.537463,-17623.74701,-3840.655546,0.02,0.956,0.008,192,0,0,0,0,0,0,0,0,0,1.71E+09,0, 2024-03-15 15:20:03.196
17,-15269.326,-26514.89097,-6856.487019,-4392.207192,-6691.866421,3292.456662,-17406.95744,-3471.829411,0.02,0.956,0.008,192,0,0,0,0,0,0,0,0,0,1.71E+09,0, 2024-03-15 15:20:03.196
18,-14648.03691,-26698.10822,-6839.924376,-4431.926242,-6004.773796,3564.58915,-16902.56797,-1855.753583,0.02,0.956,0.008,192,0,0,0,0,0,0,0,0,0,1.71E+09,0, 2024-03-15 15:20:03.196
19,-13489.07661,-26785.63765,-6862.6561,-4452.378089,-5784.854982,3685.936771,-16794.29612,-1219.734695,0.02,0.956,0.008,192,0,0,0,0,0,0,0,0,0,1.71E+09,0, 2024-03-15 15:20:03.196
20,-13368.62306,-26669.96737,-6899.134147,-4438.028269,-6319.598117,3494.1141,-17223.82959,-2374.492869,0.016,0.952,0,192,0,128,29,192,0,0,0,0,0,1.71E+09,0, 2024-03-15 15:20:03.196
21,-14460.86341,-26494.97557,-6901.302266,-4402.332533,-6913.416912,3228.798894,-17626.2951,-3819.779017,0.016,0.952,0,192,0,0,0,0,0,0,0,0,0,1.71E+09,0, 2024-03-15 15:20:03.196
22,-15263.08987,-26504.83269,-6848.283928,-4383.378253,-6688.468956,3294.825947,-17404.78932,-3465.235646,0.016,0.952,0,192,0,0,0,0,0,0,0,0,0,1.71E+09,0, 2024-03-15 15:20:03.196
23,-14646.06996,-26684.22779,-6823.674658,-4415.073027,-5992.636799,3574.312159,-16885.33478,-1853.205485,0.016,0.952,0,192,0,0,0,0,0,0,0,0,0,1.71E+09,0, 2024-03-15 15:20:03.196
24,-13491.71412,-26785.48119,-6851.547283,-4445.136123,-5771.354529,3691.94939,-16781.17565,-1205.407227,0.016,0.952,0,192,0,0,0,0,0,0,0,0,0,1.71E+09,0, 2024-03-15 15:20:03.196
25,-13365.56087,-26673.65541,-6890.752243,-4432.216815,-6304.26482,3501.423121,-17212.4302,-2338.864188,0.016,0.952,0,192,0,0,0,0,0,0,0,0,0,1.71E+09,0, 2024-03-15 15:20:03.196
26,-14453.50968,-26495.69082,-6892.495679,-4399.516213,-6904.16329,3236.286728,-17623.97052,-3800.668275,0.016,0.952,0,192,0,0,0,0,0,0,0,0,0,1.71E+09,0, 2024-03-15 15:20:03.196
27,-15265.81678,-26506.08438,-6844.260614,-4385.725187,-6690.257095,3292.411958,-17409.55024,-3476.232705,0.016,0.952,0,192,0,0,0,0,0,0,0,0,0,1.71E+09,0, 2024-03-15 15:20:03.196
28,-14652.10493,-26686.08298,-6819.98662,-4420.035114,-5990.043997,3568.076023,-16888.95576,-1857.362909,0.016,0.952,0,192,0,0,0,0,0,0,0,0,0,1.71E+09,0, 2024-03-15 15:20:03.196
29,-13479.89005,-26782.28489,-6845.48996,-4446.209007,-5760.133953,3694.922172,-16777.04057,-1182.273171,0.016,0.952,0,192,0,0,0,0,0,0,0,0,0,1.71E+09,0, 2024-03-15 15:20:03.196
30,-13343.23148,-26671.33083,-6889.411138,-4435.882501,-6295.435881,3503.501833,-17213.21252,-2321.34042,0.024,0.95,0.002,192,0,192,29,176,0,16,0,0,0,1.71E+09,0, 2024-03-15 15:20:03.196
31,-14441.28328,-26491.89103,-6893.702673,-4404.835928,-6901.302266,3237.828998,-17628.8432,-3799.662447,0.024,0.95,0.002,192,0,0,0,0,0,0,0,0,0,1.71E+09,0, 2024-03-15 15:20:03.196
32,-15265.83913,-26504.34095,-6848.82037,-4390.016721,-6695.934438,3295.787072,-17420.05556,-3479.76428,0.024,0.95,0.002,192,0,0,0,0,0,0,0,0,0,1.71E+09,0, 2024-03-15 15:20:03.196
33,-14666.27594,-26678.46104,-6819.830158,-4418.470492,-5998.582363,3573.060462,-16895.61658,-1864.962502,0.024,0.95,0.002,192,0,0,0,0,0,0,0,0,0,1.71E+09,0, 2024-03-15 15:20:03.196
34,-13488.98721,-26771.71251,-6844.059449,-4445.918434,-5763.531418,3700.465405,-16777.24174,-1181.669674,0.024,0.95,0.002,192,0,0,0,0,0,0,0,0,0,1.71E+09,0, 2024-03-15 15:20:03.196
35,-13344.34907,-26665.02764,-6894.708502,-4440.554016,-6300.777948,3505.848766,-17216.09589,-2314.344324,0.024,0.95,0.002,192,0,0,0,0,0,0,0,0,0,1.71E+09,0, 2024-03-15 15:20:03.196
36,-14426.48642,-26484.38084,-6896.027255,-4403.8301,-6904.632676,3236.778466,-17629.08907,-3802.836395,0.024,0.95,0.002,192,0,0,0,0,0,0,0,0,0,1.71E+09,0, 2024-03-15 15:20:03.196
37,-15244.20264,-26502.32929,-6853.290719,-4392.9448,-6700.404787,3292.031979,-17420.10026,-3486.693321,0.024,0.95,0.002,192,0,0,0,0,0,0,0,0,0,1.71E+09,0, 2024-03-15 15:20:03.196
38,-14658.83281,-26679.57862,-6830.894271,-4427.813521,-6011.211099,3568.523058,-16911.97806,-1867.354139,0.024,0.95,0.002,192,0,0,0,0,0,0,0,0,0,1.71E+09,0, 2024-03-15 15:20:03.196
39,-13501.21361,-26783.40248,-6860.510333,-4460.514124,-5779.177639,3690.630637,-16792.7315,-1177.400491,0.024,0.95,0.002,192,0,0,0,0,0,0,0,0,0,1.71E+09,0, 2024-03-15 15:20:03.196
40,-13350.87578,-26677.76813,-6904.498566,-4451.327557,-6308.712817,3499.389112,-17225.19305,-2303.950763,0.022,0.954,0.004,192,0,176,29,208,0,32,0,0,0,1.71E+09,0, 2024-03-15 15:20:03.196
41,-14423.96068,-26493.12037,-6899.55883,-4410.177995,-6907.873679,3237.560777,-17629.06672,-3785.290275,0.022,0.954,0.004,192,0,0,0,0,0,0,0,0,0,1.71E+09,0, 2024-03-15 15:20:03.196
42,-15256.29494,-26494.50618,-6843.970042,-4387.043939,-6704.137528,3297.016418,-17421.48607,-3497.153937,0.022,0.954,0.004,192,0,0,0,0,0,0,0,0,0,1.71E+09,0, 2024-03-15 15:20:03.196
43,-14668.60052,-26681.14325,-6824.434617,-4425.131312,-6012.820424,3568.880685,-16910.03345,-1882.821546,0.022,0.954,0.004,192,0,0,0,0,0,0,0,0,0,1.71E+09,0, 2024-03-15 15:20:03.196
44,-13492.33997,-26781.65904,-6850.139123,-4452.735716,-5770.147535,3694.11751,-16790.85395,-1183.144889,0.022,0.954,0.004,192,0,0,0,0,0,0,0,0,0,1.71E+09,0, 2024-03-15 15:20:03.196
45,-13324.81364,-26672.71664,-6888.785289,-4440.956347,-6286.0705,3507.43574,-17208.09397,-2294.965362,0.022,0.954,0.004,192,0,0,0,0,0,0,0,0,0,1.71E+09,0, 2024-03-15 15:20:03.196
46,-14395.68572,-26477.78707,-6878.101156,-4391.581344,-6881.36451,3250.591844,-17610.2689,-3773.957941,0.022,0.954,0.004,192,0,0,0,0,0,0,0,0,0,1.71E+09,0, 2024-03-15 15:20:03.196
47,-15238.23473,-26485.25256,-6831.408361,-4375.108108,-6688.670121,3304.124272,-17411.15956,-3475.070414,0.022,0.954,0.004,192,0,0,0,0,0,0,0,0,0,1.71E+09,0, 2024-03-15 15:20:03.196
48,-14665.58303,-26668.17923,-6810.397722,-4412.390818,-5996.660113,3574.915656,-16895.81774,-1872.025653,0.022,0.954,0.004,192,0,0,0,0,0,0,0,0,0,1.71E+09,0, 2024-03-15 15:20:03.196
49,-13495.51392,-26777.90395,-6843.81358,-4450.053507,-5754.546017,3698.006713,-16776.28061,-1167.431613,0.022,0.954,0.004,192,0,0,0,0,0,0,0,0,0,1.71E+09,0, 2024-03-15 15:20:03.196
50,-13327.27233,-26668.64862,-6883.063243,-4437.290661,-6273.307654,3512.598993,-17199.06386,-2273.172411,0.022,0.958,0.004,192,0,176,29,240,0,32,0,0,0,1.71E+09,0, 2024-03-15 15:20:03.196
51,-14392.31061,-26486.03487,-6884.605513,-4401.773739,-6883.376167,3245.048612,-17616.63915,-3765.330167,0.022,0.958,0.004,192,0,0,0,0,0,0,0,0,0,1.71E+09,0, 2024-03-15 15:20:03.196
52,-15231.88683,-26486.03487,-6834.47055,-4383.534716,-6693.363988,3297.463453,-17418.17801,-3504.395903,0.022,0.958,0.004,192,0,0,0,0,0,0,0,0,0,1.71E+09,0, 2024-03-15 15:20:03.196
53,-14664.10782,-26668.55921,-6815.672733,-4422.091475,-6004.036189,3567.249008,-16902.99265,-1892.902183,0.022,0.958,0.004,192,0,0,0,0,0,0,0,0,0,1.71E+09,0, 2024-03-15 15:20:03.196
54,-13492.92111,-26773.90299,-6846.160513,-4454.076821,-5757.943482,3694.050454,-16778.87342,-1162.290712,0.022,0.958,0.004,192,0,0,0,0,0,0,0,0,0,1.71E+09,0, 2024-03-15 15:20:03.196
55,-13315.2918,-26661.13843,-6883.756147,-4442.565673,-6271.966549,3510.095598,-17195.0629,-2269.976112,0.022,0.958,0.004,192,0,0,0,0,0,0,0,0,0,1.71E+09,0, 2024-03-15 15:20:03.196
56,-14372.66342,-26472.62382,-6878.905818,-4404.165376,-6876.715347,3244.89215,-17607.38553,-3774.673197,0.022,0.958,0.004,192,0,0,0,0,0,0,0,0,0,1.71E+09,0, 2024-03-15 15:20:03.196
57,-15224.28724,-26479.37405,-6833.509425,-4388.228582,-6695.822679,3291.987275,-17415.89813,-3502.652467,0.022,0.958,0.004,192,0,0,0,0,0,0,0,0,0,1.71E+09,0, 2024-03-15 15:20:03.196
58,-14671.03686,-26665.65349,-6819.830158,-4432.440332,-6014.697971,3556.564874,-16911.911,-1893.058645,0.022,0.958,0.004,192,0,0,0,0,0,0,0,0,0,1.71E+09,0, 2024-03-15 15:20:03.196
59,-13494.37398,-26768.13624,-6846.428734,-4464.403327,-5762.100907,3688.171946,-16786.24949,-1174.427709,0.022,0.958,0.004,192,0,0,0,0,0,0,0,0,0,1.71E+09,0, 2024-03-15 15:20:03.196
60,-13297.56687,-26656.60103,-6880.224571,-4445.136123,-6265.886875,3517.851653,-17204.24947,-2260.968359,0.022,0.956,0.008,192,0,176,29,224,0,64,0,0,0,1.71E+09,0, 2024-03-15 15:20:03.196
61,-14359.34178,-26475.57425,-6880.962179,-4409.306277,-6876.983568,3248.557836,-17613.26404,-3765.866609,0.022,0.956,0.008,192,0,0,0,0,0,0,0,0,0,1.71E+09,0, 2024-03-15 15:20:03.196
62,-15228.48937,-26482.45859,-6840.147893,-4397.16928,-6708.809043,3287.807499,-17432.41607,-3532.93908,0.022,0.956,0.008,192,0,0,0,0,0,0,0,0,0,1.71E+09,0, 2024-03-15 15:20:03.196
63,-14679.19525,-26661.11608,-6818.779626,-4433.870844,-6020.308259,3560.99052,-16925.05383,-1921.490064,0.022,0.956,0.008,192,0,0,0,0,0,0,0,0,0,1.71E+09,0, 2024-03-15 15:20:03.196
64,-13494.7316,-26761.65423,-6839.678507,-4458.748336,-5753.316671,3701.694751,-16779.83454,-1162.715395,0.022,0.956,0.008,192,0,0,0,0,0,0,0,0,0,1.71E+09,0, 2024-03-15 15:20:03.196
65,-13300.15967,-26658.07625,-6880.559847,-4442.744487,-6261.997671,3525.451246,-17193.49828,-2232.201664,0.022,0.956,0.008,192,0,0,0,0,0,0,0,0,0,1.71E+09,0, 2024-03-15 15:20:03.196
66,-14353.86561,-26476.60243,-6884.605513,-4402.109015,-6880.33633,3257.207961,-17619.14255,-3744.274824,0.022,0.956,0.008,192,0,0,0,0,0,0,0,0,0,1.71E+09,0, 2024-03-15 15:20:03.196
67,-15216.88881,-26481.76569,-6839.097361,-4386.239277,-6708.071435,3297.999894,-17430.49382,-3512.129606,0.022,0.956,0.008,192,0,0,0,0,0,0,0,0,0,1.71E+09,0, 2024-03-15 15:20:03.196
68,-14683.12915,-26659.32794,-6816.589155,-4422.225585,-6019.257727,3569.260665,-16914.14617,-1907.319058,0.022,0.956,0.008,192,0,0,0,0,0,0,0,0,0,1.71E+09,0, 2024-03-15 15:20:03.196
69,-13510.69075,-26771.22078,-6848.507446,-4462.190504,-5760.424526,3698.163175,-16778.58284,-1156.300444,0.022,0.956,0.008,192,0,0,0,0,0,0,0,0,0,1.71E+09,0, 2024-03-15 15:20:03.196
70,-13298.03625,-26670.19089,-6886.304246,-4449.628824,-6259.963663,3524.333659,-17186.45748,-2223.663297,0.024,0.956,0.01,192,0,192,29,224,0,80,0,0,0,1.71E+09,0, 2024-03-15 15:20:03.196
71,-14337.72765,-26489.03,-6887.287723,-4410.75914,-6876.313016,3256.626815,-17609.576,-3736.339955,0.024,0.956,0.01,192,0,0,0,0,0,0,0,0,0,1.71E+09,0, 2024-03-15 15:20:03.196
72,-15210.71973,-26497.63542,-6845.087629,-4399.002123,-6714.888718,3289.975618,-17432.39372,-3511.928441,0.024,0.956,0.01,192,0,0,0,0,0,0,0,0,0,1.71E+09,0, 2024-03-15 15:20:03.196
73,-14695.13204,-26672.51547,-6815.806844,-4433.17794,-6023.817482,3558.062441,-16910.14521,-1914.851596,0.024,0.956,0.01,192,0,0,0,0,0,0,0,0,0,1.71E+09,0, 2024-03-15 15:20:03.196
74,-13507.06977,-26781.86021,-6837.063353,-4463.308092,-5744.018345,3699.079597,-16757.70632,-1138.128476,0.024,0.956,0.01,192,0,0,0,0,0,0,0,0,0,1.71E+09,0, 2024-03-15 15:20:03.196
75,-13288.69322,-26681.88085,-6879.554019,-4455.239112,-6244.317442,3522.098484,-17170.38657,-2187.833451,0.024,0.956,0.01,192,0,0,0,0,0,0,0,0,0,1.71E+09,0, 2024-03-15 15:20:03.196
76,-14331.33505,-26499.20005,-6882.705615,-4420.929184,-6863.706632,3249.876589,-17591.33698,-3712.714161,0.024,0.956,0.01,192,0,0,0,0,0,0,0,0,0,1.71E+09,0, 2024-03-15 15:20:03.196
77,-15219.45926,-26506.41966,-6843.925338,-4411.966135,-6709.747816,3275.491688,-17418.06625,-3516.5329,0.024,0.956,0.01,192,0,0,0,0,0,0,0,0,0,1.71E+09,0, 2024-03-15 15:20:03.196
78,-14704.49742,-26686.06063,-6828.077951,-4448.913568,-6027.147892,3538.504665,-16909.20644,-1925.133398,0.024,0.956,0.01,192,0,0,0,0,0,0,0,0,0,1.71E+09,0, 2024-03-15 15:20:03.196
79,-13511.18249,-26788.65514,-6851.413173,-4475.690958,-5752.824933,3680.572352,-16762.60135,-1150.936025,0.024,0.956,0.01,192,0,0,0,0,0,0,0,0,0,1.71E+09,0, 2024-03-15 15:20:03.196
80,-13278.63494,-26688.2511,-6896.518993,-4472.226438,-6250.307709,3509.246231,-17169.64897,-2196.751797,0.02,0.958,0.008,192,0,160,29,240,0,64,0,0,0,1.71E+09,0, 2024-03-15 15:20:03.196
81,-14314.32537,-26503.78215,-6902.531612,-4440.710478,-6878.659949,3233.11278,-17601.52937,-3733.389525,0.02,0.958,0.008,192,0,0,0,0,0,0,0,0,0,1.71E+09,0, 2024-03-15 15:20:03.196
82,-15195.98993,-26496.29432,-6855.682356,-4423.007896,-6727.964488,3264.896961,-17438.67456,-3548.451191,0.02,0.958,0.008,192,0,0,0,0,0,0,0,0,0,1.71E+09,0, 2024-03-15 15:20:03.196
83,-14677.83179,-26670.07913,-6837.733905,-4456.826086,-6046.4598,3534.257833,-16935.49209,-1946.524018,0.02,0.958,0.008,192,0,0,0,0,0,0,0,0,0,1.71E+09,0, 2024-03-15 15:20:03.196
84,-13503.22527,-26775.71348,-6860.309167,-4485.570429,-5769.856962,3677.934847,-16786.40596,-1157.373328,0.02,0.958,0.008,192,0,0,0,0,0,0,0,0,0,1.71E+09,0, 2024-03-15 15:20:03.196
85,-13262.7652,-26676.56114,-6901.034045,-4475.310978,-6258.063764,3509.134473,-17187.39625,-2190.046273,0.02,0.958,0.008,192,0,0,0,0,0,0,0,0,0,1.71E+09,0, 2024-03-15 15:20:03.196
86,-14291.23602,-26496.20491,-6906.979609,-4445.873731,-6883.420871,3231.995193,-17617.73439,-3727.041629,0.02,0.958,0.008,192,0,0,0,0,0,0,0,0,0,1.71E+09,0, 2024-03-15 15:20:03.196
87,-15194.73823,-26489.36528,-6858.632786,-4429.422847,-6733.731238,3264.360519,-17444.84364,-3558.531828,0.02,0.958,0.008,192,0,0,0,0,0,0,0,0,0,1.71E+09,0, 2024-03-15 15:20:03.196
88,-14686.07958,-26668.22394,-6838.583271,-4467.241999,-6046.102172,3532.447342,-16932.94399,-1951.329643,0.02,0.958,0.008,192,0,0,0,0,0,0,0,0,0,1.71E+09,0, 2024-03-15 15:20:03.196
89,-13497.72674,-26779.2674,-6864.511295,-4499.942601,-5766.303035,3673.75507,-16783.56728,-1157.0157,0.02,0.958,0.008,192,0,0,0,0,0,0,0,0,0,1.71E+09,0, 2024-03-15 15:20:03.196
90,-13249.9353,-26679.46686,-6906.174947,-4485.369263,-6255.538017,3508.620382,-17184.60228,-2190.493308,0.018,0.96,0.006,192,0,144,30,0,0,48,0,0,0,1.71E+09,0, 2024-03-15 15:20:03.676
91,-14283.43526,-26491.84632,-6910.913516,-4444.018536,-6883.867906,3243.506341,-17620.59541,-3721.073713,0.018,0.96,0.006,192,0,0,0,0,0,0,0,0,0,1.71E+09,0, 2024-03-15 15:20:03.676
92,-15198.49333,-26482.05626,-6867.282911,-4423.611393,-6746.248215,3272.250685,-17465.78723,-3564.745613,0.018,0.96,0.006,192,0,0,0,0,0,0,0,0,0,1.71E+09,0, 2024-03-15 15:20:03.676
93,-14691.89104,-26646.20747,-6832.101265,-4449.226493,-6049.857265,3547.914749,-16940.90121,-1977.81646,0.018,0.96,0.006,192,0,0,0,0,0,0,0,0,0,1.71E+09,0, 2024-03-15 15:20:03.676
94,-13490.44007,-26755.57455,-6852.01667,-4474.126336,-5755.216569,3704.980457,-16774.17955,-1143.984633,0.018,0.96,0.006,192,0,0,0,0,0,0,0,0,0,1.71E+09,0, 2024-03-15 15:20:03.676
95,-13239.16176,-26660.40083,-6892.294513,-4459.932978,-6238.751857,3543.31029,-17173.47111,-2151.444811,0.018,0.96,0.006,192,0,0,0,0,0,0,0,0,0,1.71E+09,0, 2024-03-15 15:20:03.676
96,-14264.03395,-26486.23603,-6903.760958,-4428.417018,-6875.46365,3265.589865,-17611.85588,-3693.044626,0.018,0.96,0.006,192,0,0,0,0,0,0,0,0,0,1.71E+09,0, 2024-03-15 15:20:03.676
97,-15173.30291,-26485.36432,-6861.784382,-4414.000143,-6737.486331,3287.382816,-17457.18181,-3544.941967,0.018,0.96,0.006,192,0,0,0,0,0,0,0,0,0,1.71E+09,0, 2024-03-15 15:20:03.676
98,-14692.96392,-26656.64573,-6828.592042,-4440.397553,-6044.29168,3558.263607,-16932.27344,-1954.123611,0.018,0.96,0.006,192,0,0,0,0,0,0,0,0,0,1.71E+09,0, 2024-03-15 15:20:03.676
99,-13511.89774,-26768.65033,-6846.920472,-4469.812449,-5750.902683,3707.394446,-16765.30591,-1138.575511,0.018,0.96,0.006,192,0,0,0,0,0,0,0,0,0,1.71E+09,0, 2024-03-15 15:20:03.676
100,-13247.45426,-26665.56408,-6877.832935,-4451.953405,-6223.083284,3552.02747,-17156.52849,-2144.783991,0.024,0.958,0.012,192,0,192,29,240,0,96,0,0,0,1.71E+09,0, 2024-03-15 15:20:03.676
101,-14262.02229,-26484.29143,-6884.784327,-4415.989449,-6852.866036,3275.916371,-17590.80053,-3682.516954,0.024,0.958,0.012,192,0,0,0,0,0,0,0,0,0,1.71E+09,0, 2024-03-15 15:20:03.676
102,-15183.18238,-26485.45372,-6847.345155,-4406.624068,-6722.689476,3290.087377,-17430.98556,-3546.081906,0.024,0.958,0.012,192,0,0,0,0,0,0,0,0,0,1.71E+09,0, 2024-03-15 15:20:03.677
103,-14705.34679,-26660.62434,-6817.952611,-4440.442257,-6031.528834,3555.983729,-16902.81384,-1958.258683,0.024,0.958,0.012,192,0,0,0,0,0,0,0,0,0,1.71E+09,0, 2024-03-15 15:20:03.677
104,-13507.98619,-26777.83689,-6844.752353,-4474.461612,-5734.921185,3706.1651,-16742.1048,-1128.293708,0.024,0.958,0.012,192,0,0,0,0,0,0,0,0,0,1.71E+09,0, 2024-03-15 15:20:03.677
105,-13240.48051,-26685.47948,-6891.132223,-4467.733737,-6218.009438,3538.392906,-17142.02221,-2135.79859,0.024,0.958,0.012,192,0,0,0,0,0,0,0,0,0,1.71E+09,0, 2024-03-15 15:20:03.677
106,-14261.48585,-26498.0154,-6897.994208,-4430.942766,-6859.996243,3259.443135,-17582.46333,-3692.105853,0.024,0.958,0.012,192,0,0,0,0,0,0,0,0,0,1.71E+09,0, 2024-03-15 15:20:03.677
107,-15182.37772,-26480.49164,-6847.166341,-4407.160509,-6729.976145,3288.031016,-17426.17994,-3569.32772,0.024,0.958,0.012,192,0,0,0,0,0,0,0,0,0,1.71E+09,0, 2024-03-15 15:20:03.677
108,-14705.4809,-26657.98684,-6828.882614,-4448.488885,-6050.483114,3552.049822,-16920.80699,-1981.057463,0.024,0.958,0.012,192,0,0,0,0,0,0,0,0,0,1.71E+09,0, 2024-03-15 15:20:03.677
109,-13504.38756,-26774.28296,-6852.798981,-4484.721063,-5748.265177,3699.034893,-16752.65482,-1133.211092,0.024,0.958,0.012,192,0,0,0,0,0,0,0,0,0,1.71E+09,0, 2024-03-15 15:20:03.677
110,-13224.16374,-26674.48243,-6891.534554,-4474.796888,-6220.244613,3541.991537,-17141.57517,-2113.24568,0.028,0.956,0.012,192,0,224,29,224,0,96,0,0,0,1.71E+09,0, 2024-03-15 15:20:03.677
111,-14233.83674,-26488.96295,-6903.91742,-4441.626899,-6869.048699,3265.165182,-17599.31655,-3678.068957,0.028,0.956,0.012,192,0,0,0,0,0,0,0,0,0,1.71E+09,0, 2024-03-15 15:20:03.677
112,-15151.46526,-26474.92605,-6856.643481,-4421.331515,-6751.098544,3283.225391,-17461.38393,-3589.176069,0.028,0.956,0.012,192,0,0,0,0,0,0,0,0,0,1.71E+09,0, 2024-03-15 15:20:03.677
113,-14687.82302,-26641.29009,-6821.506539,-4446.343118,-6056.294567,3556.006081,-16934.73213,-1998.06714,0.028,0.956,0.012,192,0,0,0,0,0,0,0,0,0,1.71E+09,0, 2024-03-15 15:20:03.677
114,-13507.91913,-26764.85053,-6849.222702,-4481.345949,-5753.741354,3704.064036,-16765.73059,-1134.418086,0.028,0.956,0.012,192,0,0,0,0,0,0,0,0,0,1.71E+09,0, 2024-03-15 15:20:03.677
115,-13224.05198,-26679.01983,-6895.110833,-4477.613208,-6228.02302,3541.879778,-17162.51876,-2114.743246,0.028,0.956,0.012,192,0,0,0,0,0,0,0,0,0,1.71E+09,0, 2024-03-15 15:20:03.677
116,-14219.19635,-26499.2224,-6906.621981,-4449.45001,-6875.016615,3259.085507,-17613.04052,-3679.924152,0.028,0.956,0.012,192,0,0,0,0,0,0,0,0,0,1.71E+09,0, 2024-03-15 15:20:03.677
117,-15154.84037,-26486.92894,-6864.041908,-4432.708553,-6762.766154,3270.976635,-17474.34795,-3602.363599,0.028,0.956,0.012,192,0,0,0,0,0,0,0,0,0,1.71E+09,0, 2024-03-15 15:20:03.677
118,-14704.67624,-26657.33864,-6833.352963,-4463.218685,-6070.42087,3543.176179,-16950.91479,-2006.046713,0.028,0.956,0.012,192,0,0,0,0,0,0,0,0,0,1.71E+09,0, 2024-03-15 15:20:03.677
119,-13508.61204,-26777.25575,-6855.324728,-4494.064092,-5754.054279,3700.085425,-16766.40114,-1125.209168,0.028,0.956,0.012,192,0,0,0,0,0,0,0,0,0,1.71E+09,0, 2024-03-15 15:20:03.677
120,-13202.90723,-26684.38425,-6891.333388,-4481.010673,-6210.879232,3547.355956,-17146.89489,-2089.865755,0.032,0.954,0.008,192,1,0,29,208,0,64,0,0,0,1.71E+09,0, 2024-03-15 15:20:03.677
121,-14201.42671,-26500.89878,-6899.022388,-4445.024365,-6854.810638,3268.361481,-17593.75096,-3663.897951,0.032,0.954,0.008,192,0,0,0,0,0,0,0,0,0,1.71E+09,0, 2024-03-15 15:20:03.677
122,-15156.5391,-26485.94546,-6855.637652,-4423.767856,-6749.2657,3280.409071,-17461.00395,-3596.909773,0.032,0.954,0.008,192,0,0,0,0,0,0,0,0,0,1.71E+09,0, 2024-03-15 15:20:03.677
123,-14712.18642,-26655.97518,-6824.144044,-4450.187618,-6058.775611,3550.529903,-16938.37547,-1996.480166,0.032,0.954,0.008,192,0,0,0,0,0,0,0,0,0,1.71E+09,0, 2024-03-15 15:20:03.677
124,-13507.60621,-26774.97587,-6844.104152,-4480.496583,-5734.541206,3707.57326,-16749.63734,-1092.709731,0.032,0.954,0.008,192,0,0,0,0,0,0,0,0,0,1.71E+09,0, 2024-03-15 15:20:03.677
125,-13198.39218,-26682.462,-6883.66674,-4466.593798,-6194.473051,3553.972072,-17133.66266,-2053.141839,0.032,0.954,0.008,192,0,0,0,0,0,0,0,0,0,1.71E+09,0, 2024-03-15 15:20:03.677
126,-14194.72119,-26494.55088,-6887.779461,-4429.19933,-6837.979774,3278.643284,-17571.0863,-3634.192483,0.032,0.954,0.008,192,0,0,0,0,0,0,0,0,0,1.71E+09,0, 2024-03-15 15:20:03.677
127,-15136.40018,-26474.76959,-6838.18094,-4404.34419,-6730.981974,3298.871612,-17431.54436,-3567.718395,0.032,0.954,0.008,192,0,0,0,0,0,0,0,0,0,1.71E+09,0, 2024-03-15 15:20:03.677
128,-14702.2399,-26654.52232,-6814.711608,-4443.482094,-6049.365526,3565.639682,-16917.67775,-1978.822288,0.032,0.954,0.008,192,0,0,0,0,0,0,0,0,0,1.71E+09,0, 2024-03-15 15:20:03.677
129,-13521.50899,-26783.22366,-6845.333498,-4487.962066,-5735.256462,3712.803568,-16741.72482,-1081.645618,0.032,0.954,0.008,192,0,0,0,0,0,0,0,0,0,1.71E+09,0, 2024-03-15 15:20:03.677
130,-13204.85183,-26700.83513,-6892.875659,-4486.620961,-6194.696569,3555.648453,-17126.33128,-2020.463588,0.026,0.956,0.01,192,0,208,29,224,0,80,0,0,0,1.71E+09,0, 2024-03-15 15:20:03.677
131,-14188.39564,-26506.9561,-6893.836784,-4449.539417,-6843.075972,3281.191383,-17578.01534,-3611.416055,0.026,0.956,0.01,192,0,0,0,0,0,0,0,0,0,1.71E+09,0, 2024-03-15 15:20:03.677
132,-15137.33895,-26483.8444,-6845.266443,-4429.46755,-6740.593224,3294.490671,-17444.57542,-3564.410337,0.026,0.956,0.01,192,0,0,0,0,0,0,0,0,0,1.71E+09,0, 2024-03-15 15:20:03.677
133,-14720.3001,-26655.10346,-6822.445312,-4470.550057,-6054.908759,3556.497819,-16922.1928,-1982.756195,0.026,0.956,0.01,192,0,0,0,0,0,0,0,0,0,1.71E+09,0, 2024-03-15 15:20:03.677
134,-13521.37488,-26772.40542,-6849.222702,-4508.704485,-5732.820121,3717.586841,-16741.59071,-1069.8886,0.026,0.956,0.01,192,0,0,0,0,0,0,0,0,0,1.71E+09,0, 2024-03-15 15:20:03.677
135,-13184.35528,-26679.98096,-6890.752243,-4503.407121,-6184.437118,3571.205267,-17116.89885,-2005.75614,0.026,0.956,0.01,192,0,0,0,0,0,0,0,0,0,1.71E+09,0, 2024-03-15 15:20:03.677
136,-14168.12261,-26489.65585,-6906.152595,-4478.753147,-6846.406382,3287.025188,-17576.42836,-3598.429692,0.026,0.956,0.01,192,0,0,0,0,0,0,0,0,0,1.71E+09,0, 2024-03-15 15:20:03.677
137,-15131.90748,-26459.5257,-6862.477286,-4460.804696,-6761.313291,3297.128176,-17456.80183,-3572.389909,0.026,0.956,0.01,192,0,0,0,0,0,0,0,0,0,1.71E+09,0, 2024-03-15 15:20:03.677
138,-14704.94446,-26629.46601,-6839.030306,-4500.389636,-6076.366434,3564.209171,-16943.87399,-1981.102166,0.026,0.956,0.01,192,0,0,0,0,0,0,0,0,0,1.71E+09,0, 2024-03-15 15:20:03.677
139,-13493.21169,-26753.22762,-6866.88058,-4542.522674,-5747.728735,3722.303059,-16762.51194,-1066.379376,0.026,0.956,0.01,192,0,0,0,0,0,0,0,0,0,1.71E+09,0, 2024-03-15 15:20:03.677
140,-13154.22513,-26661.18314,-6907.605458,-4534.878377,-6194.428348,3576.234409,-17139.11648,-1998.469472,0.026,0.956,0.016,192,0,208,29,224,0,128,0,0,0,1.71E+09,0, 2024-03-15 15:20:03.677
141,-14134.66205,-26477.78707,-6923.497549,-4508.995057,-6857.828123,3291.674351,-17599.00362,-3587.410282,0.026,0.956,0.016,192,0,0,0,0,0,0,0,0,0,1.71E+09,0, 2024-03-15 15:20:03.677
142,-15086.28757,-26455.61414,-6875.865981,-4491.292476,-6770.075175,3298.58104,-17473.94561,-3580.34713,0.026,0.956,0.016,192,0,0,0,0,0,0,0,0,0,1.71E+09,0, 2024-03-15 15:20:03.677
143,-14674.54608,-26630.5836,-6850.452048,-4529.737476,-6089.151631,3563.270398,-16961.75539,-2019.793036,0.026,0.956,0.016,192,0,0,0,0,0,0,0,0,0,1.71E+09,0, 2024-03-15 15:20:03.677
144,-13481.54408,-26753.49584,-6868.132278,-4561.320491,-5750.857979,3730.349687,-16765.59648,-1104.310287,0.026,0.956,0.016,192,0,0,0,0,0,0,0,0,0,1.71E+09,0, 2024-03-15 15:20:03.677
145,-13142.75868,-26668.93919,-6907.270182,-4554.950244,-6196.216487,3580.257723,-17139.9435,-2034.098152,0.026,0.956,0.016,192,0,0,0,0,0,0,0,0,0,1.71E+09,0, 2024-03-15 15:20:03.677
146,-14101.51441,-26483.15149,-6917.730798,-4523.926023,-6856.643481,3295.071816,-17599.89769,-3621.519044,0.026,0.956,0.016,192,0,0,0,0,0,0,0,0,0,1.71E+09,0, 2024-03-15 15:20:03.677
147,-15058.83963,-26464.28662,-6872.580275,-4504.703522,-6776.825401,3292.523717,-17480.60643,-3614.768817,0.026,0.956,0.016,192,0,0,0,0,0,0,0,0,0,1.71E+09,0, 2024-03-15 15:20:03.677
148,-14660.28567,-26635.81391,-6840.639632,-4534.520749,-6088.838707,3558.755345,-16966.73983,-2076.342949,0.026,0.956,0.016,192,0,0,0,0,0,0,0,0,0,1.71E+09,0, 2024-03-15 15:20:03.677
149,-13460.6899,-26758.18971,-6850.675565,-4560.940511,-5735.815255,3732.473103,-16758.46627,-1160.72609,0.026,0.956,0.016,192,0,0,0,0,0,0,0,0,0,1.71E+09,0, 2024-03-15 15:20:03.677
150,-13111.17567,-26676.18116,-6883.085595,-4551.753944,-6167.561551,3592.752349,-17119.22343,-2055.265254,0.024,0.954,0.012,192,0,192,29,208,0,96,0,0,0,1.71E+09,0, 2024-03-15 15:20:03.677
151,-14078.82739,-26495.44495,-6897.860098,-4520.170929,-6833.777646,3306.672371,-17582.79861,-3621.921375,0.024,0.954,0.012,192,0,0,0,0,0,0,0,0,0,1.71E+09,0, 2024-03-15 15:20:03.677
152,-15051.46355,-26466.58885,-6847.367507,-4493.550002,-6758.988709,3311.276831,-17469.49762,-3619.507387,0.024,0.954,0.012,192,0,0,0,0,0,0,0,0,0,1.71E+09,0, 2024-03-15 15:20:03.677
153,-14656.57528,-26630.96358,-6805.949724,-4515.454711,-6063.111849,3579.341302,-16934.35215,-2080.612133,0.024,0.954,0.012,192,0,0,0,0,0,0,0,0,0,1.71E+09,0, 2024-03-15 15:20:03.677
154,-13467.23896,-26765.58814,-6831.14014,-4556.648976,-5718.827929,3740.475028,-16737.25447,-1178.741596,0.024,0.954,0.012,192,0,0,0,0,0,0,0,0,0,1.71E+09,0, 2024-03-15 15:20:03.677
155,-13105.7442,-26688.18405,-6874.502525,-4554.525561,-6155.268092,3595.032226,-17105.72298,-2066.619941,0.024,0.954,0.012,192,0,0,0,0,0,0,0,0,0,1.71E+09,0, 2024-03-15 15:20:03.677
156,-14063.91878,-26507.5596,-6892.830955,-4528.329316,-6830.156664,3302.112615,-17577.5683,-3633.857207,0.024,0.954,0.012,192,0,0,0,0,0,0,0,0,0,1.71E+09,0, 2024-03-15 15:20:03.677
157,-15040.13122,-26479.48581,-6844.305318,-4505.95522,-6763.056727,3299.810386,-17472.67157,-3655.180771,0.024,0.954,0.012,192,0,0,0,0,0,0,0,0,0,1.71E+09,0, 2024-03-15 15:20:03.677
158,-14659.30219,-26651.54954,-6814.465739,-4540.198092,-6077.774594,3557.637758,-16952.34531,-2133.317546,0.024,0.954,0.012,192,0,0,0,0,0,0,0,0,0,1.71E+09,0, 2024-03-15 15:20:03.677
159,-13482.88518,-26773.25478,-6827.496806,-4570.283541,-5721.621897,3724.895862,-16730.86187,-1227.937785,0.024,0.954,0.012,192,0,0,0,0,0,0,0,0,0,1.71E+09,0, 2024-03-15 15:20:03.677
160,-13112.85205,-26692.27441,-6865.427716,-4558.437116,-6144.114571,3586.739729,-17084.01943,-2097.688865,0.024,0.954,0.012,192,0,0,0,0,0,0,0,0,0,1.71E+09,0, 2024-03-15 15:20:03.677
161,-14051.24534,-26510.08535,-6881.856249,-4529.178682,-6813.795187,3294.848298,-17558.52462,-3657.773573,0.026,0.954,0.016,192,0,208,29,208,0,128,0,0,0,1.71E+09,0, 2024-03-15 15:20:03.677
162,-15025.84845,-26482.05626,-6839.231472,-4508.883299,-6755.457134,3286.689912,-17459.43933,-3681.68994,0.026,0.954,0.016,192,0,0,0,0,0,0,0,0,0,1.71E+09,0, 2024-03-15 15:20:03.677
163,-14661.17974,-26644.95577,-6809.213079,-4536.688869,-6076.254675,3550.641662,-16944.87982,-2169.862648,0.026,0.954,0.016,192,0,0,0,0,0,0,0,0,0,1.71E+09,0, 2024-03-15 15:20:03.677
164,-13470.09998,-26777.76984,-6834.314088,-4576.385567,-5721.979525,3717.162158,-16733.99111,-1244.1428,0.026,0.954,0.016,192,0,0,0,0,0,0,0,0,0,1.71E+09,0, 2024-03-15 15:20:03.677
165,-13096.71409,-26698.26468,-6877.430603,-4567.288407,-6152.451772,3579.453061,-17093.09424,-2117.961898,0.026,0.954,0.016,192,0,0,0,0,0,0,0,0,0,1.71E+09,0, 2024-03-15 15:20:03.677
166,-14035.3309,-26508.27485,-6890.305208,-4533.693735,-6824.144044,3295.183575,-17564.38077,-3684.796832,0.026,0.954,0.016,192,0,0,0,0,0,0,0,0,0,1.71E+09,0, 2024-03-15 15:20:03.677
167,-15028.73183,-26481.60922,-6853.514237,-4518.561604,-6773.830268,3281.191383,-17476.02433,-3720.380809,0.026,0.954,0.016,192,0,0,0,0,0,0,0,0,0,1.71E+09,0, 2024-03-15 15:20:03.677
168,-14673.94259,-26649.8508,-6824.747542,-4549.608177,-6094.203126,3540.35986,-16960.25782,-2204.977239,0.026,0.954,0.016,192,0,0,0,0,0,0,0,0,0,1.71E+09,0, 2024-03-15 15:20:03.677
169,-13477.11843,-26781.32376,-6848.932129,-4586.667369,-5737.066953,3708.713199,-16747.98331,-1274.027082,0.026,0.954,0.016,192,0,0,0,0,0,0,0,0,0,1.71E+09,0, 2024-03-15 15:20:03.677
170,-13092.89194,-26705.75252,-6894.574391,-4583.47107,-6167.874475,3569.171258,-17113.43433,-2148.650843,0.026,0.954,0.016,192,0,0,0,0,0,0,0,0,0,1.71E+09,0, 2024-03-15 15:20:03.677
171,-14023.55153,-26512.16406,-6896.653103,-4542.746191,-6829.955498,3291.272019,-17574.39435,-3698.453748,0.028,0.954,0.018,192,0,224,29,208,0,144,0,0,0,1.71E+09,0, 2024-03-15 15:20:03.677
172,-15017.33244,-26480.6481,-6850.787324,-4517.645182,-6776.244256,3282.197211,-17474.57146,-3718.056228,0.028,0.954,0.018,192,0,0,0,0,0,0,0,0,0,1.71E+09,0, 2024-03-15 15:20:03.677
173,-14665.00189,-26643.54761,-6818.533757,-4544.221406,-6094.337236,3545.143133,-16954.11109,-2205.670143,0.028,0.954,0.018,192,0,0,0,0,0,0,0,0,0,1.71E+09,0, 2024-03-15 15:20:03.677
174,-13476.33612,-26776.71931,-6841.734867,-4580.967674,-5733.870653,3718.235042,-16736.04747,-1275.435242,0.028,0.954,0.018,192,0,0,0,0,0,0,0,0,0,1.71E+09,0, 2024-03-15 15:20:03.677
175,-13094.79184,-26693.05673,-6878.995225,-4567.154296,-6157.950301,3588.326703,-17098.88334,-2138.056116,0.028,0.954,0.018,192,0,0,0,0,0,0,0,0,0,1.71E+09,0, 2024-03-15 15:20:03.677
176,-14016.48838,-26503.93862,-6890.193449,-4530.720953,-6827.921489,3307.745255,-17572.31564,-3677.107832,0.028,0.954,0.018,192,0,0,0,0,0,0,0,0,0,1.71E+09,0, 2024-03-15 15:20:03.677
177,-15013.19736,-26476.31186,-6850.563806,-4516.684057,-6786.168431,3290.914391,-17484.38388,-3717.229213,0.028,0.954,0.018,192,0,0,0,0,0,0,0,0,0,1.71E+09,0, 2024-03-15 15:20:03.677
178,-14668.71228,-26638.13849,-6813.83989,-4543.729668,-6097.958219,3553.145057,-16950.93715,-2204.686666,0.028,0.954,0.018,192,0,0,0,0,0,0,0,0,0,1.71E+09,0, 2024-03-15 15:20:03.677
179,-13481.56643,-26766.86219,-6832.056562,-4580.051253,-5732.753066,3728.405086,-16732.82882,-1273.825917,0.028,0.954,0.018,192,0,0,0,0,0,0,0,0,0,1.71E+09,0, 2024-03-15 15:20:03.677
180,-13086.65581,-26691.82738,-6876.760051,-4577.212581,-6155.357499,3591.500651,-17097.43048,-2132.334069,0.028,0.954,0.018,192,0,0,0,0,0,0,0,0,0,1.71E+09,0, 2024-03-15 15:20:03.677
181,-14014.78964,-26501.52463,-6884.806679,-4539.236967,-6822.333553,3309.891022,-17564.76075,-3695.838594,0.026,0.956,0.014,192,0,208,29,224,0,112,0,0,0,1.71E+09,0, 2024-03-15 15:20:03.677
182,-15014.9408,-26471.84151,-6835.476379,-4514.806511,-6769.806954,3297.932839,-17459.57344,-3739.916234,0.026,0.956,0.014,192,0,0,0,0,0,0,0,0,0,1.71E+09,0, 2024-03-15 15:20:03.677
183,-14671.37214,-26646.45334,-6810.397722,-4550.03286,-6094.404291,3550.664014,-16945.10334,-2232.067553,0.026,0.956,0.014,192,0,0,0,0,0,0,0,0,0,1.71E+09,0, 2024-03-15 15:20:03.677
184,-13474.43622,-26784.3636,-6835.051696,-4596.189212,-5728.327421,3715.709295,-16726.79385,-1299.284553,0.026,0.956,0.014,192,0,0,0,0,0,0,0,0,0,1.71E+09,0, 2024-03-15 15:20:03.677
185,-13075.0329,-26701.0363,-6870.836839,-4588.969599,-6138.504283,3581.598828,-17071.27894,-2157.815058,0.026,0.956,0.014,192,0,0,0,0,0,0,0,0,0,1.71E+09,0, 2024-03-15 15:20:03.677
186,-13996.70708,-26512.94637,-6888.852345,-4560.02409,-6815.739789,3292.322551,-17551.72969,-3716.178681,0.026,0.956,0.014,192,0,0,0,0,0,0,0,0,0,1.71E+09,0, 2024-03-15 15:20:03.677
187,-14991.00208,-26480.35753,-6850.139123,-4537.560587,-6775.573704,3278.352711,-17460.37811,-3765.754851,0.026,0.956,0.014,192,0,0,0,0,0,0,0,0,0,1.71E+09,0, 2024-03-15 15:20:03.677
188,-14655.27888,-26645.2687,-6828.390876,-4568.428346,-6107.435358,3534.682516,-16952.56882,-2271.071347,0.026,0.956,0.014,192,0,0,0,0,0,0,0,0,0,1.71E+09,0, 2024-03-15 15:20:03.677
189,-13470.16704,-26770.8855,-6848.395687,-4600.637209,-5744.107752,3711.507167,-16735.51103,-1336.880188,0.026,0.956,0.014,192,0,0,0,0,0,0,0,0,0,1.71E+09,0, 2024-03-15 15:20:03.677
190,-13064.52758,-26696.07421,-6891.22163,-4592.389416,-6162.465353,3579.073081,-17091.79784,-2168.521544,0.026,0.956,0.014,192,0,0,0,0,0,0,0,0,0,1.71E+09,0, 2024-03-15 15:20:03.677
191,-13978.53511,-26501.167,-6899.536478,-4551.396316,-6833.174149,3296.770548,-17565.3419,-3731.869606,0.032,0.95,0.014,192,1,0,29,176,0,112,0,0,0,1.71E+09,0, 2024-03-15 15:20:03.677
192,-14978.84273,-26468.93578,-6859.258635,-4531.793837,-6797.210192,3282.063101,-17482.88631,-3798.142528,0.032,0.95,0.014,192,0,0,0,0,0,0,0,0,0,1.71E+09,0, 2024-03-15 15:20:03.677
193,-14656.77645,-26634.15988,-6827.452103,-4560.895808,-6121.628716,3547.132438,-16966.71748,-2291.769062,0.032,0.95,0.014,192,0,0,0,0,0,0,0,0,0,1.71E+09,0, 2024-03-15 15:20:03.677
194,-13467.48483,-26768.87384,-6846.875769,-4595.89864,-5743.861883,3726.236966,-16735.60044,-1322.30685,0.032,0.95,0.014,192,0,0,0,0,0,0,0,0,0,1.71E+09,0, 2024-03-15 15:20:03.677
195,-13056.14567,-26693.50376,-6888.271199,-4590.109538,-6154.083449,3592.461776,-17087.97569,-2158.373852,0.032,0.95,0.014,192,0,0,0,0,0,0,0,0,0,1.71E+09,0, 2024-03-15 15:20:03.677
196,-13968.18626,-26505.81616,-6905.638505,-4559.867628,-6834.85053,3302.671409,-17566.79476,-3725.521711,0.032,0.95,0.014,192,0,0,0,0,0,0,0,0,0,1.71E+09,0, 2024-03-15 15:20:03.677
197,-14983.5366,-26469.65104,-6861.963196,-4537.180607,-6806.374408,3286.913429,-17488.16132,-3791.258191,0.032,0.95,0.014,192,0,0,0,0,0,0,0,0,0,1.71E+09,0, 2024-03-15 15:20:03.677
198,-14665.67244,-26629.95775,-6828.368524,-4565.187343,-6127.596632,3550.194627,-16969.5338,-2288.416301,0.032,0.95,0.014,192,0,0,0,0,0,0,0,0,0,1.71E+09,0, 2024-03-15 15:20:03.677
199,-13479.64418,-26767.26452,-6849.781495,-4604.213489,-5748.332232,3724.717048,-16739.22142,-1326.084295,0.032,0.95,0.014,192,0,0,0,0,0,0,0,0,0,1.71E+09,0, 2024-03-15 15:20:03.677
200,-13053.55287,-26699.49403,-6896.206069,-4600.145471,-6152.742344,3594.428729,-17086.94751,-2141.922968,0.032,0.95,0.014,192,0,0,0,0,0,0,0,0,0,1.71E+09,0, 2024-03-15 15:20:03.677
201,-13956.98803,-26509.16892,-6904.766787,-4566.662558,-6826.13335,3307.231165,-17552.62376,-3707.461501,0.024,0.956,0.008,192,0,192,29,224,0,64,0,0,0,1.71E+09,0, 2024-03-15 15:20:03.677
202,-14965.54344,-26473.0485,-6863.304301,-4543.416744,-6802.082873,3287.204002,-17476.87369,-3791.280543,0.024,0.956,0.008,192,0,0,0,0,0,0,0,0,0,1.71E+09,0, 2024-03-15 15:20:03.677
203,-14662.20792,-26633.57873,-6832.615356,-4566.617854,-6131.910519,3543.712621,-16972.37247,-2288.840984,0.024,0.956,0.008,192,0,0,0,0,0,0,0,0,0,1.71E+09,0, 2024-03-15 15:20:03.677
204,-13479.75594,-26770.77374,-6853.804809,-4604.660523,-5746.566444,3721.856024,-16736.76273,-1295.52946,0.024,0.956,0.008,192,0,0,0,0,0,0,0,0,0,1.71E+09,0, 2024-03-15 15:20:03.677
205,-13052.99408,-26696.633,-6888.450013,-4597.507965,-6133.653955,3598.608506,-17058.27022,-2101.376903,0.024,0.956,0.008,192,0,0,0,0,0,0,0,0,0,1.71E+09,0, 2024-03-15 15:20:03.677
206,-13947.28737,-26510.73355,-6902.531612,-4564.360328,-6814.063408,3313.087322,-17537.44692,-3675.207934,0.024,0.956,0.008,192,0,0,0,0,0,0,0,0,0,1.71E+09,0, 2024-03-15 15:20:03.677
207,-14958.99438,-26464.77836,-6852.240187,-4532.956127,-6796.450233,3295.38474,-17467.70948,-3786.810194,0.024,0.956,0.008,192,0,0,0,0,0,0,0,0,0,1.71E+09,0, 2024-03-15 15:20:03.677
208,-14664.97954,-26630.89652,-6822.691181,-4567.936607,-6125.629678,3550.596958,-16953.21702,-2284.124766,0.024,0.956,0.008,192,0,0,0,0,0,0,0,0,0,1.71E+09,0, 2024-03-15 15:20:03.677
209,-13482.81812,-26770.48317,-6843.254786,-4608.952058,-5732.306031,3729.813246,-16708.73364,-1279.324446,0.024,0.956,0.008,192,0,0,0,0,0,0,0,0,0,1.71E+09,0, 2024-03-15 15:20:03.677
210,-13042.82404,-26705.19372,-6886.61717,-4609.689666,-6124.981478,3600.754273,-17045.59678,-2074.823031,0.024,0.956,0.008,192,0,0,0,0,0,0,0,0,0,1.71E+09,0, 2024-03-15 15:20:04.157
211,-13934.63629,-26510.30886,-6895.334351,-4576.832602,-6807.894326,3310.293354,-17529.60146,-3667.742451,0.028,0.958,0.022,192,0,224,29,240,0,176,0,0,0,1.71E+09,0, 2024-03-15 15:20:04.157
212,-14958.10031,-26471.28272,-6856.084687,-4554.369098,-6800.76412,3280.52083,-17465.58606,-3793.627476,0.028,0.958,0.022,192,0,0,0,0,0,0,0,0,0,1.71E+09,0, 2024-03-15 15:20:04.157
213,-14672.7803,-26628.6837,-6826.78155,-4579.447756,-6134.123341,3534.056668,-16958.35793,-2308.756388,0.028,0.958,0.022,192,0,0,0,0,0,0,0,0,0,1.71E+09,0, 2024-03-15 15:20:04.157
214,-13475.39735,-26755.4628,-6837.085704,-4606.40396,-5731.635479,3725.678173,-16710.41002,-1294.680094,0.028,0.958,0.022,192,0,0,0,0,0,0,0,0,0,1.71E+09,0, 2024-03-15 15:20:04.157
215,-13013.23033,-26686.44061,-6876.648292,-4598.960829,-6117.31483,3609.270288,-17043.29455,-2065.815278,0.028,0.958,0.022,192,0,0,0,0,0,0,0,0,0,1.71E+09,0, 2024-03-15 15:20:04.157
216,-13900.59458,-26498.82007,-6895.379054,-4567.489572,-6810.442425,3314.182557,-17536.64226,-3655.761916,0.028,0.958,0.022,192,0,0,0,0,0,0,0,0,0,1.71E+09,0, 2024-03-15 15:20:04.157
217,-14935.458,-26455.18946,-6855.212969,-4541.986232,-6811.850585,3281.92899,-17482.7075,-3803.41754,0.028,0.958,0.022,192,0,0,0,0,0,0,0,0,0,1.71E+09,0, 2024-03-15 15:20:04.157
218,-14654.11659,-26613.79744,-6823.182919,-4568.473049,-6145.925062,3538.147037,-16975.05468,-2312.220909,0.028,0.958,0.022,192,0,0,0,0,0,0,0,0,0,1.71E+09,0, 2024-03-15 15:20:04.157
219,-13460.19816,-26750.21014,-6840.192597,-4605.800462,-5741.224377,3726.996926,-16724.58103,-1291.461443,0.028,0.958,0.022,192,0,0,0,0,0,0,0,0,0,1.71E+09,0, 2024-03-15 15:20:04.157
220,-13003.73083,-26683.44548,-6880.403385,-4604.839337,-6124.10976,3606.252802,-17055.74448,-2062.820144,0.028,0.958,0.022,192,0,0,0,0,0,0,0,0,0,1.71E+09,0, 2024-03-15 15:20:04.157
221,-13888.85991,-26498.26127,-6898.843574,-4578.061948,-6813.281097,3310.226299,-17542.34195,-3644.966024,0.018,0.96,0.018,192,0,144,30,0,0,144,0,0,0,1.71E+09,0, 2024-03-15 15:20:04.157
222,-14926.20437,-26460.08449,-6861.069126,-4557.766564,-6813.638725,3277.05631,-17484.85327,-3798.500156,0.018,0.96,0.018,192,0,0,0,0,0,0,0,0,0,1.71E+09,0, 2024-03-15 15:20:04.157
223,-14658.47518,-26620.23474,-6825.865129,-4582.532296,-6144.87453,3535.1072,-16969.28793,-2317.36181,0.018,0.96,0.018,192,0,0,0,0,0,0,0,0,0,1.71E+09,0, 2024-03-15 15:20:04.157
224,-13476.91726,-26762.77182,-6843.925338,-4617.624535,-5741.045563,3719.017353,-16719.59659,-1284.711216,0.018,0.96,0.018,192,0,0,0,0,0,0,0,0,0,1.71E+09,0, 2024-03-15 15:20:04.157
225,-13016.02429,-26697.7953,-6882.593856,-4611.343695,-6121.114626,3596.99918,-17050.29065,-2045.810467,0.018,0.96,0.018,192,0,0,0,0,0,0,0,0,0,1.71E+09,0, 2024-03-15 15:20:04.157
226,-13889.59752,-26513.12518,-6900.296438,-4582.509945,-6807.201422,3303.699589,-17537.26811,-3640.920358,0.018,0.96,0.018,192,0,0,0,0,0,0,0,0,0,1.71E+09,0, 2024-03-15 15:20:04.157
227,-14936.08385,-26473.76376,-6866.724118,-4564.740308,-6821.305373,3267.512115,-17492.11758,-3812.38059,0.018,0.96,0.018,192,0,0,0,0,0,0,0,0,0,1.71E+09,0, 2024-03-15 15:20:04.157
228,-14683.55384,-26631.45532,-6832.011858,-4588.276695,-6151.602406,3524.847749,-16973.44535,-2324.626127,0.018,0.96,0.018,192,0,0,0,0,0,0,0,0,0,1.71E+09,0, 2024-03-15 15:20:04.157
229,-13486.70733,-26763.66589,-6840.907853,-4617.356314,-5731.680182,3723.46535,-16707.07961,-1272.574219,0.018,0.96,0.018,192,0,0,0,0,0,0,0,0,0,1.71E+09,0, 2024-03-15 15:20:04.157
230,-13003.44026,-26704.25495,-6885.611342,-4617.646887,-6108.664704,3607.593907,-17036.8796,-2012.305202,0.018,0.96,0.018,192,0,0,0,0,0,0,0,0,0,1.71E+09,0, 2024-03-15 15:20:04.157
231,-13878.64517,-26517.03674,-6899.849403,-4583.806346,-6798.32778,3312.55088,-17523.52178,-3609.069122,0.022,0.956,0.018,192,0,176,29,224,0,144,0,0,0,1.71E+09,0, 2024-03-15 15:20:04.157
232,-14934.29571,-26468.82403,-6856.419963,-4557.498343,-6808.855451,3270.26138,-17467.3742,-3797.091996,0.022,0.956,0.018,192,0,0,0,0,0,0,0,0,0,1.71E+09,0, 2024-03-15 15:20:04.157
233,-14676.35658,-26624.54863,-6823.473492,-4584.320436,-6140.560644,3527.597013,-16956.32392,-2316.624202,0.022,0.956,0.018,192,0,0,0,0,0,0,0,0,0,1.71E+09,0, 2024-03-15 15:20:04.157
234,-13484.91919,-26761.76599,-6837.041001,-4619.636192,-5725.309935,3723.08537,-16700.10587,-1259.00671,0.022,0.956,0.018,192,0,0,0,0,0,0,0,0,0,1.71E+09,0, 2024-03-15 15:20:04.157
235,-13008.44705,-26701.43863,-6879.621074,-4619.367971,-6098.315847,3603.637648,-17017.25477,-1999.676466,0.022,0.956,0.018,192,0,0,0,0,0,0,0,0,0,1.71E+09,0, 2024-03-15 15:20:04.157
236,-13875.49357,-26509.68301,-6894.976723,-4585.102747,-6790.884649,3308.304049,-17509.619,-3605.895174,0.022,0.956,0.018,192,0,0,0,0,0,0,0,0,0,1.71E+09,0, 2024-03-15 15:20:04.157
237,-14917.50955,-26464.08546,-6856.710536,-4564.472087,-6809.324838,3264.896961,-17469.56467,-3813.095845,0.022,0.956,0.018,192,0,0,0,0,0,0,0,0,0,1.71E+09,0, 2024-03-15 15:20:04.157
238,-14674.18846,-26626.22501,-6826.356867,-4596.993875,-6144.539254,3511.168481,-16957.70972,-2346.352022,0.022,0.956,0.018,192,0,0,0,0,0,0,0,0,0,1.71E+09,0, 2024-03-15 15:20:04.157
239,-13494.19516,-26762.21302,-6836.169283,-4626.162902,-5721.91247,3707.327391,-16692.26041,-1271.94837,0.022,0.956,0.018,192,0,0,0,0,0,0,0,0,0,1.71E+09,0, 2024-03-15 15:20:04.157
240,-13002.25562,-26703.94203,-6882.862077,-4626.609937,-6093.018483,3592.327665,-17021.03222,-1985.818384,0.022,0.956,0.018,192,0,0,0,0,0,0,0,0,0,1.71E+09,0, 2024-03-15 15:20:04.157
241,-13860.49555,-26507.78312,-6896.139013,-4592.545878,-6786.347245,3300.547993,-17513.06117,-3595.993351,0.02,0.956,0.02,192,0,160,29,224,0,160,0,0,0,1.71E+09,0, 2024-03-15 15:20:04.157
242,-14913.26271,-26452.88723,-6853.156609,-4560.247607,-6810.621239,3264.11465,-17470.48109,-3804.736293,0.02,0.956,0.02,192,0,0,0,0,0,0,0,0,0,1.71E+09,0, 2024-03-15 15:20:04.157
243,-14678.39058,-26614.57975,-6827.921489,-4592.076491,-6155.938644,3511.526109,-16971.50075,-2335.913758,0.02,0.956,0.02,192,0,0,0,0,0,0,0,0,0,1.71E+09,0, 2024-03-15 15:20:04.157
244,-13497.16794,-26750.3666,-6843.94769,-4629.806236,-5739.056258,3703.840518,-16715.238,-1274.8988,0.02,0.956,0.02,192,0,0,0,0,0,0,0,0,0,1.71E+09,0, 2024-03-15 15:20:04.157
245,-12995.28187,-26684.22779,-6882.63856,-4620.284393,-6103.054417,3600.284886,-17037.32664,-1992.68037,0.02,0.956,0.02,192,0,0,0,0,0,0,0,0,0,1.71E+09,0, 2024-03-15 15:20:04.157
246,-13838.94847,-26492.31571,-6900.162327,-4585.52743,-6794.818556,3313.891985,-17531.23314,-3587.656151,0.02,0.956,0.02,192,0,0,0,0,0,0,0,0,0,1.71E+09,0, 2024-03-15 15:20:04.157
247,-14899.31523,-26444.81825,-6863.68428,-4563.510962,-6828.368524,3265.299292,-17498.55489,-3809.05018,0.02,0.956,0.02,192,0,0,0,0,0,0,0,0,0,1.71E+09,0, 2024-03-15 15:20:04.157
248,-14682.4586,-26596.16191,-6826.490978,-4585.505078,-6165.929874,3516.01881,-16988.8457,-2352.655214,0.02,0.956,0.02,192,0,0,0,0,0,0,0,0,0,1.71E+09,0, 2024-03-15 15:20:04.157
249,-13493.21169,-26736.62028,-6841.51135,-4617.378666,-5739.235072,3714.301135,-16721.85412,-1267.969759,0.02,0.956,0.02,192,0,0,0,0,0,0,0,0,0,1.71E+09,0, 2024-03-15 15:20:04.157
250,-12992.75613,-26682.93139,-6888.047682,-4617.915108,-6104.194356,3600.776625,-17040.0312,-1976.587114,0.02,0.956,0.02,192,0,0,0,0,0,0,0,0,0,1.71E+09,0, 2024-03-15 15:20:04.157
251,-13839.61902,-26491.71221,-6899.804699,-4581.146488,-6795.578515,3308.57227,-17527.92508,-3584.683369,0.016,0.958,0.016,192,0,128,29,240,0,128,0,0,0,1.71E+09,0, 2024-03-15 15:20:04.157
252,-14890.93332,-26438.80563,-6855.302376,-4549.65288,-6821.461835,3268.026205,-17485.68028,-3811.352409,0.016,0.958,0.016,192,0,0,0,0,0,0,0,0,0,1.71E+09,0, 2024-03-15 15:20:04.157
253,-14669.6734,-26598.77707,-6823.69701,-4576.29616,-6161.593635,3521.047952,-16977.08869,-2339.870017,0.016,0.958,0.016,192,0,0,0,0,0,0,0,0,0,1.71E+09,0, 2024-03-15 15:20:04.157
254,-13498.79962,-26743.05758,-6840.214949,-4617.445721,-5738.966851,3714.278783,-16708.55483,-1256.413908,0.016,0.958,0.016,192,0,0,0,0,0,0,0,0,0,1.71E+09,0, 2024-03-15 15:20:04.157
255,-12994.3431,-26690.97801,-6889.120566,-4619.747951,-6097.377073,3602.028322,-17028.09537,-1962.527867,0.016,0.958,0.016,192,0,0,0,0,0,0,0,0,0,1.71E+09,0, 2024-03-15 15:20:04.157
0,-13831.79591,-26501.7705,-6905.996133,-4583.918105,-6791.354035,3309.22047,-17523.32062,-3580.34713,0.016,0.958,0.016,192,0,0,0,0,0,0,0,0,0,1.71E+09,0, 2024-03-15 15:20:04.157
1,-14900.254,-26451.25555,-6865.47242,-4557.58775,-6831.296603,3262.393565,-17489.72595,-3827.155093,0.016,0.958,0.016,192,0,0,0,0,0,0,0,0,0,1.71E+09,0, 2024-03-15 15:20:04.157
2,-14699.15535,-26611.56227,-6834.314088,-4585.080395,-6176.926932,3512.442531,-16983.21307,-2359.360738,0.016,0.958,0.016,192,0,0,0,0,0,0,0,0,0,1.71E+09,0, 2024-03-15 15:20:04.157
3,-13518.98325,-26760.0002,-6853.022498,-4624.441817,-5747.862845,3709.540213,-16714.36628,-1251.429469,0.016,0.958,0.016,192,0,0,0,0,0,0,0,0,0,1.71E+09,0, 2024-03-15 15:20:04.157
4,-12998.45582,-26701.48333,-6891.959237,-4620.709076,-6096.415948,3604.3082,-17027.15659,-1946.278148,0.016,0.958,0.016,192,0,0,0,0,0,0,0,0,0,1.71E+09,0, 2024-03-15 15:20:04.157
5,-13824.30808,-26509.90653,-6903.492737,-4583.783994,-6781.608675,3313.556709,-17503.24875,-3543.511455,0.018,0.966,0.018,192,0,144,30,48,0,144,0,0,0,1.71E+09,0, 2024-03-15 15:20:04.157
6,-14907.40656,-26462.81141,-6870.054528,-4565.075584,-6833.330611,3251.485914,-17481.92519,-3813.744046,0.018,0.966,0.018,192,0,0,0,0,0,0,0,0,0,1.71E+09,0, 2024-03-15 15:20:04.157
7,-14710.59945,-26617.17255,-6832.950632,-4590.802442,-6177.709243,3501.534879,-16983.39188,-2369.419023,0.018,0.966,0.018,192,0,0,0,0,0,0,0,0,0,1.71E+09,0, 2024-03-15 15:20:04.157
8,-13520.07848,-26761.31895,-6843.478303,-4629.314498,-5738.072781,3707.103873,-16704.46446,-1253.441126,0.018,0.966,0.018,192,0,0,0,0,0,0,0,0,0,1.71E+09,0, 2024-03-15 15:20:04.157
9,-12989.02339,-26700.56691,-6876.760051,-4622.564271,-6073.75128,3607.88448,-17000.64743,-1930.140189,0.018,0.966,0.018,192,0,0,0,0,0,0,0,0,0,1.71E+09,0, 2024-03-15 15:20:04.157
10,-13811.03114,-26509.57126,-6892.406272,-4587.852012,-6767.32591,3311.857976,-17492.85519,-3546.998328,0.018,0.966,0.018,192,0,0,0,0,0,0,0,0,0,1.71E+09,0, 2024-03-15 15:20:04.157
11,-14886.8206,-26456.66468,-6854.9671,-4563.823886,-6819.517233,3254.771621,-17472.24688,-3828.384439,0.018,0.966,0.018,192,0,0,0,0,0,0,0,0,0,1.71E+09,0, 2024-03-15 15:20:04.157
12,-14696.07081,-26609.39415,-6817.438521,-4587.539087,-6164.767583,3506.631077,-16964.79523,-2381.623075,0.018,0.966,0.018,192,0,0,0,0,0,0,0,0,0,1.71E+09,0, 2024-03-15 15:20:04.157
13,-13522.22425,-26759.21789,-6839.052658,-4630.029753,-5733.758895,3704.265202,-16692.84155,-1249.775439,0.018,0.966,0.018,192,0,0,0,0,0,0,0,0,0,1.71E+09,0, 2024-03-15 15:20:04.157
14,-12991.57148,-26704.65728,-6884.69492,-4631.840245,-6082.177887,3599.033189,-17005.63186,-1923.009982,0.018,0.966,0.018,192,0,0,0,0,0,0,0,0,0,1.71E+09,0, 2024-03-15 15:20:04.157
15,-13806.13611,-26516.18737,-6906.957258,-4603.72175,-6782.05571,3299.765682,-17508.74728,-3545.120781,0.022,0.962,0.016,192,0,176,30,16,0,128,0,0,0,1.71E+09,0, 2024-03-15 15:20:04.157
16,-14885.39009,-26458.02813,-6868.534609,-4577.972541,-6837.957422,3242.835789,-17487.22255,-3836.85575,0.022,0.962,0.016,192,0,0,0,0,0,0,0,0,0,1.71E+09,0, 2024-03-15 15:20:04.157
17,-14713.79575,-26611.87519,-6835.409324,-4605.286372,-6192.751967,3488.190888,-16982.60957,-2385.109947,0.022,0.962,0.016,192,0,0,0,0,0,0,0,0,0,1.71E+09,0, 2024-03-15 15:20:04.157
18,-13527.3428,-26751.95357,-6845.020574,-4635.505931,-5745.717078,3693.893992,-16704.33035,-1259.252579,0.022,0.962,0.016,192,0,0,0,0,0,0,0,0,0,1.71E+09,0, 2024-03-15 15:20:04.157
19,-12973.01954,-26699.96341,-6888.785289,-4633.740143,-6085.396538,3594.853412,-17013.94671,-1916.885604,0.022,0.962,0.016,192,0,0,0,0,0,0,0,0,0,1.71E+09,0, 2024-03-15 15:20:04.157
20,-13779.55988,-26515.15919,-6909.371246,-4604.906393,-6784.715567,3298.469281,-17510.51307,-3531.642679,0.022,0.962,0.016,192,0,0,0,0,0,0,0,0,0,1.71E+09,0, 2024-03-15 15:20:04.157
21,-14875.13064,-26455.16711,-6868.914589,-4576.385567,-6848.753315,3237.627833,-17497.4373,-3843.293052,0.022,0.962,0.016,192,0,0,0,0,0,0,0,0,0,1.71E+09,0, 2024-03-15 15:20:04.157
22,-14713.75104,-26607.04721,-6831.9001,-4600.033712,-6197.110557,3486.849783,-16993.9419,-2409.987439,0.022,0.962,0.016,192,0,0,0,0,0,0,0,0,0,1.71E+09,0, 2024-03-15 15:20:04.157
23,-13530.85202,-26760.76016,-6849.982661,-4641.429143,-5751.193255,3688.797794,-16712.35463,-1266.606303,0.022,0.962,0.016,192,0,0,0,0,0,0,0,0,0,1.71E+09,0, 2024-03-15 15:20:04.157
24,-12984.55304,-26704.72434,-6888.785289,-4638.322251,-6084.234248,3590.472471,-17009.99045,-1912.258793,0.022,0.962,0.016,192,0,0,0,0,0,0,0,0,0,1.71E+09,0, 2024-03-15 15:20:04.157
25,-13792.00981,-26513.304,-6906.309057,-4602.268887,-6782.234524,3301.777339,-17510.33425,-3531.665031,0.024,0.958,0.016,192,0,192,29,240,0,128,0,0,0,1.71E+09,0, 2024-03-15 15:20:04.157
26,-14876.29293,-26448.17101,-6861.806734,-4569.702395,-6846.495789,3245.652109,-17501.43826,-3856.905264,0.024,0.958,0.016,192,0,0,0,0,0,0,0,0,0,1.71E+09,0, 2024-03-15 15:20:04.157
27,-14711.11354,-26602.44275,-6826.334515,-4594.646942,-6192.640208,3493.801176,-16995.75239,-2417.475273,0.024,0.958,0.016,192,0,0,0,0,0,0,0,0,0,1.71E+09,0, 2024-03-15 15:20:04.157
28,-13546.40884,-26759.24024,-6850.340289,-4641.920882,-5752.355546,3690.809451,-16717.0932,-1256.592722,0.024,0.958,0.016,192,0,0,0,0,0,0,0,0,0,1.71E+09,0, 2024-03-15 15:20:04.157
29,-12997.51705,-26705.5737,-6890.84165,-4639.529245,-6082.915495,3596.038055,-17010.45984,-1893.438625,0.024,0.958,0.016,192,0,0,0,0,0,0,0,0,0,1.71E+09,0, 2024-03-15 15:20:04.157
30,-13787.98649,-26515.2933,-6908.432473,-4605.465186,-6777.138326,3306.135929,-17505.57333,-3512.956621,0.024,0.958,0.016,192,0,0,0,0,0,0,0,0,0,1.71E+09,0, 2024-03-15 15:20:04.157
31,-14870.99557,-26448.01455,-6870.009824,-4573.47984,-6849.110943,3246.099144,-17506.26624,-3838.062744,0.024,0.958,0.016,192,0,0,0,0,0,0,0,0,0,1.71E+09,0, 2024-03-15 15:20:04.157
32,-14716.85794,-26593.12208,-6830.670754,-4593.641113,-6198.675179,3492.862403,-16998.27814,-2400.443244,0.024,0.958,0.016,192,0,0,0,0,0,0,0,0,0,1.71E+09,0, 2024-03-15 15:20:04.157
33,-13546.90058,-26740.88946,-6841.600757,-4633.628384,-5739.458589,3698.856079,-16696.97663,-1241.684108,0.024,0.958,0.016,192,0,0,0,0,0,0,0,0,0,1.71E+09,0, 2024-03-15 15:20:04.157
34,-12979.41214,-26694.19666,-6884.247885,-4631.929652,-6064.005919,3606.632782,-16987.79517,-1867.689415,0.024,0.958,0.016,192,0,0,0,0,0,0,0,0,0,1.71E+09,0, 2024-03-15 15:20:04.157
35,-13776.87767,-26509.30303,-6908.298362,-4603.699398,-6768.041166,3309.488691,-17491.89407,-3506.564022,0.022,0.958,0.014,192,0,176,29,240,0,112,0,0,0,1.71E+09,0, 2024-03-15 15:20:04.157
36,-14872.64959,-26442.38191,-6866.388841,-4574.530372,-6844.84176,3248.021394,-17487.04374,-3853.038413,0.022,0.958,0.014,192,0,0,0,0,0,0,0,0,0,1.71E+09,0, 2024-03-15 15:20:04.157
37,-14721.12712,-26594.35142,-6831.609527,-4601.017189,-6198.541069,3490.984856,-16984.97885,-2414.368381,0.022,0.958,0.014,192,0,0,0,0,0,0,0,0,0,1.71E+09,0, 2024-03-15 15:20:04.157
38,-13543.61487,-26744.10811,-6846.428734,-4638.813989,-5738.69863,3699.347818,-16694.92027,-1241.058259,0.022,0.958,0.014,192,0,0,0,0,0,0,0,0,0,1.71E+09,0, 2024-03-15 15:20:04.157
39,-12971.70078,-26694.46489,-6887.377129,-4639.149265,-6059.982605,3607.437445,-16990.25386,-1852.534932,0.022,0.958,0.014,192,0,0,0,0,0,0,0,0,0,1.71E+09,0, 2024-03-15 15:20:04.157
40,-13755.48706,-26511.20293,-6910.868813,-4614.718808,-6765.470715,3305.934764,-17493.16811,-3483.049987,0.022,0.958,0.014,192,0,0,0,0,0,0,0,0,0,1.71E+09,0, 2024-03-15 15:20:04.157
41,-14855.48346,-26444.70649,-6870.032176,-4584.901581,-6845.959347,3237.896054,-17495.13507,-3852.859599,0.022,0.958,0.014,192,0,0,0,0,0,0,0,0,0,1.71E+09,0, 2024-03-15 15:20:04.157
42,-14717.41673,-26594.93257,-6829.374353,-4610.76255,-6194.093072,3482.044158,-16985.26943,-2423.465541,0.022,0.958,0.014,192,0,0,0,0,0,0,0,0,0,1.71E+09,0, 2024-03-15 15:20:04.157
43,-13551.19211,-26746.94678,-6843.858283,-4652.783829,-5733.736543,3687.45669,-16684.66081,-1245.03687,0.022,0.958,0.014,192,0,0,0,0,0,0,0,0,0,1.71E+09,0, 2024-03-15 15:20:04.157
44,-12975.70175,-26698.17528,-6888.047682,-4651.442725,-6060.250826,3596.708607,-16985.42589,-1850.880903,0.022,0.958,0.014,192,0,0,0,0,0,0,0,0,0,1.71E+09,0, 2024-03-15 15:20:04.157
45,-13749.60855,-26513.72868,-6914.378037,-4622.363105,-6770.097526,3304.34779,-17501.99705,-3481.731234,0.022,0.958,0.014,192,0,0,0,0,0,0,0,0,0,1.71E+09,0, 2024-03-15 15:20:04.157
46,-14850.20844,-26445.71232,-6875.798926,-4596.055102,-6855.749411,3237.627833,-17506.378,-3854.983014,0.024,0.956,0.014,192,0,192,29,224,0,112,0,0,0,1.71E+09,0, 2024-03-15 15:20:04.157
47,-14727.05033,-26589.65756,-6838.091533,-4615.791692,-6211.23686,3479.943094,-17002.10029,-2429.701678,0.024,0.956,0.014,192,0,0,0,0,0,0,0,0,0,1.71E+09,0, 2024-03-15 15:20:04.157
48,-13549.98512,-26731.27821,-6843.902987,-4644.133704,-5741.179674,3694.206917,-16697.46836,-1240.231245,0.024,0.956,0.014,192,0,0,0,0,0,0,0,0,0,1.71E+09,0, 2024-03-15 15:20:04.157
49,-12951.51716,-26689.25693,-6889.05351,-4646.793562,-6053.38884,3609.94084,-16983.23542,-1826.428095,0.024,0.956,0.014,192,0,0,0,0,0,0,0,0,0,1.71E+09,0, 2024-03-15 15:20:04.157
50,-13734.72228,-26504.18448,-6914.690961,-4619.300916,-6765.314253,3315.411903,-17501.39356,-3459.692414,0.024,0.956,0.014,192,0,0,0,0,0,0,0,0,0,1.71E+09,0, 2024-03-15 15:20:04.157
51,-14858.21037,-26434.35764,-6872.669682,-4589.863669,-6858.632786,3245.316833,-17508.05438,-3843.181293,0.024,0.956,0.014,192,0,0,0,0,0,0,0,0,0,1.71E+09,0, 2024-03-15 15:20:04.157
52,-14742.6295,-26585.27661,-6836.77278,-4614.338829,-6220.579889,3478.087899,-17007.95645,-2449.885303,0.024,0.956,0.014,192,0,0,0,0,0,0,0,0,0,1.71E+09,0, 2024-03-15 15:20:04.157
53,-13560.28927,-26748.37729,-6851.301414,-4657.455344,-5749.338061,3684.014521,-16707.37019,-1241.773515,0.024,0.956,0.014,192,0,0,0,0,0,0,0,0,0,1.71E+09,0, 2024-03-15 15:20:04.157
54,-12960.63667,-26706.69129,-6890.729891,-4656.695385,-6052.986509,3601.760102,-16988.37632,-1795.940315,0.024,0.956,0.014,192,0,0,0,0,0,0,0,0,0,1.71E+09,0, 2024-03-15 15:20:04.157
55,-13735.12462,-26512.40993,-6911.762883,-4618.742123,-6764.710756,3312.215604,-17501.08063,-3424.689582,0.024,0.956,0.014,192,0,0,0,0,0,0,0,0,0,1.71E+09,0, 2024-03-15 15:20:04.158
56,-14845.24636,-26441.66666,-6873.29553,-4589.081358,-6866.567655,3238.36544,-17518.67146,-3836.162846,0.026,0.96,0.018,192,0,208,30,0,0,144,0,0,0,1.71E+09,0, 2024-03-15 15:20:04.158
57,-14735.6334,-26592.29506,-6838.158588,-4614.09296,-6224.82672,3472.119984,-17015.64545,-2441.503399,0.026,0.96,0.018,192,0,0,0,0,0,0,0,0,0,1.71E+09,0, 2024-03-15 15:20:04.158
58,-13574.28146,-26749.36077,-6854.765934,-4653.320271,-5752.757877,3682.181678,-16710.41002,-1229.524759,0.026,0.96,0.018,192,0,0,0,0,0,0,0,0,0,1.71E+09,0, 2024-03-15 15:20:04.158
59,-12973.8689,-26700.85748,-6889.634656,-4647.66528,-6052.762992,3607.817424,-16990.83501,-1781.814013,0.026,0.96,0.018,192,0,0,0,0,0,0,0,0,0,1.71E+09,0, 2024-03-15 15:20:04.158
60,-13726.63095,-26516.52265,-6910.779406,-4617.512777,-6753.668994,3320.150473,-17491.11175,-3399.923849,0.026,0.96,0.018,192,0,0,0,0,0,0,0,0,0,1.71E+09,0, 2024-03-15 15:20:04.158
61,-14847.92857,-26442.13604,-6872.177943,-4587.382625,-6862.27612,3242.656975,-17511.29538,-3832.564215,0.026,0.96,0.018,192,0,0,0,0,0,0,0,0,0,1.71E+09,0, 2024-03-15 15:20:04.158
62,-14754.54298,-26582.41559,-6833.799998,-4607.834471,-6225.765494,3479.160783,-17017.07596,-2448.164218,0.026,0.96,0.018,192,0,0,0,0,0,0,0,0,0,1.71E+09,0, 2024-03-15 15:20:04.158
63,-13575.4214,-26740.04009,-6845.48996,-4647.173541,-5738.229244,3695.324504,-16694.51793,-1216.001954,0.026,0.96,0.018,192,0,0,0,0,0,0,0,0,0,1.71E+09,0, 2024-03-15 15:20:04.158
64,-12954.26642,-26697.34826,-6884.985493,-4643.776076,-6030.992392,3620.133235,-16958.02265,-1769.520553,0.026,0.96,0.018,192,0,0,0,0,0,0,0,0,0,1.71E+09,0, 2024-03-15 15:20:04.158
65,-13708.12371,-26504.3186,-6905.258525,-4609.466149,-6740.101485,3332.779209,-17474.43735,-3405.95882,0.026,0.96,0.018,192,0,0,0,0,0,0,0,0,0,1.71E+09,0, 2024-03-15 15:20:04.158
66,-14838.22791,-26432.07776,-6868.400498,-4581.370006,-6855.928225,3252.469391,-17496.8785,-3834.061782,0.03,0.954,0.014,192,0,240,29,208,0,112,0,0,0,1.71E+09,0, 2024-03-15 15:20:04.158
67,-14756.21936,-26575.91123,-6833.44237,-4606.359256,-6225.832549,3483.698187,-17004.89426,-2449.102992,0.03,0.954,0.014,192,0,0,0,0,0,0,0,0,0,1.71E+09,0, 2024-03-15 15:20:04.158
68,-13576.69545,-26740.55418,-6852.575463,-4653.029698,-5745.270043,3692.128204,-16695.9708,-1216.940727,0.03,0.954,0.014,192,0,0,0,0,0,0,0,0,0,1.71E+09,0, 2024-03-15 15:20:04.158
69,-12950.55603,-26696.16362,-6889.209973,-4647.911149,-6035.95448,3616.802826,-16966.24809,-1748.286396,0.03,0.954,0.014,192,0,0,0,0,0,0,0,0,0,1.71E+09,0, 2024-03-15 15:20:04.158
70,-13700.50176,-26501.72579,-6904.252697,-4611.120178,-6737.531035,3330.342869,-17471.15165,-3382.131861,0.03,0.954,0.014,192,0,0,0,0,0,0,0,0,0,1.71E+09,0, 2024-03-15 15:20:04.158
71,-14825.93445,-26422.48886,-6862.365527,-4577.771375,-6853.625995,3250.569493,-17499.40425,-3835.715811,0.03,0.954,0.014,192,0,0,0,0,0,0,0,0,0,1.71E+09,0, 2024-03-15 15:20:04.158
72,-14735.32048,-26568.33399,-6822.087684,-4598.603201,-6217.249479,3484.36874,-16995.43947,-2449.617082,0.03,0.954,0.014,192,0,0,0,0,0,0,0,0,0,1.71E+09,0, 2024-03-15 15:20:04.158
73,-13573.20858,-26719.02945,-6829.910794,-4635.394172,-5728.483883,3701.515937,-16672.68028,-1207.284773,0.03,0.954,0.014,192,0,0,0,0,0,0,0,0,0,1.71E+09,0, 2024-03-15 15:20:04.158
74,-12954.69111,-26685.79241,-6880.33633,-4644.603091,-6022.699895,3622.74839,-16947.04794,-1734.003631,0.03,0.954,0.014,192,0,0,0,0,0,0,0,0,0,1.71E+09,0, 2024-03-15 15:20:04.638
75,-13698.87009,-26500.29528,-6907.136072,-4611.611916,-6737.486331,3326.431313,-17470.65991,-3378.488526,0.03,0.954,0.014,192,0,0,0,0,0,0,0,0,0,1.71E+09,0, 2024-03-15 15:20:04.638
76,-14815.09385,-26423.27117,-6866.433545,-4576.206753,-6855.503542,3246.56853,-17500.09716,-3833.927671,0.028,0.954,0.016,192,0,224,29,208,0,128,0,0,0,1.71E+09,0, 2024-03-15 15:20:04.638
77,-14734.76168,-26556.35346,-6820.098379,-4592.657637,-6220.646944,3488.950847,-17003.03906,-2456.657881,0.028,0.954,0.016,192,0,0,0,0,0,0,0,0,0,1.71E+09,0, 2024-03-15 15:20:04.638
78,-13570.70518,-26719.76706,-6838.963251,-4637.450533,-5742.02904,3700.063074,-16693.55681,-1209.877576,0.028,0.954,0.016,192,0,0,0,0,0,0,0,0,0,1.71E+09,0, 2024-03-15 15:20:04.638
79,-12936.85441,-26683.7584,-6883.845554,-4638.299899,-6036.759142,3618.52391,-16971.23253,-1739.837437,0.028,0.954,0.016,192,0,0,0,0,0,0,0,0,0,1.71E+09,0, 2024-03-15 15:20:04.638
80,-13672.00329,-26491.35458,-6899.692941,-4601.911259,-6732.367782,3329.113523,-17471.08459,-3381.550715,0.028,0.954,0.016,192,0,0,0,0,0,0,0,0,0,1.71E+09,0, 2024-03-15 15:20:04.638
81,-14805.75082,-26422.19829,-6865.315958,-4576.094994,-6857.336385,3244.400411,-17502.91348,-3844.120067,0.028,0.954,0.016,192,0,0,0,0,0,0,0,0,0,1.71E+09,0, 2024-03-15 15:20:04.638
82,-14748.88799,-26574.2572,-6836.63867,-4606.493367,-6243.892758,3465.950902,-17022.68625,-2479.389605,0.028,0.954,0.016,192,0,0,0,0,0,0,0,0,0,1.71E+09,0, 2024-03-15 15:20:04.638
83,-13584.85384,-26726.0479,-6843.4336,-4641.116219,-5750.969738,3687.032007,-16696.59665,-1233.682183,0.028,0.954,0.016,192,0,0,0,0,0,0,0,0,0,1.71E+09,0, 2024-03-15 15:20:04.638
84,-12943.47053,-26691.04507,-6886.259542,-4644.536036,-6032.735828,3613.539471,-16960.70486,-1737.714021,0.028,0.954,0.016,192,0,0,0,0,0,0,0,0,0,1.71E+09,0, 2024-03-15 15:20:04.638
85,-13678.4853,-26502.64221,-6907.828976,-4616.618707,-6737.620442,3319.614031,-17469.81054,-3375.493392,0.028,0.954,0.016,192,0,0,0,0,0,0,0,0,0,1.71E+09,0, 2024-03-15 15:20:04.638
86,-14815.98792,-26430.40138,-6874.658987,-4589.416634,-6872.870847,3229.469446,-17513.86583,-3853.753669,0.026,0.96,0.006,192,0,208,30,0,0,48,0,0,0,1.71E+09,0, 2024-03-15 15:20:04.638
87,-14751.70431,-26568.55751,-6832.213024,-4605.867518,-6243.065744,3468.141373,-17017.29948,-2483.03294,0.026,0.96,0.006,192,0,0,0,0,0,0,0,0,0,1.71E+09,0, 2024-03-15 15:20:04.638
88,-13599.38247,-26732.77578,-6847.65808,-4651.442725,-5750.634462,3681.868754,-16692.26041,-1224.830893,0.026,0.96,0.006,192,0,0,0,0,0,0,0,0,0,1.71E+09,0, 2024-03-15 15:20:04.638
89,-12960.70373,-26698.08587,-6889.902877,-4656.740088,-6033.831064,3606.185747,-16957.53091,-1733.802466,0.026,0.96,0.006,192,0,0,0,0,0,0,0,0,0,1.71E+09,0, 2024-03-15 15:20:04.638
90,-13678.41824,-26516.45559,-6913.886298,-4627.928689,-6737.97807,3313.802578,-17468.42473,-3362.752898,0.026,0.96,0.006,192,0,0,0,0,0,0,0,0,0,1.71E+09,0, 2024-03-15 15:20:04.638
91,-14816.72553,-26443.36539,-6885.454879,-4603.319419,-6878.883467,3219.679382,-17516.43628,-3855.541808,0.026,0.96,0.006,192,0,0,0,0,0,0,0,0,0,1.71E+09,0, 2024-03-15 15:20:04.638
92,-14765.80826,-26579.73338,-6845.288795,-4625.939384,-6256.812067,3453.322167,-17030.19643,-2498.880327,0.026,0.96,0.006,192,0,0,0,0,0,0,0,0,0,1.71E+09,0, 2024-03-15 15:20:04.638
93,-13595.53797,-26733.82631,-6850.072068,-4656.918902,-5749.628633,3680.92998,-16687.45478,-1215.867843,0.026,0.96,0.006,192,0,0,0,0,0,0,0,0,0,1.71E+09,0, 2024-03-15 15:20:04.638
94,-12934.64159,-26699.71755,-6893.4121,-4656.673033,-6022.878709,3610.499634,-16945.79624,-1705.661619,0.026,0.96,0.006,192,0,0,0,0,0,0,0,0,0,1.71E+09,0, 2024-03-15 15:20:04.638
95,-13655.70887,-26502.95514,-6908.588935,-4617.803349,-6727.316287,3324.173787,-17461.56275,-3348.134857,0.026,0.96,0.006,192,0,0,0,0,0,0,0,0,0,1.71E+09,0, 2024-03-15 15:20:04.638
96,-14801.81692,-26421.43833,-6866.925283,-4581.101785,-6865.159495,3239.572434,-17502.08646,-3836.051087,0.03,0.958,0.01,192,0,240,29,240,0,80,0,0,0,1.71E+09,0, 2024-03-15 15:20:04.638
97,-14759.10273,-26559.59446,-6826.535681,-4602.984143,-6244.697421,3469.437774,-17012.98559,-2480.35073,0.03,0.958,0.01,192,0,0,0,0,0,0,0,0,0,1.71E+09,0, 2024-03-15 15:20:04.638
98,-13593.07928,-26727.2996,-6843.411248,-4652.828533,-5747.706383,3680.170021,-16686.94069,-1214.996125,0.03,0.958,0.01,192,0,0,0,0,0,0,0,0,0,1.71E+09,0, 2024-03-15 15:20:04.638
99,-12928.74073,-26697.72824,-6885.879563,-4655.287225,-6019.68241,3608.331514,-16944.38808,-1698.531413,0.03,0.958,0.01,192,0,0,0,0,0,0,0,0,0,1.71E+09,0, 2024-03-15 15:20:04.638
100,-13641.04612,-26509.5042,-6908.052493,-4622.832492,-6728.076247,3318.228223,-17464.20025,-3332.28747,0.03,0.958,0.01,192,0,0,0,0,0,0,0,0,0,1.71E+09,0, 2024-03-15 15:20:04.638
101,-14789.72462,-26431.18369,-6876.938865,-4594.669294,-6880.001054,3220.908728,-17523.96882,-3851.697308,0.03,0.958,0.01,192,0,0,0,0,0,0,0,0,0,1.71E+09,0, 2024-03-15 15:20:04.638
102,-14750.00557,-26571.84322,-6832.727114,-4613.131835,-6252.676994,3452.71867,-17022.26156,-2505.317629,0.03,0.958,0.01,192,0,0,0,0,0,0,0,0,0,1.71E+09,0, 2024-03-15 15:20:04.638
103,-13597.03554,-26738.09549,-6848.730963,-4657.298882,-5756.803543,3670.961102,-16696.32842,-1227.289585,0.03,0.958,0.01,192,0,0,0,0,0,0,0,0,0,1.71E+09,0, 2024-03-15 15:20:04.638
104,-12928.40546,-26698.64466,-6885.857211,-4651.420373,-6020.487073,3613.137139,-16947.07029,-1688.026093,0.03,0.958,0.01,192,0,0,0,0,0,0,0,0,0,1.71E+09,0, 2024-03-15 15:20:04.638
105,-13631.1443,-26509.79477,-6907.001961,-4617.512777,-6726.869253,3324.777284,-17460.9369,-3311.813272,0.03,0.958,0.01,192,0,0,0,0,0,0,0,0,0,1.71E+09,0, 2024-03-15 15:20:04.638
106,-14775.3748,-26429.61907,-6871.082708,-4589.550744,-6875.865981,3226.675478,-17515.72102,-3845.371764,0.026,0.96,0.012,192,0,208,30,0,0,96,0,0,0,1.71E+09,0, 2024-03-15 15:20:04.638
107,-14748.4633,-26558.92391,-6825.351039,-4604.884041,-6254.28632,3460.653539,-17022.35097,-2500.534356,0.026,0.96,0.012,192,0,0,0,0,0,0,0,0,0,1.71E+09,0, 2024-03-15 15:20:04.638
108,-13586.82079,-26722.04694,-6837.823312,-4645.944196,-5751.372069,3683.411024,-16684.41495,-1192.443215,0.026,0.96,0.012,192,0,0,0,0,0,0,0,0,0,1.71E+09,0, 2024-03-15 15:20:04.638
109,-12909.36177,-26688.2511,-6876.044795,-4643.731373,-6010.138215,3618.836834,-16931.02174,-1648.195284,0.026,0.96,0.012,192,0,0,0,0,0,0,0,0,0,1.71E+09,0, 2024-03-15 15:20:04.638
110,-13605.70802,-26506.08438,-6905.213822,-4615.568175,-6720.096674,3321.379819,-17455.12545,-3293.708359,0.026,0.96,0.012,192,0,0,0,0,0,0,0,0,0,1.71E+09,0, 2024-03-15 15:20:04.638
111,-14767.32817,-26423.36058,-6868.445202,-4584.208677,-6877.3859,3222.115722,-17509.10491,-3836.766343,0.026,0.96,0.012,192,0,0,0,0,0,0,0,0,0,1.71E+09,0, 2024-03-15 15:20:04.638
112,-14750.83259,-26552.46425,-6820.321896,-4595.049273,-6259.315462,3456.116135,-17022.21686,-2500.914335,0.026,0.96,0.012,192,0,0,0,0,0,0,0,0,0,1.71E+09,0, 2024-03-15 15:20:04.638
113,-13590.33002,-26710.31227,-6823.406437,-4628.57689,-5741.537302,3689.133071,-16680.36928,-1194.566631,0.026,0.96,0.012,192,0,0,0,0,0,0,0,0,0,1.71E+09,0, 2024-03-15 15:20:04.638
114,-12905.02553,-26683.7137,-6862.767859,-4630.588547,-5992.480337,3635.108904,-16917.67775,-1630.537406,0.026,0.96,0.012,192,0,0,0,0,0,0,0,0,0,1.71E+09,0, 2024-03-15 15:20:04.638
115,-13602.95875,-26502.39635,-6892.495679,-4606.716884,-6707.11031,3336.37784,-17444.19544,-3284.946476,0.026,0.96,0.012,192,0,0,0,0,0,0,0,0,0,1.71E+09,0, 2024-03-15 15:20:04.638
116,-14759.9521,-26420.65602,-6859.70567,-4578.061948,-6867.864057,3234.811513,-17512.41297,-3838.710944,0.03,0.958,0.01,192,0,240,29,240,0,80,0,0,0,1.71E+09,0, 2024-03-15 15:20:04.638
117,-14749.17856,-26561.18143,-6819.450178,-4599.519622,-6250.084192,3458.99951,-17020.96516,-2494.387626,0.03,0.958,0.01,192,0,0,0,0,0,0,0,0,0,1.71E+09,0, 2024-03-15 15:20:04.638
118,-13607.16088,-26721.93518,-6824.546376,-4638.501065,-5733.133046,3678.158364,-16670.04277,-1195.527756,0.03,0.958,0.01,192,0,0,0,0,0,0,0,0,0,1.71E+09,0, 2024-03-15 15:20:04.638
119,-12917.81073,-26696.74476,-6865.271254,-4641.160922,-5982.131479,3621.049657,-16909.9664,-1628.27988,0.03,0.958,0.01,192,0,0,0,0,0,0,0,0,0,1.71E+09,0, 2024-03-15 15:20:04.638
120,-13604.9257,-26519.36132,-6901.34697,-4623.301878,-6697.387302,3322.117427,-17433.44425,-3279.87263,0.03,0.958,0.01,192,0,0,0,0,0,0,0,0,0,1.71E+09,0, 2024-03-15 15:20:04.638
121,-14754.2077,-26426.60158,-6865.025385,-4588.455509,-6863.572522,3225.088504,-17503.06994,-3856.301767,0.03,0.958,0.01,192,0,0,0,0,0,0,0,0,0,1.71E+09,0, 2024-03-15 15:20:04.638
122,-14751.41373,-26561.51671,-6823.987582,-4606.560422,-6250.464171,3453.813905,-17017.32183,-2517.834606,0.03,0.958,0.01,192,0,0,0,0,0,0,0,0,0,1.71E+09,0, 2024-03-15 15:20:04.638
123,-13614.82753,-26719.72236,-6828.301469,-4643.485504,-5734.116523,3678.225419,-16666.5559,-1194.566631,0.03,0.958,0.01,192,0,0,0,0,0,0,0,0,0,1.71E+09,0, 2024-03-15 15:20:04.638
124,-12919.15183,-26686.3512,-6862.209065,-4640.937405,-5976.342377,3623.061314,-16902.63503,-1606.688095,0.03,0.958,0.01,192,0,0,0,0,0,0,0,0,0,1.71E+09,0, 2024-03-15 15:20:04.638
125,-13588.76539,-26496.96487,-6889.768766,-4614.316477,-6686.904333,3330.968717,-17434.49479,-3265.791031,0.03,0.958,0.01,192,0,0,0,0,0,0,0,0,0,1.71E+09,0, 2024-03-15 15:20:04.638
126,-14745.08819,-26404.69687,-6852.284891,-4578.576038,-6856.37526,3231.972841,-17501.21474,-3852.501971,0.032,0.956,0.014,192,1,0,29,224,0,112,0,0,0,1.71E+09,0, 2024-03-15 15:20:04.638
127,-14761.8967,-26536.08042,-6812.051751,-4593.037616,-6252.721697,3458.23955,-17021.12162,-2500.243783,0.032,0.956,0.014,192,0,0,0,0,0,0,0,0,0,1.71E+09,0, 2024-03-15 15:20:04.638
128,-13615.1181,-26694.21902,-6820.277193,-4629.269794,-5733.82595,3685.445033,-16676.32361,-1171.343168,0.032,0.956,0.014,192,0,0,0,0,0,0,0,0,0,1.71E+09,0, 2024-03-15 15:20:04.638
129,-12909.00414,-26671.24142,-6864.712461,-4634.410695,-5978.309331,3627.486959,-16913.07329,-1601.413083,0.032,0.956,0.014,192,0,0,0,0,0,0,0,0,0,1.71E+09,0, 2024-03-15 15:20:04.638
130,-13570.16874,-26485.94546,-6891.288685,-4605.666352,-6686.099671,3334.07561,-17429.84562,-3282.219563,0.032,0.956,0.014,192,0,0,0,0,0,0,0,0,0,1.71E+09,0, 2024-03-15 15:20:04.638
131,-14732.34769,-26397.23139,-6856.218798,-4571.199962,-6862.231417,3234.498588,-17501.25945,-3867.947026,0.032,0.956,0.014,192,0,0,0,0,0,0,0,0,0,1.71E+09,0, 2024-03-15 15:20:04.638
132,-14750.45261,-26528.30202,-6809.324838,-4580.855916,-6253.39225,3472.522315,-17021.12162,-2469.756004,0.032,0.956,0.014,192,0,0,0,0,0,0,0,0,0,1.71E+09,0, 2024-03-15 15:20:04.638
133,-13612.70411,-26701.32687,-6826.558033,-4634.72362,-5738.363354,3692.038797,-16674.40136,-1145.683366,0.032,0.956,0.014,192,0,0,0,0,0,0,0,0,0,1.71E+09,0, 2024-03-15 15:20:04.638
134,-12907.03719,-26670.66028,-6862.969025,-4637.405829,-5973.928389,3638.215797,-16905.42899,-1570.925304,0.032,0.956,0.014,192,0,0,0,0,0,0,0,0,0,1.71E+09,0, 2024-03-15 15:20:04.638
135,-13558.65759,-26476.46832,-6882.012711,-4603.475881,-6672.621569,3351.509971,-17420.16732,-3219.835844,0.032,0.956,0.014,192,0,0,0,0,0,0,0,0,0,1.71E+09,0, 2024-03-15 15:20:04.638
136,-14716.58972,-26385.60848,-6849.423867,-4574.083337,-6856.978757,3244.13219,-17495.5374,-3818.437912,0.022,0.958,0.014,192,0,176,29,240,0,112,0,0,0,1.71E+09,0, 2024-03-15 15:20:04.638
137,-14746.13872,-26522.06588,-6815.829195,-4604.302896,-6263.204666,3459.379489,-17027.06719,-2512.917222,0.022,0.958,0.014,192,0,0,0,0,0,0,0,0,0,1.71E+09,0, 2024-03-15 15:20:04.638
138,-13612.97233,-26684.04897,-6823.115864,-4650.503951,-5735.23411,3688.708387,-16673.5967,-1167.677482,0.022,0.958,0.014,192,0,0,0,0,0,0,0,0,0,1.71E+09,0, 2024-03-15 15:20:04.638
139,-12900.01874,-26652.89064,-6857.895179,-4655.35428,-5962.126668,3642.842608,-16891.4368,-1549.869961,0.022,0.958,0.014,192,0,0,0,0,0,0,0,0,0,1.71E+09,0, 2024-03-15 15:20:04.638
140,-13542.96667,-26461.13503,-6881.185696,-4622.832492,-6665.379604,3365.502163,-17404.31993,-3163.442393,0.022,0.958,0.014,192,0,0,0,0,0,0,0,0,0,1.71E+09,0, 2024-03-15 15:20:04.638
141,-14708.38662,-26366.81066,-6849.669737,-4596.882116,-6857.984586,3259.51019,-17487.04374,-3778.987083,0.022,0.958,0.014,192,0,0,0,0,0,0,0,0,0,1.71E+09,0, 2024-03-15 15:20:04.638
142,-14743.43416,-26497.54602,-6808.698989,-4621.625498,-6257.639081,3480.121908,-17009.72223,-2491.973638,0.022,0.958,0.014,192,0,0,0,0,0,0,0,0,0,1.71E+09,0, 2024-03-15 15:20:04.638
143,-13600.85769,-26665.31821,-6816.030361,-4668.720623,-5722.29245,3710.478987,-16651.11085,-1164.212962,0.022,0.958,0.014,192,0,0,0,0,0,0,0,0,0,1.71E+09,0, 2024-03-15 15:20:04.638
144,-12863.25012,-26644.86636,-6858.722193,-4679.538867,-5944.424086,3656.946559,-16877.2658,-1540.750449,0.022,0.958,0.014,192,0,0,0,0,0,0,0,0,0,1.71E+09,0, 2024-03-15 15:20:04.638
145,-13493.01052,-26465.69478,-6889.455842,-4658.528228,-6652.840275,3362.283511,-17395.6251,-3171.466669,0.022,0.958,0.014,192,0,0,0,0,0,0,0,0,0,1.71E+09,0, 2024-03-15 15:20:04.638
