Sample Index, EXG Channel 0, EXG Channel 1, EXG Channel 2, EXG Channel 3, EXG Channel 4, EXG Channel 5, EXG Channel 6, EXG Channel 7, Accel Channel 0, Accel Channel 1, Accel Channel 2, Other, Other.1, Other.2, Other.3, Other.4, Other.5, Other.6, Analog Channel 0, Analog Channel 1, Analog Channel 2, Timestamp, Other.7, Timestamp (Formatted)
0,-99746.26896,-31717.55007,-12278.46143,-29105.03347,283.9342098,-27980.02547,-32058.43652,-71237.11064,0.034,0.85,0.474,192,1,16,26,144,14,208,0,0,0,1709549512,0, 2024-03-04 16:21:52.494
1,-99732.61204,-31702.84262,-12269.61014,-29084.02283,67.27875081,-27966.05563,-32069.7465,-71156.75612,0.034,0.85,0.474,192,0,0,0,0,0,0,0,0,0,1709549512,0, 2024-03-04 16:21:52.494
2,-99772.33109,-31729.66471,-12293.50415,-29099.44553,-232.8828255,-27981.23246,-32077.50256,-71165.98739,0.034,0.85,0.474,192,0,0,0,0,0,0,0,0,0,1709549512,0, 2024-03-04 16:21:52.494
3,-99782.16586,-31730.7823,-12286.55276,-29097.32212,-183.3737115,-27972.06825,-32062.03515,-71167.14968,0.034,0.85,0.474,192,0,0,0,0,0,0,0,0,0,1709549512,0, 2024-03-04 16:21:52.494
4,-99756.61782,-31715.13608,-12265.83269,-29090.50484,166.2969787,-27962.34524,-32041.38214,-71191.51308,0.034,0.85,0.474,192,0,0,0,0,0,0,0,0,0,1709549512,0, 2024-03-04 16:21:52.494
5,-99726.44296,-31701.61327,-12260.35652,-29091.22009,312.1197596,-27970.61538,-32057.69891,-71242.74328,0.034,0.85,0.474,192,0,0,0,0,0,0,0,0,0,1709549512,0, 2024-03-04 16:21:52.494
6,-99721.45852,-31703.42376,-12269.36427,-29095.91396,89.85401271,-27985.21107,-32086.13033,-71253.38271,0.034,0.85,0.474,192,0,0,0,0,0,0,0,0,0,1709549512,0, 2024-03-04 16:21:52.494
7,-99749.15233,-31720.61225,-12282.37299,-29098.75263,-212.632145,-27987.33449,-32083.62694,-71200.78906,0.034,0.85,0.474,192,0,0,0,0,0,0,0,0,0,1709549512,0, 2024-03-04 16:21:52.494
8,-99769.2689,-31735.69968,-12286.32924,-29107.49216,-179.6409702,-27989.94964,-32067.35487,-71231.41095,0.034,0.85,0.474,192,0,0,0,0,0,0,0,0,0,1709549512,0, 2024-03-04 16:21:52.494
9,-99755.25436,-31728.52477,-12276.00274,-29107.73803,157.1104118,-27984.2276,-32057.74362,-71268.17957,0.034,0.85,0.474,192,0,0,0,0,0,0,0,0,0,1709549512,0, 2024-03-04 16:21:52.494
10,-99723.51488,-31706.59771,-12259.68596,-29091.60007,323.6085562,-27967.86612,-32058.36946,-71249.18059,0.036,0.842,0.476,192,1,32,26,80,14,224,0,0,0,1709549512,0, 2024-03-04 16:21:52.494
11,-99724.74423,-31708.22939,-12270.95124,-29091.24244,83.39435856,-27975.68923,-32089.70661,-71258.97065,0.036,0.842,0.476,192,0,0,0,0,0,0,0,0,0,1709549512,0, 2024-03-04 16:21:52.494
12,-99755.47788,-31727.09426,-12288.3856,-29096.33864,-221.0811044,-27978.14792,-32087.24792,-71230.33806,0.036,0.842,0.476,192,0,0,0,0,0,0,0,0,0,1709549512,0, 2024-03-04 16:21:52.494
13,-99768.73246,-31735.54322,-12285.23401,-29096.42805,-177.2269818,-27968.87195,-32062.50454,-71217.15054,0.036,0.842,0.476,192,0,0,0,0,0,0,0,0,0,1709549512,0, 2024-03-04 16:21:52.494
14,-99759.94823,-31730.08939,-12278.28262,-29100.45136,150.5613507,-27965.07215,-32063.71153,-71230.06984,0.036,0.842,0.476,192,0,0,0,0,0,0,0,0,0,1709549512,0, 2024-03-04 16:21:52.494
15,-99733.64022,-31720.94753,-12270.81713,-29098.66322,307.1353206,-27964.84863,-32071.28877,-71266.34672,0.036,0.842,0.476,192,0,0,0,0,0,0,0,0,0,1709549512,0, 2024-03-04 16:21:52.494
16,-99737.52943,-31726.78134,-12282.21652,-29101.21132,82.76850972,-27972.18001,-32094.24401,-71261.4964,0.036,0.842,0.476,192,0,0,0,0,0,0,0,0,0,1709549512,0, 2024-03-04 16:21:52.494
17,-99766.13966,-31738.73952,-12297.2369,-29101.34543,-235.4309243,-27964.11103,-32099.74254,-71160.95825,0.036,0.842,0.476,192,0,0,0,0,0,0,0,0,0,1709549512,0, 2024-03-04 16:21:52.494
18,-99784.35633,-31748.32842,-12298.60035,-29105.86048,-208.5641275,-27957.15963,-32067.98071,-71146.47432,0.036,0.842,0.476,192,0,0,0,0,0,0,0,0,0,1709549512,0, 2024-03-04 16:21:52.494
19,-99768.88892,-31743.14281,-12291.91718,-29110.73316,131.4506091,-27956.22086,-32050.63576,-71186.79687,0.036,0.842,0.476,192,0,0,0,0,0,0,0,0,0,1709549512,0, 2024-03-04 16:21:52.494
20,-99739.49638,-31727.18367,-12282.39534,-29108.87797,286.7952331,-27961.74174,-32074.32861,-71241.58099,0.04,0.85,0.47,192,1,64,26,144,14,176,0,0,0,1709549512,0, 2024-03-04 16:21:52.494
21,-99740.12223,-31724.88144,-12287.0892,-29102.30656,76.35355906,-27961.45117,-32090.57833,-71193.5918,0.04,0.85,0.47,192,0,0,0,0,0,0,0,0,0,1709549512,0, 2024-03-04 16:21:52.494
22,-99773.20281,-31738.24778,-12303.20481,-29109.36971,-237.5766918,-27968.22375,-32078.039,-71170.86007,0.04,0.85,0.47,192,0,0,0,0,0,0,0,0,0,1709549512,0, 2024-03-04 16:21:52.494
23,-99796.94036,-31750.25067,-12307.45164,-29119.31623,-202.9314879,-27969.72131,-32056.49192,-71169.54132,0.04,0.85,0.47,192,0,0,0,0,0,0,0,0,0,1709549512,0, 2024-03-04 16:21:52.494
24,-99781.20473,-31749.55776,-12299.8297,-29124.68065,132.948176,-27971.95649,-32045.47251,-71208.3663,0.04,0.85,0.47,192,0,0,0,0,0,0,0,0,0,1709549512,0, 2024-03-04 16:21:52.494
25,-99751.47691,-31733.64332,-12291.64896,-29123.51836,295.5571169,-27977.07504,-32063.44331,-71216.59174,0.04,0.85,0.47,192,0,0,0,0,0,0,0,0,0,1709549512,0, 2024-03-04 16:21:52.494
26,-99741.55274,-31724.16618,-12284.78697,-29115.73996,88.55761153,-27982.01477,-32082.71051,-71172.78232,0.04,0.85,0.47,192,0,0,0,0,0,0,0,0,0,1709549512,0, 2024-03-04 16:21:52.494
27,-99761.35638,-31733.26334,-12286.86569,-29114.08593,-211.0451711,-27984.47347,-32071.55699,-71173.96696,0.04,0.85,0.47,192,0,0,0,0,0,0,0,0,0,1709549512,0, 2024-03-04 16:21:52.494
28,-99785.80919,-31749.17778,-12295.44876,-29128.41339,-185.9218104,-27995.55993,-32058.1683,-71229.51105,0.04,0.85,0.47,192,0,0,0,0,0,0,0,0,0,1709549512,0, 2024-03-04 16:21:52.494
29,-99769.00068,-31738.96304,-12284.58581,-29129.82155,144.1464,-27993.70474,-32057.07306,-71255.28261,0.04,0.85,0.47,192,0,0,0,0,0,0,0,0,0,1709549512,0, 2024-03-04 16:21:52.494
30,-99733.19319,-31716.03015,-12267.71024,-29116.87989,314.7572654,-27984.29465,-32065.18675,-71236.5742,0.036,0.856,0.466,192,1,32,26,192,14,144,0,0,0,1709549512,0, 2024-03-04 16:21:52.494
31,-99723.42547,-31707.08945,-12268.02317,-29107.291,105.5896408,-27983.51234,-32076.49673,-71226.06888,0.036,0.856,0.466,192,0,0,0,0,0,0,0,0,0,1709549512,0, 2024-03-04 16:21:52.494
32,-99746.04544,-31716.0525,-12279.10963,-29107.02278,-202.2162321,-27981.16541,-32085.92917,-71215.25064,0.036,0.856,0.466,192,0,0,0,0,0,0,0,0,0,1709549512,0, 2024-03-04 16:21:52.494
33,-99763.05512,-31725.37318,-12282.30593,-29113.41537,-188.581668,-27980.40545,-32070.57352,-71251.72868,0.036,0.856,0.466,192,0,0,0,0,0,0,0,0,0,1709549512,0, 2024-03-04 16:21:52.494
34,-99756.88604,-31725.55199,-12277.96969,-29118.1763,131.4506091,-27979.31021,-32062.32572,-71273.0299,0.036,0.856,0.466,192,0,0,0,0,0,0,0,0,0,1709549512,0, 2024-03-04 16:21:52.494
35,-99726.39826,-31706.37419,-12260.02124,-29104.11705,313.5055677,-27967.75436,-32062.6163,-71259.19417,0.036,0.856,0.466,192,0,0,0,0,0,0,0,0,0,1709549512,0, 2024-03-04 16:21:52.494
36,-99717.18934,-31701.07683,-12260.69179,-29096.89743,110.2164519,-27968.33551,-32086.01857,-71267.75488,0.036,0.856,0.466,192,0,0,0,0,0,0,0,0,0,1709549512,0, 2024-03-04 16:21:52.494
37,-99749.10763,-31722.46745,-12277.94734,-29104.0947,-218.2871364,-27974.10226,-32092.65704,-71243.03386,0.036,0.856,0.466,192,0,0,0,0,0,0,0,0,0,1709549512,0, 2024-03-04 16:21:52.494
38,-99777.89668,-31741.17586,-12288.60912,-29116.85754,-221.1928631,-27976.40449,-32075.91558,-71246.07369,0.036,0.856,0.466,192,0,0,0,0,0,0,0,0,0,1709549512,0, 2024-03-04 16:21:52.494
39,-99766.0279,-31731.4305,-12281.09894,-29116.41051,108.7859403,-27966.74853,-32064.51619,-71241.08925,0.036,0.856,0.466,192,0,0,0,0,0,0,0,0,0,1709549512,0, 2024-03-04 16:21:52.494
40,-99737.93176,-31717.41595,-12270.32539,-29112.83423,296.1829658,-27964.11103,-32072.2946,-71209.6627,0.042,0.852,0.472,192,1,80,26,160,14,192,0,0,0,1709549512,0, 2024-03-04 16:21:52.494
41,-99731.60621,-31711.85037,-12274.79574,-29109.86145,92.13389064,-27969.65426,-32103.6094,-71227.74526,0.042,0.852,0.472,192,0,0,0,0,0,0,0,0,0,1709549512,0, 2024-03-04 16:21:52.494
42,-99760.57407,-31727.34013,-12289.05616,-29117.32693,-237.1520087,-27978.50555,-32103.22942,-71243.74911,0.042,0.852,0.472,192,0,0,0,0,0,0,0,0,0,1709549512,0, 2024-03-04 16:21:52.494
43,-99785.31745,-31742.44991,-12292.94536,-29127.02759,-238.4037064,-27981.00894,-32077.90489,-71246.99011,0.042,0.852,0.472,192,0,0,0,0,0,0,0,0,0,1709549512,0, 2024-03-04 16:21:52.494
44,-99772.39815,-31733.30805,-12283.87055,-29125.41826,94.61493428,-27970.59303,-32059.68822,-71250.7005,0.042,0.852,0.472,192,0,0,0,0,0,0,0,0,0,1709549512,0, 2024-03-04 16:21:52.494
45,-99746.13485,-31718.10886,-12276.42742,-29118.71274,275.172326,-27963.88751,-32079.71538,-71233.46731,0.042,0.852,0.472,192,0,0,0,0,0,0,0,0,0,1709549512,0, 2024-03-04 16:21:52.494
46,-99740.3681,-31714.30906,-12278.17086,-29114.82353,75.39243405,-27968.44726,-32096.03215,-71222.24673,0.042,0.852,0.472,192,0,0,0,0,0,0,0,0,0,1709549512,0, 2024-03-04 16:21:52.494
47,-99769.60418,-31730.51408,-12288.58677,-29119.53975,-241.8905785,-27974.12461,-32089.30428,-71184.22642,0.042,0.852,0.472,192,0,0,0,0,0,0,0,0,0,1709549512,0, 2024-03-04 16:21:52.494
48,-99789.45253,-31739.36537,-12293.99589,-29126.20057,-253.2229129,-27974.92927,-32065.29851,-71182.1477,0.042,0.852,0.472,192,0,0,0,0,0,0,0,0,0,1709549512,0, 2024-03-04 16:21:52.494
49,-99780.46713,-31730.1788,-12288.22914,-29128.59221,69.82684968,-27972.15765,-32049.8758,-71193.81531,0.042,0.852,0.472,192,0,0,0,0,0,0,0,0,0,1709549512,0, 2024-03-04 16:21:52.494
50,-99752.52745,-31714.08554,-12279.57902,-29127.36286,258.9226078,-27976.22567,-32067.08665,-71209.59565,0.034,0.858,0.474,192,1,16,26,208,14,208,0,0,0,1709549512,0, 2024-03-04 16:21:52.494
51,-99746.1125,-31714.04084,-12289.41378,-29131.18501,66.45173627,-27993.41416,-32094.80281,-71241.53629,0.034,0.858,0.474,192,0,0,0,0,0,0,0,0,0,1709549512,0, 2024-03-04 16:21:52.494
52,-99774.87919,-31731.85518,-12305.43999,-29140.28217,-258.028538,-28008.09926,-32097.79794,-71266.90552,0.034,0.858,0.474,192,0,0,0,0,0,0,0,0,0,1709549512,0, 2024-03-04 16:21:52.494
53,-99795.82277,-31741.0194,-12306.2223,-29139.67867,-267.036291,-27999.78441,-32065.76789,-71217.9552,0.034,0.858,0.474,192,0,0,0,0,0,0,0,0,0,1709549512,0, 2024-03-04 16:21:52.494
54,-99779.21543,-31728.41301,-12289.5926,-29129.12865,61.04261411,-27978.66201,-32047.10419,-71193.86002,0.034,0.858,0.474,192,0,0,0,0,0,0,0,0,0,1709549512,0, 2024-03-04 16:21:52.494
55,-99746.82775,-31708.60937,-12277.05327,-29120.05384,247.0538315,-27975.48806,-32059.86703,-71250.14171,0.034,0.858,0.474,192,0,0,0,0,0,0,0,0,0,1709549512,0, 2024-03-04 16:21:52.494
56,-99750.02405,-31714.30906,-12291.87248,-29127.09464,58.80743966,-27993.57063,-32086.3315,-71310.84905,0.034,0.858,0.474,192,0,0,0,0,0,0,0,0,0,1709549512,0, 2024-03-04 16:21:52.494
57,-99777.89668,-31726.62487,-12303.45068,-29128.05577,-264.5775991,-27994.01766,-32102.60357,-71303.98706,0.034,0.858,0.474,192,0,0,0,0,0,0,0,0,0,1709549512,0, 2024-03-04 16:21:52.494
58,-99800.06961,-31735.69968,-12300.07557,-29125.23945,-276.7592998,-27978.10322,-32082.37524,-71255.70729,0.034,0.858,0.474,192,0,0,0,0,0,0,0,0,0,1709549512,0, 2024-03-04 16:21:52.494
59,-99791.73241,-31730.2235,-12288.85499,-29120.94791,50.380832,-27961.56293,-32061.9681,-71212.52372,0.034,0.858,0.474,192,0,0,0,0,0,0,0,0,0,1709549512,0, 2024-03-04 16:21:52.494
60,-99757.55659,-31710.93395,-12274.61693,-29109.90615,242.5834826,-27951.63875,-32075.89323,-71243.52559,0.036,0.858,0.472,192,1,32,26,208,14,192,0,0,0,1709549512,0, 2024-03-04 16:21:52.494
61,-99754.02501,-31708.18468,-12283.11059,-29112.05192,69.98331189,-27963.08285,-32092.70174,-71303.51768,0.036,0.858,0.472,192,0,0,0,0,0,0,0,0,0,1709549512,0, 2024-03-04 16:21:52.494
62,-99779.26013,-31718.95823,-12291.64896,-29107.40275,-241.8682268,-27955.19268,-32079.62597,-71207.7628,0.036,0.858,0.472,192,0,0,0,0,0,0,0,0,0,1709549512,0, 2024-03-04 16:21:52.494
63,-99798.125,-31734.35858,-12295.82874,-29112.83423,-273.6300556,-27952.44342,-32069.25476,-71201.52667,0.036,0.858,0.472,192,0,0,0,0,0,0,0,0,0,1709549512,0, 2024-03-04 16:21:52.494
64,-99788.17848,-31728.8377,-12287.06685,-29111.02374,44.25645402,-27940.01585,-32057.20717,-71171.15065,0.036,0.858,0.472,192,0,0,0,0,0,0,0,0,0,1709549512,0, 2024-03-04 16:21:52.494
65,-99753.71209,-31705.8601,-12269.65484,-29098.88674,246.1150582,-27929.82345,-32061.3646,-71179.80077,0.036,0.858,0.472,192,0,0,0,0,0,0,0,0,0,1709549512,0, 2024-03-04 16:21:52.494
66,-99753.86855,-31710.9116,-12283.2447,-29109.8838,77.67231198,-27954.74564,-32089.88542,-71253.62858,0.036,0.858,0.472,192,0,0,0,0,0,0,0,0,0,1709549512,0, 2024-03-04 16:21:52.494
67,-99791.6877,-31735.40911,-12308.36806,-29126.13352,-259.9060845,-27972.7388,-32099.98841,-71229.37694,0.036,0.858,0.472,192,0,0,0,0,0,0,0,0,0,1709549512,0, 2024-03-04 16:21:52.494
68,-99809.18912,-31742.53932,-12304.88119,-29125.46296,-288.0692825,-27964.3569,-32074.28391,-71185.85809,0.036,0.858,0.472,192,0,0,0,0,0,0,0,0,0,1709549512,0, 2024-03-04 16:21:52.494
69,-99787.59733,-31724.4344,-12284.04937,-29116.67873,34.89107309,-27952.17519,-32053.89912,-71214.22246,0.036,0.858,0.472,192,0,0,0,0,0,0,0,0,0,1709549512,0, 2024-03-04 16:21:52.494
70,-99760.08234,-31706.03892,-12273.14171,-29107.87214,243.3881454,-27944.28503,-32063.97975,-71178.92905,0.038,0.85,0.47,192,1,48,26,144,14,176,0,0,0,1709549512,0, 2024-03-04 16:21:52.494
71,-99749.08528,-31701.14388,-12276.27096,-29106.15106,74.5654195,-27954.8127,-32080.09536,-71188.24973,0.038,0.85,0.47,192,0,0,0,0,0,0,0,0,0,1709549512,0, 2024-03-04 16:21:52.494
72,-99768.95598,-31712.11859,-12284.56346,-29108.47564,-241.5105988,-27961.58528,-32074.39567,-71171.88825,0.038,0.85,0.47,192,0,0,0,0,0,0,0,0,0,1709549512,0, 2024-03-04 16:21:52.494
73,-99788.96079,-31722.26628,-12288.45266,-29111.67194,-271.3278259,-27957.85254,-32058.74944,-71151.9505,0.038,0.85,0.47,192,0,0,0,0,0,0,0,0,0,1709549512,0, 2024-03-04 16:21:52.494
74,-99774.63332,-31711.62685,-12273.38758,-29109.74969,46.89395987,-27952.04108,-32048.46764,-71195.02231,0.038,0.85,0.47,192,0,0,0,0,0,0,0,0,0,1709549512,0, 2024-03-04 16:21:52.494
75,-99747.56536,-31694.01368,-12260.20005,-29104.80995,249.98191,-27952.10814,-32057.29658,-71215.54121,0.038,0.85,0.47,192,0,0,0,0,0,0,0,0,0,1709549512,0, 2024-03-04 16:21:52.494
76,-99746.40307,-31691.66675,-12265.56447,-29106.82161,77.04646314,-27964.42395,-32074.57448,-71244.48672,0.038,0.85,0.47,192,0,0,0,0,0,0,0,0,0,1709549512,0, 2024-03-04 16:21:52.494
77,-99777.27083,-31710.68808,-12284.25053,-29118.15394,-255.1004595,-27980.04782,-32096.25567,-71277.29908,0.038,0.85,0.47,192,0,0,0,0,0,0,0,0,0,1709549512,0, 2024-03-04 16:21:52.494
78,-99807.31157,-31730.91641,-12297.95215,-29131.98967,-304.1625385,-27986.64158,-32087.09146,-71290.30779,0.038,0.85,0.47,192,0,0,0,0,0,0,0,0,0,1709549512,0, 2024-03-04 16:21:52.494
79,-99791.17361,-31716.36542,-12284.16112,-29127.02759,17.61317463,-27972.91761,-32066.12552,-71324.37185,0.038,0.85,0.47,192,0,0,0,0,0,0,0,0,0,1709549512,0, 2024-03-04 16:21:52.494
80,-99751.18634,-31689.27511,-12256.48967,-29100.42901,244.3269186,-27942.6757,-32060.8058,-71214.7589,0.034,0.852,0.47,192,1,16,26,160,14,176,0,0,0,1709549512,0, 2024-03-04 16:21:52.494
81,-99742.73738,-31685.96705,-12253.94157,-29089.38725,91.99978018,-27939.59116,-32076.72025,-71156.4432,0.034,0.852,0.47,192,0,0,0,0,0,0,0,0,0,1709549512,0, 2024-03-04 16:21:52.494
82,-99772.24168,-31701.38975,-12274.66163,-29098.9985,-240.2141977,-27951.50464,-32077.3461,-71207.44988,0.034,0.852,0.47,192,0,0,0,0,0,0,0,0,0,1709549512,0, 2024-03-04 16:21:52.494
83,-99807.57979,-31724.47911,-12288.69853,-29114.95764,-285.0741488,-27957.24904,-32062.7057,-71214.31186,0.034,0.852,0.47,192,0,0,0,0,0,0,0,0,0,1709549512,0, 2024-03-04 16:21:52.494
84,-99799.06378,-31718.80176,-12279.42255,-29118.8692,19.13309325,-27952.59988,-32053.31797,-71252.24277,0.034,0.852,0.47,192,0,0,0,0,0,0,0,0,0,1709549512,0, 2024-03-04 16:21:52.494
85,-99771.39232,-31703.51317,-12271.37593,-29121.12673,224.1879969,-27958.0537,-32059.66587,-71301.86365,0.034,0.852,0.47,192,0,0,0,0,0,0,0,0,0,1709549512,0, 2024-03-04 16:21:52.494
86,-99760.68583,-31700.83096,-12274.32636,-29115.35998,74.5654195,-27959.9983,-32078.91072,-71283.22229,0.034,0.852,0.47,192,0,0,0,0,0,0,0,0,0,1709549512,0, 2024-03-04 16:21:52.494
87,-99788.22318,-31718.24297,-12288.27385,-29116.43286,-260.7554508,-27961.58528,-32083.40342,-71226.8959,0.034,0.852,0.47,192,0,0,0,0,0,0,0,0,0,1709549512,0, 2024-03-04 16:21:52.494
88,-99811.75957,-31732.6822,-12291.69366,-29120.38912,-309.3481433,-27957.87489,-32060.26936,-71178.2138,0.034,0.852,0.47,192,0,0,0,0,0,0,0,0,0,1709549512,0, 2024-03-04 16:21:52.494
89,-99807.26687,-31730.42467,-12285.16695,-29128.14517,-2.101063979,-27958.50074,-32052.60271,-71222.35849,0.034,0.852,0.47,192,0,0,0,0,0,0,0,0,0,1709549512,0, 2024-03-04 16:21:52.494
90,-99774.20864,-31711.87272,-12276.1592,-29123.22779,200.1151681,-27955.21503,-32061.38695,-71220.90563,0.038,0.852,0.474,192,1,48,26,160,14,208,0,0,0,1709549513,0, 2024-03-04 16:21:52.974
91,-99755.7461,-31694.75129,-12267.19615,-29107.24629,72.93374216,-27948.68832,-32071.08761,-71196.00578,0.038,0.852,0.474,192,0,0,0,0,0,0,0,0,0,1709549513,0, 2024-03-04 16:21:52.974
92,-99779.43895,-31705.27896,-12280.85307,-29113.21421,-243.4328489,-27961.49587,-32078.6872,-71240.35165,0.038,0.852,0.474,192,0,0,0,0,0,0,0,0,0,1709549513,0, 2024-03-04 16:21:52.974
93,-99813.48065,-31726.9378,-12302.69072,-29135.99064,-328.9282714,-27980.94189,-32075.96029,-71303.85295,0.038,0.852,0.474,192,0,0,0,0,0,0,0,0,0,1709549513,0, 2024-03-04 16:21:52.974
94,-99800.06961,-31717.79593,-12289.70436,-29126.35703,-35.06988705,-27959.3054,-32060.64934,-71209.28272,0.038,0.852,0.474,192,0,0,0,0,0,0,0,0,0,1709549513,0, 2024-03-04 16:21:52.974
95,-99763.41275,-31691.59969,-12268.58196,-29107.08983,170.0073683,-27941.44636,-32066.5502,-71181.96889,0.038,0.852,0.474,192,0,0,0,0,0,0,0,0,0,1709549513,0, 2024-03-04 16:21:52.974
96,-99759.41178,-31688.69396,-12277.61206,-29110.59905,43.83177088,-27957.20434,-32081.65998,-71220.39154,0.038,0.852,0.474,192,0,0,0,0,0,0,0,0,0,1709549513,0, 2024-03-04 16:21:52.974
97,-99782.56819,-31703.13319,-12285.45753,-29119.09272,-268.17623,-27969.94483,-32089.72896,-71243.14561,0.038,0.852,0.474,192,0,0,0,0,0,0,0,0,0,1709549513,0, 2024-03-04 16:21:52.974
98,-99810.57493,-31722.42275,-12295.94049,-29130.76033,-336.5502163,-27973.29759,-32067.01959,-71230.44982,0.038,0.852,0.474,192,0,0,0,0,0,0,0,0,0,1709549513,0, 2024-03-04 16:21:52.974
99,-99803.19885,-31718.71236,-12288.43031,-29132.68258,-58.76273617,-27966.43561,-32056.53662,-71229.51105,0.038,0.852,0.474,192,0,0,0,0,0,0,0,0,0,1709549513,0, 2024-03-04 16:21:52.974
100,-99774.3651,-31699.40045,-12273.11936,-29126.6029,146.6050919,-27964.62512,-32077.30139,-71265.09503,0.038,0.846,0.47,192,1,48,26,112,14,176,0,0,0,1709549513,0, 2024-03-04 16:21:52.974
101,-99760.90935,-31687.75519,-12271.24182,-29112.87893,34.22052076,-27959.48421,-32085.05745,-71199.62677,0.038,0.846,0.47,192,0,0,0,0,0,0,0,0,0,1709549513,0, 2024-03-04 16:21:52.974
102,-99784.26692,-31699.73572,-12283.08824,-29114.62237,-272.9371515,-27963.52988,-32090.98066,-71205.63939,0.038,0.846,0.47,192,0,0,0,0,0,0,0,0,0,1709549513,0, 2024-03-04 16:21:52.974
103,-99810.75374,-31710.3528,-12287.91622,-29121.35024,-349.4024693,-27961.8088,-32065.70084,-71238.94349,0.038,0.846,0.47,192,0,0,0,0,0,0,0,0,0,1709549513,0, 2024-03-04 16:21:52.974
104,-99802.34948,-31708.31879,-12282.95413,-29122.669,-65.66942521,-27950.05178,-32053.89912,-71208.67922,0.038,0.846,0.47,192,0,0,0,0,0,0,0,0,0,1709549513,0, 2024-03-04 16:21:52.974
105,-99768.91127,-31686.36938,-12267.79965,-29110.68846,154.1823333,-27937.60186,-32063.73388,-71209.77446,0.038,0.846,0.47,192,0,0,0,0,0,0,0,0,0,1709549513,0, 2024-03-04 16:21:52.974
106,-99763.70332,-31683.12838,-12273.07466,-29111.00139,37.39446847,-27948.86714,-32088.74549,-71258.27775,0.038,0.846,0.47,192,0,0,0,0,0,0,0,0,0,1709549513,0, 2024-03-04 16:21:52.974
107,-99790.3466,-31695.01951,-12283.13294,-29110.17437,-269.5396864,-27949.04595,-32087.87377,-71227.23117,0.038,0.846,0.47,192,0,0,0,0,0,0,0,0,0,1709549513,0, 2024-03-04 16:21:52.974
108,-99815.08998,-31710.68808,-12286.57511,-29113.41537,-349.2236554,-27943.59212,-32068.02542,-71195.35758,0.038,0.846,0.47,192,0,0,0,0,0,0,0,0,0,1709549513,0, 2024-03-04 16:21:52.974
109,-99812.1619,-31711.31393,-12282.14947,-29115.56114,-70.7432712,-27936.46192,-32054.61437,-71215.80943,0.038,0.846,0.47,192,0,0,0,0,0,0,0,0,0,1709549513,0, 2024-03-04 16:21:52.974
110,-99786.65856,-31697.09822,-12269.34192,-29108.87797,134.6469086,-27931.27631,-32065.49967,-71233.69083,0.038,0.846,0.47,192,0,0,0,0,0,0,0,0,0,1709549513,0, 2024-03-04 16:21:52.974
111,-99776.53322,-31694.75129,-12273.67816,-29108.18507,14.97566879,-27940.55229,-32081.8835,-71258.25539,0.04,0.852,0.47,192,1,64,26,160,14,176,0,0,0,1709549513,0, 2024-03-04 16:21:52.974
112,-99809.16677,-31715.35959,-12293.52651,-29118.10924,-307.358838,-27951.79521,-32088.70078,-71254.83558,0.04,0.852,0.47,192,0,0,0,0,0,0,0,0,0,1709549513,0, 2024-03-04 16:21:52.974
113,-99837.06174,-31732.21281,-12300.18733,-29125.97705,-390.8649553,-27949.09065,-32080.81062,-71212.8143,0.04,0.852,0.47,192,0,0,0,0,0,0,0,0,0,1709549513,0, 2024-03-04 16:21:52.974
114,-99832.18906,-31729.99999,-12294.55469,-29132.01203,-108.2718501,-27946.40844,-32062.30337,-71255.37202,0.04,0.852,0.47,192,0,0,0,0,0,0,0,0,0,1709549513,0, 2024-03-04 16:21:52.974
115,-99808.51857,-31714.59963,-12289.41378,-29131.25207,109.1435682,-27945.84965,-32073.61335,-71279.95894,0.04,0.852,0.47,192,0,0,0,0,0,0,0,0,0,1709549513,0, 2024-03-04 16:21:52.974
116,-99795.77807,-31703.35671,-12286.95509,-29122.42313,3.755093068,-27942.74276,-32067.8466,-71232.64029,0.04,0.852,0.47,192,0,0,0,0,0,0,0,0,0,1709549513,0, 2024-03-04 16:21:52.974
117,-99830.088,-31727.72011,-12308.12219,-29134.42601,-301.9720676,-27956.60084,-32075.78147,-71180.96306,0.04,0.852,0.47,192,0,0,0,0,0,0,0,0,0,1709549513,0, 2024-03-04 16:21:52.974
118,-99850.24927,-31737.89015,-12307.76457,-29134.38131,-383.3994726,-27948.97889,-32062.0575,-71124.18963,0.04,0.852,0.47,192,0,0,0,0,0,0,0,0,0,1709549513,0, 2024-03-04 16:21:52.974
119,-99837.86641,-31728.79299,-12298.28743,-29136.12475,-104.7626263,-27943.61448,-32041.11392,-71171.79885,0.04,0.852,0.47,192,0,0,0,0,0,0,0,0,0,1709549513,0, 2024-03-04 16:21:52.974
120,-99809.12206,-31713.12442,-12293.50415,-29136.25886,110.7975973,-27948.75538,-32053.87676,-71236.90948,0.04,0.852,0.47,192,0,0,0,0,0,0,0,0,0,1709549513,0, 2024-03-04 16:21:52.974
121,-99790.90539,-31700.33922,-12293.16888,-29127.72049,4.626811102,-27950.52117,-32076.31792,-71242.43036,0.038,0.85,0.476,192,1,48,26,144,14,224,0,0,0,1709549513,0, 2024-03-04 16:21:52.974
122,-99806.81983,-31705.94951,-12303.87536,-29127.63108,-316.4112945,-27955.81853,-32086.71148,-71222.58201,0.038,0.85,0.476,192,0,0,0,0,0,0,0,0,0,1709549513,0, 2024-03-04 16:21:52.974
123,-99826.80229,-31712.96796,-12306.57992,-29126.64761,-411.8085398,-27947.45898,-32071.10996,-71159.34892,0.038,0.85,0.476,192,0,0,0,0,0,0,0,0,0,1709549513,0, 2024-03-04 16:21:52.974
124,-99815.08998,-31705.36836,-12297.08043,-29128.18988,-136.1668272,-27943.2792,-32061.85634,-71204.90178,0.038,0.85,0.476,192,0,0,0,0,0,0,0,0,0,1709549513,0, 2024-03-04 16:21:52.974
125,-99787.37382,-31690.92914,-12287.46918,-29125.82059,91.17276563,-27942.80981,-32077.92724,-71223.0961,0.038,0.85,0.476,192,0,0,0,0,0,0,0,0,0,1709549513,0, 2024-03-04 16:21:52.974
126,-99775.90737,-31684.44713,-12282.88708,-29123.27249,-8.583069871,-27954.67859,-32093.17113,-71245.33609,0.038,0.85,0.476,192,0,0,0,0,0,0,0,0,0,1709549513,0, 2024-03-04 16:21:52.974
127,-99808.9656,-31707.58119,-12303.96477,-29138.71755,-323.7203149,-27976.56095,-32117.8251,-71289.65959,0.038,0.85,0.476,192,0,0,0,0,0,0,0,0,0,1709549513,0, 2024-03-04 16:21:52.974
128,-99837.84405,-31724.12148,-12311.00557,-29148.55232,-425.9795458,-27983.0206,-32097.97676,-71327.70226,0.038,0.85,0.476,192,0,0,0,0,0,0,0,0,0,1709549513,0, 2024-03-04 16:21:52.974
129,-99822.24254,-31709.41403,-12290.15139,-29134.2025,-140.1677895,-27958.36663,-32064.06916,-71242.51977,0.038,0.85,0.476,192,0,0,0,0,0,0,0,0,0,1709549513,0, 2024-03-04 16:21:52.974
130,-99783.03758,-31682.39077,-12269.56544,-29116.38816,88.46820455,-27939.12178,-32067.86896,-71207.56164,0.038,0.85,0.476,192,0,0,0,0,0,0,0,0,0,1709549513,0, 2024-03-04 16:21:52.974
131,-99765.335,-31667.90684,-12265.78799,-29107.62627,-7.644296604,-27938.51828,-32079.55892,-71208.90274,0.042,0.85,0.472,192,1,80,26,144,14,192,0,0,0,1709549513,0, 2024-03-04 16:21:52.974
132,-99791.41948,-31681.72022,-12279.33315,-29110.06261,-309.4375502,-27942.22867,-32087.71731,-71190.61901,0.042,0.85,0.472,192,0,0,0,0,0,0,0,0,0,1709549513,0, 2024-03-04 16:21:52.974
133,-99828.34456,-31705.43542,-12295.96285,-29125.44061,-424.7949034,-27950.20824,-32082.46465,-71213.82013,0.042,0.85,0.472,192,0,0,0,0,0,0,0,0,0,1709549513,0, 2024-03-04 16:21:52.974
134,-99823.22601,-31702.99908,-12290.71019,-29129.41922,-163.4136037,-27946.29669,-32078.55309,-71261.09406,0.042,0.85,0.472,192,0,0,0,0,0,0,0,0,0,1709549513,0, 2024-03-04 16:21:52.974
135,-99795.82277,-31686.52584,-12277.34384,-29124.74771,76.5770765,-27941.46871,-32085.39272,-71292.45356,0.042,0.85,0.472,192,0,0,0,0,0,0,0,0,0,1709549513,0, 2024-03-04 16:21:52.974
136,-99785.31745,-31680.55793,-12275.64511,-29117.17047,-4.872680291,-27940.93227,-32097.66383,-71271.30881,0.042,0.85,0.472,192,0,0,0,0,0,0,0,0,0,1709549513,0, 2024-03-04 16:21:52.974
137,-99809.07736,-31694.86304,-12287.62565,-29118.48922,-321.4180853,-27944.84382,-32094.6687,-71250.90167,0.042,0.85,0.472,192,0,0,0,0,0,0,0,0,0,1709549513,0, 2024-03-04 16:21:52.974
138,-99840.52626,-31716.45483,-12299.51677,-29130.358,-426.9853743,-27950.02943,-32080.5424,-71228.30406,0.042,0.85,0.472,192,0,0,0,0,0,0,0,0,0,1709549513,0, 2024-03-04 16:21:52.974
139,-99830.51268,-31710.21869,-12286.50806,-29132.01203,-151.2095512,-27943.72623,-32066.23728,-71234.24962,0.042,0.85,0.472,192,0,0,0,0,0,0,0,0,0,1709549513,0, 2024-03-04 16:21:52.974
140,-99795.82277,-31687.10699,-12264.64805,-29118.19865,100.8957745,-27927.65533,-32050.4346,-71185.2993,0.042,0.85,0.472,192,0,0,0,0,0,0,0,0,0,1709549513,0, 2024-03-04 16:21:52.974
141,-99787.37382,-31683.06132,-12268.62666,-29117.17047,11.46644491,-27935.92548,-32066.5502,-71181.74537,0.04,0.854,0.468,192,1,64,26,176,14,160,0,0,0,1709549513,0, 2024-03-04 16:21:52.974
142,-99811.11137,-31693.6337,-12280.51779,-29119.98679,-305.6377537,-27942.16161,-32086.73383,-71171.84355,0.04,0.854,0.468,192,0,0,0,0,0,0,0,0,0,1709549513,0, 2024-03-04 16:21:52.974
143,-99841.97913,-31710.24104,-12294.10765,-29136.30356,-430.0699151,-27956.69025,-32076.40732,-71231.83563,0.04,0.854,0.468,192,0,0,0,0,0,0,0,0,0,1709549513,0, 2024-03-04 16:21:52.974
144,-99838.78283,-31707.0671,-12291.91718,-29143.45612,-172.6225224,-27957.85254,-32067.98071,-71272.20288,0.04,0.854,0.468,192,0,0,0,0,0,0,0,0,0,1709549513,0, 2024-03-04 16:21:52.974
145,-99806.17163,-31686.30233,-12282.66356,-29137.26469,64.35067229,-27953.82922,-32083.31401,-71299.18144,0.04,0.854,0.468,192,0,0,0,0,0,0,0,0,0,1709549513,0, 2024-03-04 16:21:52.974
146,-99791.82181,-31678.12159,-12285.1893,-29130.87209,-24.00577354,-27957.91959,-32105.66576,-71273.65575,0.04,0.854,0.468,192,0,0,0,0,0,0,0,0,0,1709549513,0, 2024-03-04 16:21:52.974
147,-99807.60214,-31681.452,-12285.7928,-29119.91973,-323.5638527,-27947.95071,-32101.48598,-71183.53351,0.04,0.854,0.468,192,0,0,0,0,0,0,0,0,0,1709549513,0, 2024-03-04 16:21:52.974
148,-99834.49129,-31695.60065,-12293.16888,-29128.88278,-447.571331,-27953.62806,-32086.06328,-71215.94354,0.04,0.854,0.468,192,0,0,0,0,0,0,0,0,0,1709549513,0, 2024-03-04 16:21:52.974
149,-99833.75369,-31699.48986,-12298.17567,-29144.81957,-184.1560226,-27963.46283,-32089.93013,-71296.54393,0.04,0.854,0.468,192,0,0,0,0,0,0,0,0,0,1709549513,0, 2024-03-04 16:21:52.974
150,-99801.41071,-31681.83198,-12281.70243,-29141.13154,61.13202109,-27958.56779,-32087.18086,-71312.32426,0.04,0.854,0.468,192,0,0,0,0,0,0,0,0,0,1709549513,0, 2024-03-04 16:21:52.974
151,-99785.49627,-31671.50547,-12274.8181,-29126.78172,-16.11560775,-27948.10718,-32093.72992,-71203.98536,0.038,0.848,0.47,192,1,48,26,128,14,176,0,0,0,1709549513,0, 2024-03-04 16:21:52.974
152,-99812.40777,-31687.44227,-12289.83847,-29132.9508,-332.5269023,-27956.80201,-32106.96216,-71220.36919,0.038,0.848,0.47,192,0,0,0,0,0,0,0,0,0,1709549513,0, 2024-03-04 16:21:52.974
153,-99844.34841,-31704.29548,-12303.7636,-29143.85845,-462.703462,-27962.59111,-32096.79211,-71268.49249,0.038,0.848,0.47,192,0,0,0,0,0,0,0,0,0,1709549513,0, 2024-03-04 16:21:52.974
154,-99844.03549,-31703.62493,-12302.53426,-29147.47943,-203.713799,-27956.1538,-32079.96125,-71277.18732,0.038,0.848,0.47,192,0,0,0,0,0,0,0,0,0,1709549513,0, 2024-03-04 16:21:52.974
155,-99808.13859,-31675.37232,-12277.23208,-29125.46296,58.85214315,-27933.75736,-32077.83783,-71248.33122,0.038,0.848,0.47,192,0,0,0,0,0,0,0,0,0,1709549513,0, 2024-03-04 16:21:52.974
156,-99794.10169,-31662.96711,-12272.02413,-29116.09758,-9.43243616,-27933.80206,-32085.83976,-71269.40891,0.038,0.848,0.47,192,0,0,0,0,0,0,0,0,0,1709549513,0, 2024-03-04 16:21:52.974
157,-99817.72748,-31673.36067,-12287.35742,-29118.08689,-325.3072888,-27938.31711,-32085.63859,-71244.37496,0.038,0.848,0.47,192,0,0,0,0,0,0,0,0,0,1709549513,0, 2024-03-04 16:21:52.974
158,-99843.36494,-31681.74257,-12286.57511,-29112.29779,-438.3624123,-27921.77682,-32074.12744,-71176.02333,0.038,0.848,0.47,192,0,0,0,0,0,0,0,0,0,1709549513,0, 2024-03-04 16:21:52.974
159,-99843.27553,-31679.03801,-12277.4109,-29111.56018,-171.169659,-27910.60095,-32055.08376,-71174.90574,0.038,0.848,0.47,192,0,0,0,0,0,0,0,0,0,1709549513,0, 2024-03-04 16:21:52.974
160,-99818.68861,-31664.2188,-12271.68885,-29112.78953,68.35163454,-27912.00911,-32054.9273,-71231.29919,0.038,0.848,0.47,192,0,0,0,0,0,0,0,0,0,1709549513,0, 2024-03-04 16:21:52.974
161,-99812.96656,-31660.84369,-12282.17182,-29119.20448,-13.16517748,-27929.04114,-32082.03996,-71287.69264,0.034,0.856,0.472,192,1,16,26,192,14,192,0,0,0,1709549513,0, 2024-03-04 16:21:52.974
162,-99836.99469,-31673.58418,-12306.13289,-29126.6029,-340.1488471,-27939.94879,-32099.1614,-71262.50222,0.034,0.856,0.472,192,0,0,0,0,0,0,0,0,0,1709549513,0, 2024-03-04 16:21:52.974
163,-99858.02768,-31682.27901,-12304.38945,-29123.74188,-467.0844039,-27930.87398,-32077.18963,-71194.35176,0.034,0.856,0.472,192,0,0,0,0,0,0,0,0,0,1709549513,0, 2024-03-04 16:21:52.974
164,-99849.08698,-31674.88059,-12292.25246,-29124.54654,-205.546642,-27929.42112,-32056.76014,-71240.44105,0.034,0.856,0.472,192,0,0,0,0,0,0,0,0,0,1709549513,0, 2024-03-04 16:21:52.974
165,-99810.39611,-31648.08084,-12272.24764,-29107.91684,45.77637264,-27912.21028,-32058.68239,-71192.36245,0.034,0.856,0.472,192,0,0,0,0,0,0,0,0,0,1709549513,0, 2024-03-04 16:21:52.974
166,-99789.49723,-31635.25094,-12271.24182,-29100.54077,-7.890165793,-27914.15488,-32072.80869,-71175.57629,0.034,0.856,0.472,192,0,0,0,0,0,0,0,0,0,1709549513,0, 2024-03-04 16:21:52.974
167,-99810.12789,-31646.02448,-12287.91622,-29108.72151,-327.386001,-27931.7457,-32098.5579,-71227.11941,0.034,0.856,0.472,192,0,0,0,0,0,0,0,0,0,1709549513,0, 2024-03-04 16:21:52.974
168,-99838.69342,-31661.11191,-12298.66741,-29119.00331,-464.0669184,-27939.94879,-32095.11573,-71225.82301,0.034,0.856,0.472,192,0,0,0,0,0,0,0,0,0,1709549513,0, 2024-03-04 16:21:52.974
169,-99826.22115,-31649.66782,-12284.29524,-29111.94016,-196.2259646,-27923.05087,-32079.71538,-71215.87649,0.034,0.856,0.472,192,0,0,0,0,0,0,0,0,0,1709549513,0, 2024-03-04 16:21:52.974
170,-99780.73535,-31616.87781,-12256.22144,-29088.60494,67.90459966,-27900.22974,-32067.53368,-71191.33427,0.034,0.856,0.472,192,0,0,0,0,0,0,0,0,0,1709549513,0, 2024-03-04 16:21:52.974
171,-99757.93657,-31600.18106,-12246.78901,-29076.93733,12.49462515,-27900.96735,-32074.55213,-71209.32742,0.04,0.854,0.478,192,1,64,26,176,14,240,0,0,0,1709549513,0, 2024-03-04 16:21:52.974
172,-99784.6022,-31620.05176,-12266.54795,-29095.1093,-296.1159105,-27928.10237,-32083.24696,-71280.42832,0.04,0.854,0.478,192,0,0,0,0,0,0,0,0,0,1709549513,0, 2024-03-04 16:21:52.974
173,-99819.06859,-31642.55996,-12287.02215,-29113.39302,-441.8269326,-27939.74762,-32098.64731,-71297.97444,0.04,0.854,0.478,192,0,0,0,0,0,0,0,0,0,1709549513,0, 2024-03-04 16:21:52.974
174,-99804.98699,-31629.88652,-12271.30887,-29105.32404,-180.2221155,-27918.24525,-32083.69399,-71240.70927,0.04,0.854,0.478,192,0,0,0,0,0,0,0,0,0,1709549513,0, 2024-03-04 16:21:52.974
175,-99773.024,-31613.77092,-12252.73457,-29095.53398,90.703379,-27905.61651,-32080.72121,-71223.07375,0.04,0.854,0.478,192,0,0,0,0,0,0,0,0,0,1709549513,0, 2024-03-04 16:21:52.974
176,-99757.48953,-31607.06539,-12251.34876,-29089.05197,35.78514287,-27906.95762,-32097.52972,-71231.29919,0.04,0.854,0.478,192,0,0,0,0,0,0,0,0,0,1709549513,0, 2024-03-04 16:21:52.974
177,-99779.99774,-31620.76701,-12270.68302,-29094.19287,-274.1441457,-27914.17723,-32109.4879,-71242.29625,0.04,0.854,0.478,192,0,0,0,0,0,0,0,0,0,1709549513,0, 2024-03-04 16:21:52.974
178,-99812.02779,-31640.34714,-12286.53041,-29107.35805,-421.7774179,-27922.67089,-32102.00007,-71299.24849,0.04,0.854,0.478,192,0,0,0,0,0,0,0,0,0,1709549513,0, 2024-03-04 16:21:52.974
179,-99815.11233,-31640.77182,-12281.18834,-29107.3804,-176.8693539,-27911.67383,-32083.00109,-71314.31357,0.04,0.854,0.478,192,0,0,0,0,0,0,0,0,0,1709549513,0, 2024-03-04 16:21:52.974
180,-99788.89373,-31620.20822,-12263.99985,-29090.86246,87.12709989,-27888.2045,-32079.76008,-71232.88616,0.04,0.854,0.478,192,0,0,0,0,0,0,0,0,0,1709549513,0, 2024-03-04 16:21:52.974
181,-99757.60129,-31597.25298,-12243.54801,-29065.82851,59.63445421,-27865.65159,-32076.45203,-71129.88932,0.036,0.846,0.478,192,1,32,26,112,14,240,0,0,0,1709549513,0, 2024-03-04 16:21:52.974
182,-99787.59733,-31621.61638,-12267.2185,-29082.99465,-251.4124216,-27884.36,-32088.3208,-71163.21578,0.036,0.846,0.478,192,0,0,0,0,0,0,0,0,0,1709549513,0, 2024-03-04 16:21:52.974
183,-99833.41841,-31655.43457,-12298.55565,-29115.6282,-421.0398103,-27912.34439,-32098.66966,-71271.95701,0.036,0.846,0.478,192,0,0,0,0,0,0,0,0,0,1709549513,0, 2024-03-04 16:21:52.974
184,-99836.61471,-31659.77081,-12296.11931,-29125.46296,-181.6526272,-27911.11504,-32086.91264,-71270.61591,0.036,0.846,0.478,192,0,0,0,0,0,0,0,0,0,1709549513,0, 2024-03-04 16:21:52.974
185,-99801.47777,-31636.86027,-12274.37106,-29107.46981,75.39243405,-27886.46107,-32083.09049,-71157.35962,0.036,0.846,0.478,192,0,0,0,0,0,0,0,0,0,1709549513,0, 2024-03-04 16:21:52.974
186,-99792.40296,-31636.03325,-12282.32828,-29112.67777,22.59761364,-27899.00039,-32100.32369,-71180.13605,0.036,0.846,0.478,192,0,0,0,0,0,0,0,0,0,1709549513,0, 2024-03-04 16:21:52.974
187,-99810.68668,-31646.62798,-12292.09599,-29117.30458,-285.2976662,-27912.18792,-32107.34214,-71209.32742,0.036,0.846,0.478,192,0,0,0,0,0,0,0,0,0,1709549513,0, 2024-03-04 16:21:52.974
188,-99839.38632,-31665.73872,-12296.00755,-29123.87599,-429.8911011,-27915.89831,-32090.8242,-71167.52966,0.036,0.846,0.478,192,0,0,0,0,0,0,0,0,0,1709549513,0, 2024-03-04 16:21:52.974
189,-99838.20168,-31667.3704,-12290.2408,-29129.21806,-176.8917056,-27915.27246,-32077.3461,-71164.46747,0.036,0.846,0.478,192,0,0,0,0,0,0,0,0,0,1709549513,0, 2024-03-04 16:21:52.974
190,-99797.02977,-31639.56483,-12257.49549,-29111.73899,90.43515807,-27901.36968,-32075.40149,-71158.52191,0.036,0.846,0.478,192,0,0,0,0,0,0,0,0,0,1709549513,0, 2024-03-04 16:21:52.974
191,-99771.79465,-31621.2811,-12250.47705,-29104.45232,45.17287554,-27910.51154,-32078.44133,-71216.18941,0.036,0.846,0.482,192,1,32,26,112,15,16,0,0,0,1709549513,0, 2024-03-04 16:21:52.974
192,-99790.12308,-31630.2665,-12264.82687,-29113.23656,-264.5775991,-27930.80693,-32094.28872,-71267.19609,0.036,0.846,0.482,192,0,0,0,0,0,0,0,0,0,1709549513,0, 2024-03-04 16:21:52.974
193,-99813.36889,-31643.34227,-12269.40897,-29116.94695,-406.287659,-27931.99157,-32075.24503,-71225.15246,0.036,0.846,0.482,192,0,0,0,0,0,0,0,0,0,1709549513,0, 2024-03-04 16:21:52.974
194,-99808.74208,-31639.96716,-12261.76468,-29116.47756,-167.6380834,-27924.43668,-32079.26835,-71215.92119,0.036,0.846,0.482,192,0,0,0,0,0,0,0,0,0,1709549513,0, 2024-03-04 16:21:52.974
195,-99780.95886,-31623.49392,-12252.35459,-29115.22587,82.16501262,-27925.62132,-32092.94761,-71269.90065,0.036,0.846,0.482,192,0,0,0,0,0,0,0,0,0,1709549513,0, 2024-03-04 16:21:52.974
196,-99764.15035,-31609.83701,-12253.71805,-29113.01304,40.18843653,-27933.44443,-32112.14776,-71305.46228,0.036,0.846,0.482,192,0,0,0,0,0,0,0,0,0,1709549513,0, 2024-03-04 16:21:52.974
197,-99783.19404,-31615.76022,-12259.59656,-29109.25795,-262.4541834,-27933.53384,-32104.07878,-71246.38662,0.036,0.846,0.482,192,0,0,0,0,0,0,0,0,0,1709549513,0, 2024-03-04 16:21:52.974
198,-99818.39804,-31636.79321,-12276.44977,-29120.74675,-413.4625689,-27938.27241,-32091.4724,-71249.87349,0.036,0.846,0.482,192,0,0,0,0,0,0,0,0,0,1709549513,0, 2024-03-04 16:21:52.974
199,-99818.5098,-31635.09448,-12268.91724,-29123.63012,-170.2755893,-27931.7457,-32076.94376,-71279.98129,0.036,0.846,0.482,192,0,0,0,0,0,0,0,0,0,1709549513,0, 2024-03-04 16:21:52.974
200,-99785.60803,-31611.78161,-12245.64907,-29105.25699,90.703379,-27912.23263,-32071.22172,-71233.55672,0.036,0.846,0.482,192,0,0,0,0,0,0,0,0,0,1709549513,0, 2024-03-04 16:21:52.974
201,-99769.8724,-31603.22089,-12244.77735,-29098.77498,60.55087573,-27916.72533,-32083.38107,-71261.02701,0.036,0.846,0.482,192,1,32,26,112,15,16,0,0,0,1709549513,0, 2024-03-04 16:21:52.974
202,-99794.81695,-31619.04593,-12261.78703,-29103.80412,-253.6922996,-27923.69907,-32095.42866,-71235.63543,0.036,0.846,0.482,192,0,0,0,0,0,0,0,0,0,1709549513,0, 2024-03-04 16:21:52.974
203,-99817.92865,-31630.1771,-12263.17284,-29100.07138,-410.6462491,-27909.52807,-32078.6872,-71197.59276,0.036,0.846,0.482,192,0,0,0,0,0,0,0,0,0,1709549513,0, 2024-03-04 16:21:52.974
204,-99826.53407,-31639.60953,-12270.61597,-29112.67777,-179.5292115,-27911.40561,-32069.99237,-71260.8929,0.036,0.846,0.482,192,0,0,0,0,0,0,0,0,0,1709549513,0, 2024-03-04 16:21:52.974
205,-99797.78973,-31617.68247,-12260.60239,-29100.67488,80.28746608,-27892.11606,-32080.31888,-71247.70537,0.036,0.846,0.482,192,0,0,0,0,0,0,0,0,0,1709549513,0, 2024-03-04 16:21:52.974
206,-99786.14447,-31611.98278,-12261.33999,-29095.39987,44.09999181,-27891.31139,-32097.93205,-71228.90755,0.036,0.846,0.482,192,0,0,0,0,0,0,0,0,0,1709549513,0, 2024-03-04 16:21:52.974
207,-99800.13666,-31617.63777,-12265.65388,-29089.14138,-261.0683752,-27887.24338,-32097.17209,-71196.05049,0.036,0.846,0.482,192,0,0,0,0,0,0,0,0,0,1709549513,0, 2024-03-04 16:21:52.974
208,-99828.63514,-31630.69119,-12273.0076,-29086.45917,-417.396476,-27871.79832,-32081.77174,-71131.49865,0.036,0.846,0.482,192,0,0,0,0,0,0,0,0,0,1709549513,0, 2024-03-04 16:21:52.974
209,-99842.24735,-31641.39767,-12279.73548,-29101.39014,-180.6244469,-27875.10638,-32068.02542,-71164.51218,0.036,0.846,0.482,192,0,0,0,0,0,0,0,0,0,1709549513,0, 2024-03-04 16:21:52.974
210,-99823.36012,-31637.03908,-12282.30593,-29111.67194,66.60819848,-27883.08595,-32083.2246,-71184.51699,0.036,0.846,0.482,192,0,0,0,0,0,0,0,0,0,1709549513,0, 2024-03-04 16:21:53.454
211,-99805.92576,-31634.58039,-12282.88708,-29117.19282,32.29827074,-27901.36968,-32093.81933,-71221.39737,0.026,0.846,0.48,192,0,208,26,112,15,0,0,0,0,1709549513,0, 2024-03-04 16:21:53.454
212,-99826.9364,-31646.73974,-12296.20871,-29122.87016,-274.5911806,-27916.54651,-32103.49764,-71196.74339,0.026,0.846,0.48,192,0,0,0,0,0,0,0,0,0,1709549513,0, 2024-03-04 16:21:53.454
213,-99850.42809,-31657.7368,-12300.50025,-29125.55237,-434.1155808,-27918.55817,-32081.07884,-71167.73083,0.026,0.846,0.48,192,0,0,0,0,0,0,0,0,0,1709549513,0, 2024-03-04 16:21:53.454
214,-99844.61663,-31652.05945,-12287.80446,-29121.79728,-212.6097933,-27908.92457,-32071.55699,-71194.79879,0.026,0.846,0.48,192,0,0,0,0,0,0,0,0,0,1709549513,0, 2024-03-04 16:21:53.454
215,-99819.18035,-31636.25677,-12279.80253,-29118.8692,43.25062552,-27904.27541,-32079.13424,-71190.70842,0.026,0.846,0.48,192,0,0,0,0,0,0,0,0,0,1709549513,0, 2024-03-04 16:21:53.454
216,-99796.44862,-31619.82824,-12266.97263,-29110.04026,28.52082592,-27906.53293,-32091.33829,-71196.36341,0.026,0.846,0.48,192,0,0,0,0,0,0,0,0,0,1709549513,0, 2024-03-04 16:21:53.454
217,-99814.77705,-31628.83599,-12278.57319,-29113.86241,-276.5357824,-27919.98868,-32100.03312,-71231.85798,0.026,0.846,0.48,192,0,0,0,0,0,0,0,0,0,1709549513,0, 2024-03-04 16:21:53.454
218,-99847.07532,-31649.71252,-12293.32534,-29130.46975,-456.668491,-27937.57951,-32098.04381,-71292.54297,0.026,0.846,0.48,192,0,0,0,0,0,0,0,0,0,1709549513,0, 2024-03-04 16:21:53.454
219,-99848.59524,-31649.489,-12290.01728,-29136.99646,-229.2171394,-27936.68544,-32082.71051,-71300.72371,0.026,0.846,0.48,192,0,0,0,0,0,0,0,0,0,1709549513,0, 2024-03-04 16:21:53.454
220,-99813.99474,-31625.1256,-12271.13006,-29122.51253,41.28367201,-27920.70394,-32083.40342,-71257.67425,0.026,0.846,0.48,192,0,0,0,0,0,0,0,0,0,1709549513,0, 2024-03-04 16:21:53.454
221,-99792.09003,-31609.81466,-12260.93766,-29107.51451,24.29634622,-27912.34439,-32092.67939,-71195.80462,0.03,0.848,0.478,192,0,240,26,128,14,240,0,0,0,1709549513,0, 2024-03-04 16:21:53.454
222,-99807.49039,-31617.23544,-12269.20781,-29106.41928,-275.5970091,-27916.56887,-32090.93596,-71200.05145,0.03,0.848,0.478,192,0,0,0,0,0,0,0,0,0,1709549513,0, 2024-03-04 16:21:53.454
223,-99839.92277,-31636.39088,-12284.33994,-29117.99748,-458.4789823,-27925.3978,-32096.12156,-71239.05524,0.03,0.848,0.478,192,0,0,0,0,0,0,0,0,0,1709549513,0, 2024-03-04 16:21:53.454
224,-99838.08992,-31633.28399,-12271.86767,-29114.51061,-235.4309243,-27912.25498,-32080.5871,-71248.33122,0.03,0.848,0.478,192,0,0,0,0,0,0,0,0,0,1709549513,0, 2024-03-04 16:21:53.454
225,-99814.84411,-31619.15769,-12264.87157,-29111.29196,28.31966022,-27906.80115,-32088.8796,-71288.31849,0.03,0.848,0.478,192,0,0,0,0,0,0,0,0,0,1709549513,0, 2024-03-04 16:21:53.454
226,-99793.78877,-31601.23159,-12260.40122,-29094.95283,3.598630857,-27896.29583,-32107.78917,-71265.20679,0.03,0.848,0.478,192,0,0,0,0,0,0,0,0,0,1709549513,0, 2024-03-04 16:21:53.454
227,-99810.84315,-31611.06635,-12269.96777,-29094.30463,-297.7475879,-27902.42021,-32107.00686,-71268.22427,0.03,0.848,0.478,192,0,0,0,0,0,0,0,0,0,1709549513,0, 2024-03-04 16:21:53.454
228,-99837.21821,-31624.83503,-12275.82392,-29092.15886,-463.5975317,-27893.77009,-32094.44518,-71224.48191,0.03,0.848,0.478,192,0,0,0,0,0,0,0,0,0,1709549513,0, 2024-03-04 16:21:53.454
229,-99840.45921,-31627.98663,-12273.94638,-29095.53398,-239.2083692,-27884.98585,-32093.77463,-71227.29823,0.03,0.848,0.478,192,0,0,0,0,0,0,0,0,0,1709549513,0, 2024-03-04 16:21:53.454
230,-99814.30767,-31612.40746,-12258.97071,-29092.62825,28.07379104,-27878.74971,-32090.75714,-71245.22433,0.03,0.848,0.478,192,0,0,0,0,0,0,0,0,0,1709549513,0, 2024-03-04 16:21:53.454
231,-99797.09682,-31601.14218,-12255.99793,-29089.09668,6.482005892,-27882.01307,-32107.92328,-71242.94445,0.04,0.848,0.482,192,1,64,26,128,15,16,0,0,0,1709549513,0, 2024-03-04 16:21:53.454
232,-99809.47969,-31608.16063,-12267.62083,-29092.51649,-310.8904136,-27891.33375,-32108.12445,-71281.18828,0.04,0.848,0.482,192,0,0,0,0,0,0,0,0,0,1709549513,0, 2024-03-04 16:21:53.454
233,-99847.94704,-31633.4628,-12284.20583,-29106.24046,-489.9949419,-27896.5417,-32095.22749,-71246.7666,0.04,0.848,0.482,192,0,0,0,0,0,0,0,0,0,1709549513,0, 2024-03-04 16:21:53.454
234,-99845.06367,-31627.87487,-12268.00081,-29094.30463,-250.1607239,-27867.14916,-32066.19258,-71110.89034,0.04,0.848,0.482,192,0,0,0,0,0,0,0,0,0,1709549513,0, 2024-03-04 16:21:53.454
235,-99820.85673,-31615.04497,-12257.40609,-29095.8022,15.69092461,-27867.81971,-32070.23824,-71168.89312,0.04,0.848,0.482,192,0,0,0,0,0,0,0,0,0,1709549513,0, 2024-03-04 16:21:53.454
236,-99817.14634,-31619.64942,-12272.22529,-29110.88963,-6.951392526,-27891.15493,-32085.61624,-71230.33806,0.04,0.848,0.482,192,0,0,0,0,0,0,0,0,0,1709549513,0, 2024-03-04 16:21:53.454
237,-99845.44365,-31642.15763,-12295.73933,-29128.88278,-314.0643613,-27916.323,-32102.78238,-71260.91525,0.04,0.848,0.482,192,0,0,0,0,0,0,0,0,0,1709549513,0, 2024-03-04 16:21:53.454
238,-99869.91881,-31653.37821,-12301.819,-29130.06742,-493.1688897,-27911.60678,-32087.85142,-71219.63158,0.04,0.848,0.482,192,0,0,0,0,0,0,0,0,0,1709549513,0, 2024-03-04 16:21:53.454
239,-99863.4368,-31646.248,-12289.36908,-29125.8653,-270.5678666,-27897.86046,-32068.07012,-71196.47517,0.04,0.848,0.482,192,0,0,0,0,0,0,0,0,0,1709549513,0, 2024-03-04 16:21:53.454
240,-99832.65845,-31627.22667,-12278.77435,-29123.18309,-10.43826466,-27898.30749,-32083.71634,-71233.51201,0.04,0.848,0.482,192,0,0,0,0,0,0,0,0,0,1709549513,0, 2024-03-04 16:21:53.454
241,-99816.52049,-31618.53184,-12279.53431,-29122.73605,-26.35270671,-27908.52224,-32107.85623,-71227.16412,0.04,0.848,0.482,192,0,0,0,0,0,0,0,0,0,1709549513,0, 2024-03-04 16:21:53.454
242,-99823.49423,-31617.88364,-12279.75783,-29115.35998,-315.5395765,-27908.81281,-32105.24107,-71195.80462,0.042,0.84,0.488,192,1,80,26,64,15,64,0,0,0,1709549513,0, 2024-03-04 16:21:53.454
243,-99850.69631,-31632.50168,-12288.67618,-29122.89251,-497.6392386,-27916.72533,-32096.0098,-71193.88237,0.042,0.84,0.488,192,0,0,0,0,0,0,0,0,0,1709549513,0, 2024-03-04 16:21:53.454
244,-99844.8178,-31625.63969,-12277.16503,-29121.39495,-280.2908755,-27908.83516,-32097.08269,-71213.12722,0.042,0.84,0.488,192,0,0,0,0,0,0,0,0,0,1709549513,0, 2024-03-04 16:21:53.454
245,-99815.67112,-31609.65819,-12263.03873,-29117.99748,-6.660819848,-27907.20348,-32099.36256,-71249.00177,0.042,0.84,0.488,192,0,0,0,0,0,0,0,0,0,1709549513,0, 2024-03-04 16:21:53.454
246,-99791.84416,-31594.72723,-12251.90756,-29105.45815,-12.82990132,-27903.40369,-32109.57731,-71221.26326,0.042,0.84,0.488,192,0,0,0,0,0,0,0,0,0,1709549513,0, 2024-03-04 16:21:53.454
247,-99804.78582,-31601.49981,-12256.40026,-29103.06652,-296.6300007,-27907.24819,-32108.68324,-71219.63158,0.042,0.84,0.488,192,0,0,0,0,0,0,0,0,0,1709549513,0, 2024-03-04 16:21:53.454
248,-99835.07244,-31617.16838,-12260.40122,-29105.52521,-490.1514042,-27906.95762,-32111.47721,-71234.0261,0.042,0.84,0.488,192,0,0,0,0,0,0,0,0,0,1709549513,0, 2024-03-04 16:21:53.454
249,-99844.54958,-31624.34329,-12262.56934,-29116.09758,-285.0965005,-27907.76228,-32101.68715,-71288.07262,0.042,0.84,0.488,192,0,0,0,0,0,0,0,0,0,1709549513,0, 2024-03-04 16:21:53.454
250,-99819.8956,-31610.59697,-12255.10386,-29114.39885,-13.99219203,-27902.50962,-32099.7649,-71321.37672,0.042,0.84,0.488,192,0,0,0,0,0,0,0,0,0,1709549513,0, 2024-03-04 16:21:53.454
251,-99798.70615,-31594.70488,-12247.50426,-29101.43484,-11.86877631,-27895.44647,-32109.15263,-71283.15524,0.042,0.84,0.488,192,0,0,0,0,0,0,0,0,0,1709549513,0, 2024-03-04 16:21:53.454
252,-99812.8101,-31596.40361,-12251.48287,-29089.90134,-301.502681,-27886.41636,-32111.85719,-71212.59078,0.038,0.836,0.482,192,1,48,26,32,15,16,0,0,0,1709549513,0, 2024-03-04 16:21:53.454
253,-99849.19874,-31614.57558,-12266.54795,-29096.78568,-494.9570292,-27887.48925,-32103.25177,-71208.65687,0.038,0.836,0.482,192,0,0,0,0,0,0,0,0,0,1709549513,0, 2024-03-04 16:21:53.454
254,-99847.99175,-31608.25003,-12251.59463,-29088.09085,-272.5571719,-27866.23274,-32069.7465,-71165.24978,0.038,0.836,0.482,192,0,0,0,0,0,0,0,0,0,1709549513,0, 2024-03-04 16:21:53.454
255,-99817.10164,-31589.9216,-12239.85997,-29081.83236,4.202127958,-27856.845,-32068.47245,-71182.03594,0.038,0.836,0.482,192,0,0,0,0,0,0,0,0,0,1709549513,0, 2024-03-04 16:21:53.454
0,-99796.42627,-31580.17624,-12237.33422,-29080.4242,-1.743436068,-27866.29979,-32088.8796,-71222.29144,0.038,0.836,0.482,192,0,0,0,0,0,0,0,0,0,1709549513,0, 2024-03-04 16:21:53.454
1,-99822.3543,-31599.53285,-12263.21754,-29096.42805,-314.6455067,-27889.09857,-32112.61715,-71260.35646,0.038,0.836,0.482,192,0,0,0,0,0,0,0,0,0,1709549513,0, 2024-03-04 16:21:53.454
2,-99865.9402,-31628.65718,-12289.5926,-29119.98679,-515.006544,-27907.87404,-32109.46555,-71309.23972,0.038,0.836,0.482,192,0,0,0,0,0,0,0,0,0,1709549513,0, 2024-03-04 16:21:53.454
3,-99868.89063,-31629.46184,-12277.63442,-29117.25987,-290.2597535,-27891.78078,-32070.93115,-71264.93856,0.038,0.836,0.482,192,0,0,0,0,0,0,0,0,0,1709549513,0, 2024-03-04 16:21:53.454
4,-99839.1181,-31607.57948,-12253.82981,-29096.42805,0.312924422,-27862.32118,-32065.67849,-71186.66276,0.038,0.836,0.482,192,0,0,0,0,0,0,0,0,0,1709549513,0, 2024-03-04 16:21:53.454
5,-99820.96849,-31596.47067,-12249.2477,-29089.96839,2.078712234,-27860.86832,-32068.53951,-71173.22936,0.038,0.836,0.482,192,0,0,0,0,0,0,0,0,0,1709549513,0, 2024-03-04 16:21:53.454
6,-99843.85667,-31613.23447,-12273.85697,-29107.46981,-306.9788583,-27886.37166,-32089.17017,-71216.21176,0.028,0.846,0.48,192,0,224,26,112,15,0,0,0,0,1709549513,0, 2024-03-04 16:21:53.454
7,-99882.10051,-31639.69894,-12291.87248,-29124.79241,-495.9181542,-27899.06745,-32086.28679,-71158.29839,0.028,0.846,0.48,192,0,0,0,0,0,0,0,0,0,1709549513,0, 2024-03-04 16:21:53.454
8,-99883.9557,-31639.87775,-12289.19027,-29131.52029,-296.6523524,-27898.46395,-32071.53464,-71172.71527,0.028,0.846,0.48,192,0,0,0,0,0,0,0,0,0,1709549513,0, 2024-03-04 16:21:53.454
9,-99850.6516,-31619.15769,-12279.24374,-29130.60387,-31.31479398,-27900.67678,-32074.66389,-71248.42063,0.028,0.846,0.48,192,0,0,0,0,0,0,0,0,0,1709549513,0, 2024-03-04 16:21:53.454
10,-99820.74497,-31596.85065,-12267.01734,-29118.51157,-22.23998573,-27900.72148,-32083.49283,-71236.75302,0.028,0.846,0.48,192,0,0,0,0,0,0,0,0,0,1709549513,0, 2024-03-04 16:21:53.454
11,-99822.06372,-31592.04502,-12269.85601,-29107.84979,-309.7728264,-27896.80992,-32096.41213,-71208.25454,0.028,0.846,0.48,192,0,0,0,0,0,0,0,0,0,1709549513,0, 2024-03-04 16:21:53.454
12,-99845.82363,-31602.23742,-12275.91333,-29105.16758,-520.7285906,-27890.81966,-32096.99328,-71172.35764,0.028,0.846,0.48,192,0,0,0,0,0,0,0,0,0,1709549513,0, 2024-03-04 16:21:53.454
13,-99849.46696,-31604.45024,-12269.58779,-29108.36388,-320.1216841,-27888.56213,-32076.6979,-71203.35951,0.028,0.846,0.48,192,0,0,0,0,0,0,0,0,0,1709549513,0, 2024-03-04 16:21:53.454
14,-99818.42039,-31583.84193,-12250.83467,-29099.22202,-39.33907024,-27879.62143,-32080.67651,-71201.12433,0.028,0.846,0.48,192,0,0,0,0,0,0,0,0,0,1709549513,0, 2024-03-04 16:21:53.454
15,-99798.43793,-31571.86139,-12245.53731,-29094.23758,-32.58884342,-27884.56117,-32098.96023,-71225.77831,0.028,0.846,0.48,192,0,0,0,0,0,0,0,0,0,1709549513,0, 2024-03-04 16:21:53.454
16,-99810.44082,-31579.01395,-12257.71901,-29095.64574,-323.4073905,-27892.67485,-32107.05156,-71240.26224,0.032,0.846,0.476,192,1,0,26,112,14,224,0,0,0,1709549513,0, 2024-03-04 16:21:53.454
17,-99843.14142,-31597.6106,-12270.10188,-29103.17828,-527.4341139,-27894.53005,-32097.35091,-71238.69762,0.032,0.846,0.476,192,0,0,0,0,0,0,0,0,0,1709549513,0, 2024-03-04 16:21:53.454
18,-99844.97426,-31599.75637,-12261.13883,-29101.94893,-324.0555911,-27881.38722,-32076.07205,-71240.95514,0.032,0.846,0.476,192,0,0,0,0,0,0,0,0,0,1709549513,0, 2024-03-04 16:21:53.454
19,-99817.92865,-31586.12181,-12249.04653,-29097.56799,-39.09320105,-27872.223,-32081.61528,-71283.11053,0.032,0.846,0.476,192,0,0,0,0,0,0,0,0,0,1709549513,0, 2024-03-04 16:21:53.454
20,-99796.31451,-31571.14614,-12244.97852,-29088.47083,-26.08448578,-27871.23953,-32095.45101,-71298.66735,0.032,0.846,0.476,192,0,0,0,0,0,0,0,0,0,1709549513,0, 2024-03-04 16:21:53.454
21,-99814.33002,-31577.20346,-12253.94157,-29083.50874,-321.2616231,-27870.56898,-32104.21289,-71242.22919,0.032,0.846,0.476,192,0,0,0,0,0,0,0,0,0,1709549513,0, 2024-03-04 16:21:53.454
22,-99848.52819,-31595.88952,-12265.60918,-29087.97909,-527.1882447,-27869.33963,-32088.74549,-71219.49747,0.032,0.846,0.476,192,0,0,0,0,0,0,0,0,0,1709549513,0, 2024-03-04 16:21:53.454
23,-99848.59524,-31594.70488,-12259.55185,-29086.48152,-315.2490038,-27855.01216,-32071.86992,-71206.10877,0.032,0.846,0.476,192,0,0,0,0,0,0,0,0,0,1709549513,0, 2024-03-04 16:21:53.454
24,-99815.53701,-31570.45323,-12241.5587,-29079.61954,-35.65103241,-27848.61956,-32072.22755,-71288.96669,0.032,0.846,0.476,192,0,0,0,0,0,0,0,0,0,1709549513,0, 2024-03-04 16:21:53.454
25,-99800.5837,-31560.23849,-12241.89398,-29075.75268,-25.95037531,-27851.48059,-32091.58416,-71266.90552,0.032,0.846,0.476,192,0,0,0,0,0,0,0,0,0,1709549513,0, 2024-03-04 16:21:53.454
26,-99816.31932,-31566.8099,-12251.03584,-29071.55056,-321.9321754,-27849.08895,-32101.24011,-71160.39946,0.036,0.848,0.472,192,1,32,26,128,14,192,0,0,0,1709549513,0, 2024-03-04 16:21:53.454
27,-99856.3513,-31594.43666,-12272.64998,-29093.87995,-529.4234192,-27870.70309,-32095.58512,-71225.0407,0.036,0.848,0.472,192,0,0,0,0,0,0,0,0,0,1709549513,0, 2024-03-04 16:21:53.455
28,-99867.63893,-31603.33265,-12276.13685,-29107.53687,-337.8466174,-27878.23562,-32078.35192,-71269.11834,0.036,0.848,0.472,192,0,0,0,0,0,0,0,0,0,1709549513,0, 2024-03-04 16:21:53.455
29,-99839.0734,-31587.2841,-12255.86382,-29102.32891,-46.24575928,-27871.28423,-32068.4948,-71232.81911,0.036,0.848,0.472,192,0,0,0,0,0,0,0,0,0,1709549513,0, 2024-03-04 16:21:53.455
30,-99819.29211,-31579.55039,-12252.04167,-29100.76429,-41.21661678,-27876.6263,-32087.65025,-71187.04274,0.036,0.848,0.472,192,0,0,0,0,0,0,0,0,0,1709549513,0, 2024-03-04 16:21:53.455
31,-99832.81491,-31591.97796,-12268.11257,-29114.95764,-349.9612629,-27903.56015,-32096.16626,-71260.95995,0.036,0.848,0.472,192,0,0,0,0,0,0,0,0,0,1709549513,0, 2024-03-04 16:21:53.455
32,-99868.42124,-31613.39094,-12282.10476,-29129.39687,-555.1726288,-27914.91484,-32095.40631,-71249.26999,0.036,0.848,0.472,192,0,0,0,0,0,0,0,0,0,1709549513,0, 2024-03-04 16:21:53.455
33,-99857.44653,-31598.37056,-12260.69179,-29111.8284,-330.627004,-27883.26477,-32067.77955,-71139.05354,0.036,0.848,0.472,192,0,0,0,0,0,0,0,0,0,1709549513,0, 2024-03-04 16:21:53.455
34,-99824.27655,-31575.05769,-12244.91146,-29103.06652,-44.30115751,-27874.65934,-32063.89035,-71163.01461,0.036,0.848,0.472,192,0,0,0,0,0,0,0,0,0,1709549513,0, 2024-03-04 16:21:53.455
35,-99804.91993,-31564.2171,-12243.83858,-29102.12774,-35.60632892,-27884.44941,-32084.25278,-71221.8444,0.036,0.848,0.472,192,0,0,0,0,0,0,0,0,0,1709549513,0, 2024-03-04 16:21:53.455
36,-99823.6507,-31575.50473,-12261.74233,-29110.71081,-350.6765188,-27901.92847,-32106.98451,-71270.81707,0.036,0.848,0.474,192,1,32,26,128,14,208,0,0,0,1709549513,0, 2024-03-04 16:21:53.455
37,-99863.05682,-31600.114,-12282.32828,-29126.71466,-560.0676608,-27915.54069,-32104.9058,-71314.55944,0.036,0.848,0.474,192,0,0,0,0,0,0,0,0,0,1709549513,0, 2024-03-04 16:21:53.455
38,-99870.11997,-31601.83508,-12279.53431,-29128.52515,-361.5394666,-27906.93526,-32088.85724,-71302.86948,0.036,0.848,0.474,192,0,0,0,0,0,0,0,0,0,1709549513,0, 2024-03-04 16:21:53.455
39,-99835.98886,-31575.01299,-12262.79286,-29110.4873,-75.01245439,-27882.84008,-32088.47726,-71260.75879,0.036,0.848,0.474,192,0,0,0,0,0,0,0,0,0,1709549513,0, 2024-03-04 16:21:53.455
40,-99809.70321,-31556.21517,-12252.35459,-29093.947,-43.92117785,-27871.37364,-32103.18471,-71235.16604,0.036,0.848,0.474,192,0,0,0,0,0,0,0,0,0,1709549513,0, 2024-03-04 16:21:53.455
41,-99825.10356,-31565.53585,-12259.4848,-29090.81776,-333.9350622,-27872.11125,-32101.28481,-71215.47415,0.036,0.848,0.474,192,0,0,0,0,0,0,0,0,0,1709549513,0, 2024-03-04 16:21:53.455
42,-99855.77015,-31584.31132,-12274.2146,-29097.1433,-553.0715648,-27871.95478,-32090.93596,-71198.06215,0.036,0.848,0.474,192,0,0,0,0,0,0,0,0,0,1709549513,0, 2024-03-04 16:21:53.455
43,-99859.52525,-31585.54066,-12265.00568,-29094.97518,-369.2955219,-27856.62149,-32086.68912,-71209.0145,0.036,0.848,0.474,192,0,0,0,0,0,0,0,0,0,1709549513,0, 2024-03-04 16:21:53.455
44,-99836.88293,-31572.21902,-12257.6296,-29094.28228,-89.11640514,-27851.54764,-32094.26637,-71262.65869,0.036,0.848,0.474,192,0,0,0,0,0,0,0,0,0,1709549513,0, 2024-03-04 16:21:53.455
45,-99812.25131,-31558.11507,-12251.12525,-29084.42516,-55.67819544,-27847.07729,-32102.17888,-71259.06006,0.036,0.848,0.474,192,0,0,0,0,0,0,0,0,0,1709549513,0, 2024-03-04 16:21:53.455
46,-99820.92378,-31558.94209,-12251.10289,-29073.49516,-347.4355158,-27842.13756,-32102.76003,-71213.37309,0.038,0.842,0.482,192,1,48,26,80,15,16,0,0,0,1709549513,0, 2024-03-04 16:21:53.455
47,-99855.39017,-31578.63397,-12266.90558,-29084.02283,-569.9471319,-27851.81586,-32097.46267,-71243.30208,0.038,0.842,0.482,192,0,0,0,0,0,0,0,0,0,1709549513,0, 2024-03-04 16:21:53.455
48,-99869.20355,-31586.56884,-12271.04065,-29093.2541,-379.8008418,-27849.69245,-32075.75912,-71259.41768,0.038,0.842,0.482,192,0,0,0,0,0,0,0,0,0,1709549513,0, 2024-03-04 16:21:53.455
49,-99846.29301,-31569.73798,-12256.82494,-29082.27939,-80.55568702,-27828.88297,-32076.11675,-71187.15449,0.038,0.842,0.482,192,0,0,0,0,0,0,0,0,0,1709549513,0, 2024-03-04 16:21:53.455
50,-99833.329,-31561.93722,-12259.4848,-29083.75461,-55.85700939,-27836.8849,-32104.72698,-71203.98536,0.038,0.842,0.482,192,0,0,0,0,0,0,0,0,0,1709549513,0, 2024-03-04 16:21:53.455
51,-99853.04324,-31575.43767,-12276.1145,-29094.84107,-351.3470711,-27856.50973,-32110.53844,-71216.56939,0.038,0.842,0.482,192,0,0,0,0,0,0,0,0,0,1709549513,0, 2024-03-04 16:21:53.455
52,-99881.29585,-31591.86621,-12281.99301,-29101.83717,-561.6322829,-27863.32701,-32091.38299,-71193.56944,0.038,0.842,0.482,192,0,0,0,0,0,0,0,0,0,1709549513,0, 2024-03-04 16:21:53.455
53,-99887.97902,-31595.50954,-12276.89681,-29109.83909,-382.0807197,-27865.04809,-32080.98943,-71225.33127,0.038,0.842,0.482,192,0,0,0,0,0,0,0,0,0,1709549513,0, 2024-03-04 16:21:53.455
54,-99861.46985,-31583.77487,-12264.98333,-29111.02374,-102.6615623,-27865.96452,-32078.53074,-71271.7335,0.038,0.842,0.482,192,0,0,0,0,0,0,0,0,0,1709549513,0, 2024-03-04 16:21:53.455
55,-99848.46113,-31580.15389,-12266.61501,-29115.0694,-77.09116663,-27881.49898,-32100.07782,-71275.55564,0.038,0.842,0.482,192,0,0,0,0,0,0,0,0,0,1709549513,0, 2024-03-04 16:21:53.455
56,-99860.2405,-31587.86524,-12278.34967,-29117.48339,-362.0535567,-27893.81479,-32109.73377,-71263.55276,0.036,0.848,0.482,192,1,32,26,128,15,16,0,0,0,1709549513,0, 2024-03-04 16:21:53.455
57,-99885.07329,-31599.26463,-12278.86376,-29116.52227,-564.7615272,-27891.42315,-32102.3577,-71245.09022,0.036,0.848,0.482,192,0,0,0,0,0,0,0,0,0,1709549513,0, 2024-03-04 16:21:53.455
58,-99881.04998,-31591.37447,-12261.49646,-29103.02181,-386.0369785,-27868.3338,-32084.72217,-71186.19337,0.036,0.848,0.482,192,0,0,0,0,0,0,0,0,0,1709549513,0, 2024-03-04 16:21:53.455
59,-99841.97913,-31561.60194,-12239.79291,-29080.82653,-99.77818725,-27841.01997,-32078.79896,-71135.61137,0.036,0.848,0.482,192,0,0,0,0,0,0,0,0,0,1709549513,0, 2024-03-04 16:21:53.455
60,-99809.23382,-31537.9985,-12226.38187,-29067.77311,-44.88230287,-27838.11424,-32083.44812,-71175.7104,0.036,0.848,0.482,192,0,0,0,0,0,0,0,0,0,1709549513,0, 2024-03-04 16:21:53.455
61,-99830.17741,-31552.37067,-12249.2924,-29079.26191,-327.9894981,-27858.07435,-32112.46069,-71205.2147,0.036,0.848,0.482,192,0,0,0,0,0,0,0,0,0,1709549513,0, 2024-03-04 16:21:53.455
62,-99864.44263,-31573.38131,-12264.11161,-29087.55441,-550.4564107,-27860.75656,-32113.10889,-71188.04856,0.036,0.848,0.482,192,0,0,0,0,0,0,0,0,0,1709549513,0, 2024-03-04 16:21:53.455
63,-99873.53979,-31578.49986,-12260.35652,-29092.71766,-379.3091034,-27856.04034,-32085.59389,-71205.79585,0.036,0.848,0.482,192,0,0,0,0,0,0,0,0,0,1709549513,0, 2024-03-04 16:21:53.455
64,-99848.08115,-31561.37843,-12248.37598,-29089.63312,-96.58188779,-27850.02772,-32090.19835,-71250.78991,0.036,0.848,0.482,192,0,0,0,0,0,0,0,0,0,1709549513,0, 2024-03-04 16:21:53.455
65,-99827.62931,-31547.49799,-12238.92119,-29081.27357,-39.5178842,-27848.39604,-32099.92136,-71251.304,0.036,0.848,0.482,192,0,0,0,0,0,0,0,0,0,1709549513,0, 2024-03-04 16:21:53.455
66,-99844.97426,-31560.17143,-12254.3439,-29085.96743,-322.4686173,-27858.07435,-32115.92521,-71231.79093,0.036,0.842,0.478,192,1,32,26,80,14,240,0,0,0,1709549513,0, 2024-03-04 16:21:53.455
67,-99880.15591,-31581.20442,-12270.30304,-29097.27741,-560.402937,-27864.15402,-32112.39363,-71242.65388,0.036,0.842,0.478,192,0,0,0,0,0,0,0,0,0,1709549513,0, 2024-03-04 16:21:53.455
68,-99889.32012,-31585.16068,-12267.24085,-29101.94893,-402.0184758,-27855.86153,-32087.31497,-71246.7666,0.036,0.842,0.478,192,0,0,0,0,0,0,0,0,0,1709549513,0, 2024-03-04 16:21:53.455
69,-99868.60005,-31573.2025,-12255.37208,-29101.09956,-115.983202,-27850.85474,-32091.11477,-71289.19021,0.036,0.842,0.478,192,0,0,0,0,0,0,0,0,0,1709549513,0, 2024-03-04 16:21:53.455
70,-99843.09671,-31557.39982,-12248.17482,-29094.37169,-55.32056753,-27852.08408,-32108.66089,-71329.19983,0.036,0.842,0.478,192,0,0,0,0,0,0,0,0,0,1709549513,0, 2024-03-04 16:21:53.455
71,-99852.23858,-31561.73605,-12253.0922,-29086.03449,-325.7766754,-27845.9597,-32108.81735,-71257.49543,0.036,0.842,0.478,192,0,0,0,0,0,0,0,0,0,1709549513,0, 2024-03-04 16:21:53.455
72,-99884.67096,-31577.38228,-12260.40122,-29082.59232,-550.5458177,-27832.03457,-32099.02729,-71165.18273,0.036,0.842,0.478,192,0,0,0,0,0,0,0,0,0,1709549513,0, 2024-03-04 16:21:53.455
73,-99899.9372,-31581.38324,-12263.03873,-29088.20261,-391.937839,-27826.84896,-32076.51908,-71179.10787,0.036,0.842,0.478,192,0,0,0,0,0,0,0,0,0,1709549513,0, 2024-03-04 16:21:53.455
74,-99874.43386,-31561.22196,-12250.87938,-29081.22886,-110.5070246,-27816.56716,-32079.13424,-71202.64425,0.036,0.842,0.478,192,0,0,0,0,0,0,0,0,0,1709549514,0, 2024-03-04 16:21:53.935
75,-99854.42905,-31548.16855,-12243.72682,-29074.00925,-50.20201805,-27815.53898,-32088.25375,-71206.19818,0.036,0.842,0.478,192,0,0,0,0,0,0,0,0,0,1709549514,0, 2024-03-04 16:21:53.935
76,-99867.90715,-31556.03636,-12255.28267,-29076.08796,-328.1236086,-27826.71485,-32100.12252,-71199.89499,0.034,0.844,0.47,192,1,16,26,96,14,176,0,0,0,1709549514,0, 2024-03-04 16:21:53.935
77,-99901.32301,-31571.39201,-12268.31374,-29084.33575,-554.189152,-27833.06275,-32096.52389,-71141.66869,0.034,0.844,0.47,192,0,0,0,0,0,0,0,0,0,1709549514,0, 2024-03-04 16:21:53.935
78,-99912.05185,-31579.66215,-12266.90558,-29096.80803,-396.9893333,-27838.96361,-32073.18867,-71162.07584,0.034,0.844,0.47,192,0,0,0,0,0,0,0,0,0,1709549514,0, 2024-03-04 16:21:53.935
79,-99887.88961,-31564.2618,-12258.70249,-29101.34543,-115.6255741,-27845.89265,-32071.26642,-71230.89686,0.034,0.844,0.47,192,0,0,0,0,0,0,0,0,0,1709549514,0, 2024-03-04 16:21:53.935
80,-99863.45915,-31546.64863,-12252.42165,-29095.06459,-60.81909666,-27848.68662,-32087.87377,-71201.01258,0.034,0.844,0.47,192,0,0,0,0,0,0,0,0,0,1709549514,0, 2024-03-04 16:21:53.935
81,-99871.25991,-31547.5874,-12259.5295,-29094.03641,-323.7873702,-27858.90136,-32098.26733,-71197.05632,0.034,0.844,0.47,192,0,0,0,0,0,0,0,0,0,1709549514,0, 2024-03-04 16:21:53.935
82,-99902.03826,-31560.23849,-12273.58875,-29103.31239,-554.9044078,-27871.19482,-32093.79698,-71241.0222,0.034,0.844,0.47,192,0,0,0,0,0,0,0,0,0,1709549514,0, 2024-03-04 16:21:53.935
83,-99906.978,-31560.46201,-12273.0076,-29108.47564,-399.3139147,-27867.6856,-32068.80773,-71246.2078,0.034,0.844,0.47,192,0,0,0,0,0,0,0,0,0,1709549514,0, 2024-03-04 16:21:53.935
84,-99874.29975,-31537.93145,-12251.41582,-29094.90813,-105.7013995,-27852.68758,-32067.98071,-71220.07861,0.034,0.844,0.47,192,0,0,0,0,0,0,0,0,0,1709549514,0, 2024-03-04 16:21:53.935
85,-99851.38921,-31523.46987,-12242.31866,-29085.67686,-47.98919535,-27852.01703,-32090.46657,-71217.66463,0.034,0.844,0.47,192,0,0,0,0,0,0,0,0,0,1709549514,0, 2024-03-04 16:21:53.935
86,-99866.74486,-31537.19384,-12263.374,-29096.96449,-310.510434,-27871.30658,-32106.73864,-71241.20101,0.034,0.85,0.472,192,1,16,26,144,14,192,0,0,0,1709549514,0, 2024-03-04 16:21:53.935
87,-99894.63984,-31551.32014,-12277.05327,-29099.08791,-530.1163232,-27870.63603,-32096.34508,-71224.30309,0.034,0.85,0.472,192,0,0,0,0,0,0,0,0,0,1709549514,0, 2024-03-04 16:21:53.935
88,-99899.64663,-31550.22491,-12265.00568,-29096.09277,-376.8280598,-27856.46502,-32082.30818,-71212.56843,0.034,0.85,0.472,192,0,0,0,0,0,0,0,0,0,1709549514,0, 2024-03-04 16:21:53.935
89,-99879.30654,-31539.02668,-12259.68596,-29101.12191,-89.36227433,-27855.90623,-32097.57442,-71243.99498,0.034,0.85,0.472,192,0,0,0,0,0,0,0,0,0,1709549514,0, 2024-03-04 16:21:53.935
90,-99853.37852,-31520.96647,-12253.36042,-29090.25897,-22.3740962,-27849.35717,-32106.02338,-71250.7005,0.034,0.85,0.472,192,0,0,0,0,0,0,0,0,0,1709549514,0, 2024-03-04 16:21:53.935
91,-99862.1404,-31522.03936,-12258.1884,-29079.10545,-289.9915326,-27842.33872,-32116.37224,-71215.02712,0.034,0.85,0.472,192,0,0,0,0,0,0,0,0,0,1709549514,0, 2024-03-04 16:21:53.935
92,-99897.52321,-31541.26186,-12272.20294,-29084.78279,-517.7781603,-27842.65165,-32113.06418,-71225.39833,0.034,0.85,0.472,192,0,0,0,0,0,0,0,0,0,1709549514,0, 2024-03-04 16:21:53.935
93,-99906.84389,-31546.15689,-12272.53822,-29094.32698,-364.3334346,-27840.14825,-32100.23428,-71271.55468,0.034,0.85,0.472,192,0,0,0,0,0,0,0,0,0,1709549514,0, 2024-03-04 16:21:53.935
94,-99883.46396,-31534.04224,-12258.63543,-29083.39698,-70.72091946,-27820.18814,-32095.24984,-71218.40223,0.034,0.85,0.472,192,0,0,0,0,0,0,0,0,0,1709549514,0, 2024-03-04 16:21:53.935
95,-99852.59621,-31515.71381,-12242.36336,-29064.21918,5.11854948,-27805.41364,-32089.28193,-71175.59864,0.034,0.85,0.472,192,0,0,0,0,0,0,0,0,0,1709549514,0, 2024-03-04 16:21:53.935
96,-99862.76625,-31521.74878,-12253.67335,-29065.02385,-250.9206833,-27813.54968,-32099.22845,-71201.79489,0.038,0.85,0.472,192,1,48,26,144,14,192,0,0,0,1709549514,0, 2024-03-04 16:21:53.935
97,-99903.51348,-31548.34736,-12277.63442,-29084.29105,-489.0338169,-27829.82175,-32108.43737,-71222.62671,0.038,0.85,0.472,192,0,0,0,0,0,0,0,0,0,1709549514,0, 2024-03-04 16:21:53.935
98,-99919.31616,-31563.16657,-12282.64121,-29100.71958,-352.6881758,-27834.73913,-32096.54624,-71223.6996,0.038,0.85,0.472,192,0,0,0,0,0,0,0,0,0,1709549514,0, 2024-03-04 16:21:53.935
99,-99883.12869,-31538.62435,-12251.12525,-29087.53205,-43.22827378,-27816.4554,-32082.97874,-71200.43143,0.038,0.85,0.472,192,0,0,0,0,0,0,0,0,0,1709549514,0, 2024-03-04 16:21:53.935
100,-99872.48926,-31538.24437,-12258.8813,-29099.15496,26.3974102,-27835.87907,-32090.62303,-71245.64901,0.038,0.85,0.472,192,0,0,0,0,0,0,0,0,0,1709549514,0, 2024-03-04 16:21:53.935
101,-99888.73898,-31550.85076,-12277.81323,-29109.79439,-243.8351803,-27854.22985,-32110.76195,-71243.88322,0.038,0.85,0.472,192,0,0,0,0,0,0,0,0,0,1709549514,0, 2024-03-04 16:21:53.935
102,-99910.71074,-31561.73605,-12279.93665,-29108.34153,-473.4993545,-27848.17253,-32100.01076,-71190.55196,0.038,0.85,0.472,192,0,0,0,0,0,0,0,0,0,1709549514,0, 2024-03-04 16:21:53.935
103,-99921.7525,-31570.09561,-12284.07172,-29115.96347,-336.8184372,-27844.48449,-32076.38497,-71181.54421,0.038,0.85,0.472,192,0,0,0,0,0,0,0,0,0,1709549514,0, 2024-03-04 16:21:53.935
104,-99899.35606,-31557.01984,-12274.39341,-29114.30944,-54.44884949,-27840.61764,-32081.39176,-71224.81718,0.038,0.85,0.472,192,0,0,0,0,0,0,0,0,0,1709549514,0, 2024-03-04 16:21:53.935
105,-99868.80122,-31538.11026,-12259.41774,-29107.9839,26.06213403,-27845.62443,-32094.35577,-71258.993,0.038,0.85,0.472,192,0,0,0,0,0,0,0,0,0,1709549514,0, 2024-03-04 16:21:53.935
106,-99876.02083,-31540.92658,-12273.54405,-29108.25212,-232.3687354,-27855.66036,-32113.60063,-71184.6511,0.036,0.846,0.468,192,1,32,26,112,14,160,0,0,0,1709549514,0, 2024-03-04 16:21:53.935
107,-99890.84004,-31543.31822,-12279.53431,-29104.07234,-482.820032,-27854.16279,-32107.76682,-71163.61811,0.036,0.846,0.468,192,0,0,0,0,0,0,0,0,0,1709549514,0, 2024-03-04 16:21:53.935
108,-99891.6447,-31541.7983,-12269.63249,-29102.39596,-337.0643064,-27848.4184,-32085.19156,-71211.31673,0.036,0.846,0.468,192,0,0,0,0,0,0,0,0,0,1709549514,0, 2024-03-04 16:21:53.935
109,-99858.85469,-31518.88776,-12243.03391,-29089.67782,-34.55579693,-27836.84019,-32088.67843,-71222.67142,0.036,0.846,0.468,192,0,0,0,0,0,0,0,0,0,1709549514,0, 2024-03-04 16:21:53.935
110,-99823.44953,-31495.88782,-12224.16904,-29072.28816,51.81134365,-27828.50299,-32095.33925,-71220.30213,0.036,0.846,0.468,192,0,0,0,0,0,0,0,0,0,1709549514,0, 2024-03-04 16:21:53.935
111,-99831.49616,-31499.68761,-12232.23802,-29071.55056,-202.2162321,-27837.84602,-32110.0467,-71265.69852,0.036,0.846,0.468,192,0,0,0,0,0,0,0,0,0,1709549514,0, 2024-03-04 16:21:53.935
112,-99868.28713,-31521.86054,-12253.49453,-29083.10641,-454.0309851,-27844.26097,-32115.29936,-71259.90942,0.036,0.846,0.468,192,0,0,0,0,0,0,0,0,0,1709549514,0, 2024-03-04 16:21:53.935
113,-99876.89255,-31527.0238,-12251.77345,-29086.12389,-326.9613179,-27832.50395,-32089.70661,-71209.64035,0.036,0.846,0.468,192,0,0,0,0,0,0,0,0,0,1709549514,0, 2024-03-04 16:21:53.935
114,-99854.92079,-31516.29496,-12237.82596,-29081.78766,-32.00769806,-27822.11039,-32087.13616,-71194.15059,0.036,0.846,0.468,192,0,0,0,0,0,0,0,0,0,1709549514,0, 2024-03-04 16:21:53.935
115,-99830.22211,-31505.61082,-12232.68506,-29077.78669,48.01154709,-27824.34557,-32105.19637,-71237.62473,0.036,0.846,0.468,192,0,0,0,0,0,0,0,0,0,1709549514,0, 2024-03-04 16:21:53.935
116,-99838.60401,-31509.50003,-12242.47512,-29077.98786,-205.4348833,-27829.95586,-32113.39946,-71257.07075,0.036,0.846,0.468,192,0,0,0,0,0,0,0,0,0,1709549514,0, 2024-03-04 16:21:53.935
117,-99866.56605,-31518.39602,-12246.90077,-29074.29982,-434.1155808,-27821.08221,-32090.33246,-71226.78414,0.038,0.846,0.472,192,1,48,26,112,14,192,0,0,0,1709549514,0, 2024-03-04 16:21:53.935
118,-99881.04998,-31523.31341,-12247.63837,-29074.6798,-322.1333411,-27809.05697,-32081.95056,-71218.5587,0.038,0.846,0.472,192,0,0,0,0,0,0,0,0,0,1709549514,0, 2024-03-04 16:21:53.935
119,-99864.35322,-31514.75269,-12236.77543,-29071.79643,-29.63841315,-27798.14932,-32080.16242,-71220.95033,0.038,0.846,0.472,192,0,0,0,0,0,0,0,0,0,1709549514,0, 2024-03-04 16:21:53.935
120,-99850.69631,-31512.62927,-12240.44111,-29073.02577,46.53633196,-27801.36797,-32102.06713,-71212.23315,0.038,0.846,0.472,192,0,0,0,0,0,0,0,0,0,1709549514,0, 2024-03-04 16:21:53.935
121,-99858.02768,-31516.71964,-12250.90173,-29073.11518,-208.1394444,-27808.52053,-32124.32946,-71224.25839,0.038,0.846,0.472,192,0,0,0,0,0,0,0,0,0,1709549514,0, 2024-03-04 16:21:53.935
122,-99883.08399,-31528.02962,-12258.90365,-29076.535,-455.528552,-27811.24745,-32108.90676,-71240.23989,0.038,0.846,0.472,192,0,0,0,0,0,0,0,0,0,1709549514,0, 2024-03-04 16:21:53.935
123,-99888.62722,-31527.53789,-12253.42748,-29075.99855,-326.1119516,-27798.61871,-32078.30722,-71195.04466,0.038,0.846,0.472,192,0,0,0,0,0,0,0,0,0,1709549514,0, 2024-03-04 16:21:53.935
124,-99869.89646,-31517.94899,-12240.99991,-29072.04229,-35.47221845,-27786.54877,-32090.24305,-71174.57046,0.038,0.846,0.472,192,0,0,0,0,0,0,0,0,0,1709549514,0, 2024-03-04 16:21:53.935
125,-99843.09671,-31505.27555,-12227.83473,-29067.08021,58.65097745,-27789.94623,-32090.95831,-71212.36726,0.038,0.846,0.472,192,0,0,0,0,0,0,0,0,0,1709549514,0, 2024-03-04 16:21:53.935
126,-99840.79448,-31500.73814,-12226.65009,-29060.88877,-181.585572,-27792.98607,-32098.37909,-71179.39844,0.038,0.846,0.472,192,0,0,0,0,0,0,0,0,0,1709549514,0, 2024-03-04 16:21:53.935
127,-99884.84977,-31530.3095,-12256.40026,-29088.0685,-454.3215578,-27822.78095,-32102.33535,-71215.4518,0.038,0.852,0.472,192,1,48,26,160,14,192,0,0,0,1709549514,0, 2024-03-04 16:21:53.935
128,-99907.31328,-31547.96738,-12266.65971,-29108.74386,-353.3140246,-27835.90142,-32086.26444,-71240.12813,0.038,0.852,0.472,192,0,0,0,0,0,0,0,0,0,1709549514,0, 2024-03-04 16:21:53.935
129,-99884.82742,-31535.04807,-12253.80746,-29106.24046,-64.39537578,-27828.72651,-32085.79506,-71233.69083,0.038,0.852,0.472,192,0,0,0,0,0,0,0,0,0,1709549514,0, 2024-03-04 16:21:53.935
130,-99856.77598,-31518.15015,-12239.72586,-29097.1433,37.46152371,-27824.97142,-32090.84655,-71199.91734,0.038,0.852,0.472,192,0,0,0,0,0,0,0,0,0,1709549514,0, 2024-03-04 16:21:53.935
131,-99862.20746,-31519.17833,-12246.47608,-29095.8469,-209.659363,-27834.18034,-32098.33438,-71175.12926,0.038,0.852,0.472,192,0,0,0,0,0,0,0,0,0,1709549514,0, 2024-03-04 16:21:53.935
132,-99894.39397,-31538.31143,-12261.63057,-29110.28613,-464.625712,-27851.34648,-32094.1099,-71203.98536,0.038,0.852,0.472,192,0,0,0,0,0,0,0,0,0,1709549514,0, 2024-03-04 16:21:53.935
133,-99905.74865,-31543.7429,-12266.05621,-29120.36677,-352.6211205,-27852.84404,-32074.35096,-71219.83274,0.038,0.852,0.472,192,0,0,0,0,0,0,0,0,0,1709549514,0, 2024-03-04 16:21:53.935
134,-99892.09174,-31541.68654,-12261.65292,-29127.65344,-72.06202412,-27857.00147,-32087.42673,-71258.43421,0.038,0.852,0.472,192,0,0,0,0,0,0,0,0,0,1709549514,0, 2024-03-04 16:21:53.935
135,-99861.89453,-31522.70991,-12242.8998,-29114.13063,25.23511949,-27851.90527,-32102.96119,-71233.80258,0.038,0.852,0.472,192,0,0,0,0,0,0,0,0,0,1709549514,0, 2024-03-04 16:21:53.935
136,-99852.08212,-31511.087,-12237.04365,-29098.59617,-210.9110607,-27845.40091,-32108.92911,-71218.17872,0.038,0.852,0.472,192,0,0,0,0,0,0,0,0,0,1709549514,0, 2024-03-04 16:21:53.935
137,-99875.32793,-31524.36394,-12242.96686,-29100.9878,-454.7685927,-27849.64774,-32102.20124,-71255.30496,0.036,0.846,0.474,192,1,32,26,112,14,208,0,0,0,1709549514,0, 2024-03-04 16:21:53.935
138,-99881.49701,-31522.17347,-12233.08739,-29092.42709,-343.1886844,-27831.92281,-32082.10702,-71198.44213,0.036,0.846,0.474,192,0,0,0,0,0,0,0,0,0,1709549514,0, 2024-03-04 16:21:53.935
139,-99862.20746,-31510.4388,-12224.30315,-29087.39794,-62.07079435,-27822.8927,-32080.74356,-71190.35079,0.036,0.846,0.474,192,0,0,0,0,0,0,0,0,0,1709549514,0, 2024-03-04 16:21:53.935
140,-99831.29499,-31490.99278,-12213.12728,-29079.91011,32.79000912,-27824.61379,-32099.36256,-71245.20197,0.036,0.846,0.474,192,0,0,0,0,0,0,0,0,0,1709549514,0, 2024-03-04 16:21:53.935
141,-99839.38632,-31491.95391,-12223.81141,-29078.65841,-211.3357438,-27833.19686,-32107.09627,-71274.25924,0.036,0.846,0.474,192,0,0,0,0,0,0,0,0,0,1709549514,0, 2024-03-04 16:21:53.935
142,-99870.18703,-31508.82948,-12231.25455,-29078.4796,-465.6091887,-27830.84993,-32107.36449,-71235.83659,0.036,0.846,0.474,192,0,0,0,0,0,0,0,0,0,1709549514,0, 2024-03-04 16:21:53.935
143,-99877.92073,-31508.85183,-12228.54998,-29077.07144,-360.9359695,-27818.10943,-32093.77463,-71195.40229,0.036,0.846,0.474,192,0,0,0,0,0,0,0,0,0,1709549514,0, 2024-03-04 16:21:53.935
144,-99854.65257,-31494.05497,-12219.69869,-29075.39506,-62.04844261,-27807.91704,-32079.80479,-71216.61409,0.036,0.846,0.474,192,0,0,0,0,0,0,0,0,0,1709549514,0, 2024-03-04 16:21:53.935
145,-99832.14436,-31482.54382,-12216.61415,-29076.28913,28.58788116,-27814.19788,-32099.38492,-71299.53907,0.036,0.846,0.474,192,0,0,0,0,0,0,0,0,0,1709549514,0, 2024-03-04 16:21:53.935
146,-99842.11324,-31487.3718,-12232.64035,-29079.48543,-217.4824736,-27821.66336,-32118.56271,-71307.49629,0.036,0.846,0.474,192,0,0,0,0,0,0,0,0,0,1709549514,0, 2024-03-04 16:21:53.935
147,-99874.67973,-31505.56612,-12248.28657,-29081.98882,-485.8375175,-27817.0589,-32113.9359,-71213.01546,0.04,0.842,0.462,192,1,64,26,80,14,112,0,0,0,1709549514,0, 2024-03-04 16:21:53.935
148,-99892.02468,-31516.7867,-12248.19717,-29085.47569,-384.2935424,-27807.5147,-32085.54919,-71178.61613,0.04,0.842,0.462,192,0,0,0,0,0,0,0,0,0,1709549514,0, 2024-03-04 16:21:53.935
149,-99872.86924,-31510.59526,-12237.84831,-29088.7614,-81.38270156,-27805.59245,-32073.5463,-71198.10685,0.04,0.842,0.462,192,0,0,0,0,0,0,0,0,0,1709549514,0, 2024-03-04 16:21:53.935
150,-99858.02768,-31506.84017,-12247.68308,-29095.28811,7.621944859,-27817.43888,-32104.63758,-71215.67532,0.04,0.842,0.462,192,0,0,0,0,0,0,0,0,0,1709549514,0, 2024-03-04 16:21:53.935
151,-99867.01308,-31513.47864,-12261.04942,-29102.97711,-240.3706599,-27833.66625,-32126.98932,-71245.00081,0.04,0.842,0.462,192,0,0,0,0,0,0,0,0,0,1709549514,0, 2024-03-04 16:21:53.935
152,-99892.09174,-31522.08406,-12263.41871,-29104.07234,-491.4925088,-27833.21921,-32107.94563,-71227.67821,0.04,0.842,0.462,192,0,0,0,0,0,0,0,0,0,1709549514,0, 2024-03-04 16:21:53.935
153,-99905.99452,-31529.86247,-12258.00958,-29105.36875,-377.5656673,-27824.54673,-32082.08467,-71169.00488,0.04,0.842,0.462,192,0,0,0,0,0,0,0,0,0,1709549514,0, 2024-03-04 16:21:53.935
154,-99887.93431,-31517.74782,-12247.9513,-29104.96641,-78.49932653,-27823.27268,-32072.76399,-71188.71912,0.04,0.842,0.462,192,0,0,0,0,0,0,0,0,0,1709549514,0, 2024-03-04 16:21:53.935
155,-99857.15596,-31497.31833,-12238.78708,-29098.59617,28.14084627,-27826.96072,-32095.9204,-71241.13396,0.04,0.842,0.462,192,0,0,0,0,0,0,0,0,0,1709549514,0, 2024-03-04 16:21:53.935
156,-99854.98784,-31492.35624,-12242.98921,-29091.82359,-203.5573368,-27831.36402,-32112.52774,-71228.68404,0.04,0.842,0.462,192,0,0,0,0,0,0,0,0,0,1709549514,0, 2024-03-04 16:21:53.935
157,-99885.78855,-31508.22598,-12256.2885,-29096.96449,-463.3069591,-27838.74009,-32106.13514,-71206.04172,0.042,0.852,0.47,192,1,80,26,160,14,176,0,0,0,1709549514,0, 2024-03-04 16:21:53.935
158,-99901.99356,-31519.40185,-12255.88617,-29102.12774,-364.8698765,-27837.77897,-32098.44614,-71211.5179,0.042,0.852,0.47,192,0,0,0,0,0,0,0,0,0,1709549514,0, 2024-03-04 16:21:53.936
159,-99866.27547,-31495.59724,-12224.68313,-29085.40864,-62.31666354,-27817.93062,-32078.86601,-71231.52271,0.042,0.852,0.47,192,0,0,0,0,0,0,0,0,0,1709549514,0, 2024-03-04 16:21:53.936
160,-99839.6769,-31483.03556,-12218.26818,-29082.50291,56.23698905,-27819.96463,-32089.86307,-71256.22138,0.042,0.852,0.47,192,0,0,0,0,0,0,0,0,0,1709549514,0, 2024-03-04 16:21:53.936
161,-99849.42226,-31492.19978,-12232.5733,-29090.25897,-187.0617493,-27837.60015,-32106.69394,-71284.58575,0.042,0.852,0.47,192,0,0,0,0,0,0,0,0,0,1709549514,0, 2024-03-04 16:21:53.936
162,-99878.1219,-31509.34357,-12244.97852,-29096.80803,-457.8978369,-27841.86934,-32100.79308,-71259.06006,0.042,0.852,0.47,192,0,0,0,0,0,0,0,0,0,1709549514,0, 2024-03-04 16:21:53.936
163,-99895.33274,-31519.58066,-12248.62185,-29104.7429,-368.2896934,-27837.89072,-32087.04675,-71257.0037,0.042,0.852,0.47,192,0,0,0,0,0,0,0,0,0,1709549514,0, 2024-03-04 16:21:53.936
164,-99877.49605,-31506.97428,-12232.75211,-29093.63408,-74.00662589,-27820.32225,-32081.77174,-71244.50907,0.042,0.852,0.47,192,0,0,0,0,0,0,0,0,0,1709549514,0, 2024-03-04 16:21:53.936
165,-99847.50001,-31485.13663,-12216.77062,-29075.30565,44.41291623,-27806.8218,-32091.89708,-71247.43715,0.042,0.852,0.47,192,0,0,0,0,0,0,0,0,0,1709549514,0, 2024-03-04 16:21:53.936
166,-99853.46792,-31492.08802,-12225.42074,-29079.26191,-184.1336708,-27821.81982,-32106.53747,-71254.58971,0.042,0.852,0.47,192,0,0,0,0,0,0,0,0,0,1709549514,0, 2024-03-04 16:21:53.936
167,-99891.46589,-31518.03839,-12243.21273,-29089.43195,-438.0271361,-27827.92185,-32098.15557,-71226.71708,0.04,0.854,0.47,192,1,64,26,176,14,176,0,0,0,1709549514,0, 2024-03-04 16:21:53.936
168,-99903.60289,-31521.70408,-12237.28952,-29085.74391,-357.3373386,-27811.44861,-32076.56378,-71219.40806,0.04,0.854,0.47,192,0,0,0,0,0,0,0,0,0,1709549514,0, 2024-03-04 16:21:53.936
169,-99878.1219,-31508.31539,-12220.19043,-29081.27357,-70.09507061,-27801.47973,-32073.56865,-71248.55474,0.04,0.854,0.47,192,0,0,0,0,0,0,0,0,0,1709549514,0, 2024-03-04 16:21:53.936
170,-99854.38435,-31496.69248,-12214.82601,-29073.27164,48.34682326,-27792.53904,-32089.30428,-71200.20791,0.04,0.854,0.47,192,0,0,0,0,0,0,0,0,0,1709549514,0, 2024-03-04 16:21:53.936
171,-99867.79539,-31510.23764,-12231.3663,-29080.69242,-187.262915,-27805.83832,-32103.34117,-71222.29144,0.04,0.854,0.47,192,0,0,0,0,0,0,0,0,0,1709549514,0, 2024-03-04 16:21:53.936
172,-99902.35119,-31534.154,-12253.6957,-29096.02572,-475.9133429,-27819.38348,-32118.78623,-71254.90263,0.04,0.854,0.47,192,0,0,0,0,0,0,0,0,0,1709549514,0, 2024-03-04 16:21:53.936
173,-99916.23162,-31539.45137,-12255.17091,-29097.7915,-392.4742809,-27808.1629,-32096.0098,-71198.50918,0.04,0.854,0.47,192,0,0,0,0,0,0,0,0,0,1709549514,0, 2024-03-04 16:21:53.936
174,-99886.10147,-31518.39602,-12232.84152,-29086.30271,-86.41184406,-27789.78977,-32077.50256,-71172.00001,0.04,0.854,0.47,192,0,0,0,0,0,0,0,0,0,1709549514,0, 2024-03-04 16:21:53.936
175,-99865.49316,-31509.20946,-12228.48293,-29090.21426,40.30019525,-27801.0774,-32093.66287,-71230.89686,0.04,0.854,0.47,192,0,0,0,0,0,0,0,0,0,1709549514,0, 2024-03-04 16:21:53.936
176,-99875.64085,-31517.94899,-12243.72682,-29099.62435,-192.9179064,-27822.13275,-32111.83484,-71247.54891,0.04,0.854,0.47,192,0,0,0,0,0,0,0,0,0,1709549514,0, 2024-03-04 16:21:53.936
177,-99901.03244,-31529.57189,-12257.00376,-29106.48633,-466.8608864,-27829.8441,-32112.25952,-71234.5849,0.036,0.854,0.48,192,1,32,26,176,15,0,0,0,0,1709549514,0, 2024-03-04 16:21:53.936
178,-99915.33755,-31536.54564,-12258.1884,-29113.66124,-394.4188827,-27828.72651,-32096.34508,-71229.57811,0.036,0.854,0.48,192,0,0,0,0,0,0,0,0,0,1709549514,0, 2024-03-04 16:21:53.936
179,-99903.37937,-31533.75167,-12248.89007,-29117.14812,-97.61006804,-27828.34653,-32089.25958,-71233.31085,0.036,0.854,0.48,192,0,0,0,0,0,0,0,0,0,1709549514,0, 2024-03-04 16:21:53.936
180,-99872.46691,-31514.8868,-12234.58496,-29107.80509,29.75017187,-27828.48064,-32098.93788,-71246.90071,0.036,0.854,0.48,192,0,0,0,0,0,0,0,0,0,1709549514,0, 2024-03-04 16:21:53.936
181,-99869.47177,-31511.57874,-12234.5626,-29102.57478,-188.6263715,-27835.05205,-32119.36738,-71268.96188,0.036,0.854,0.48,192,0,0,0,0,0,0,0,0,0,1709549514,0, 2024-03-04 16:21:53.936
182,-99896.0927,-31523.53692,-12240.53052,-29102.95476,-459.9541974,-27836.59432,-32108.1915,-71267.73253,0.036,0.854,0.48,192,0,0,0,0,0,0,0,0,0,1709549514,0, 2024-03-04 16:21:53.936
183,-99903.7817,-31524.43099,-12232.81917,-29098.03737,-381.5889813,-27820.56812,-32081.68233,-71217.64227,0.036,0.854,0.48,192,0,0,0,0,0,0,0,0,0,1709549514,0, 2024-03-04 16:21:53.936
184,-99881.25114,-31507.66718,-12221.84446,-29093.99171,-90.59162028,-27812.23092,-32085.21391,-71235.79189,0.036,0.854,0.48,192,0,0,0,0,0,0,0,0,0,1709549514,0, 2024-03-04 16:21:53.936
185,-99856.3513,-31495.21726,-12218.17878,-29090.77306,35.94160508,-27815.60604,-32090.98066,-71257.0037,0.036,0.854,0.48,192,0,0,0,0,0,0,0,0,0,1709549514,0, 2024-03-04 16:21:53.936
186,-99861.96159,-31500.00054,-12227.90178,-29094.46109,-190.593325,-27830.42524,-32110.00199,-71287.33501,0.036,0.854,0.48,192,0,0,0,0,0,0,0,0,0,1709549514,0, 2024-03-04 16:21:53.936
187,-99894.37162,-31517.16668,-12239.27882,-29101.88187,-466.9279417,-27838.02484,-32113.53357,-71275.22037,0.036,0.852,0.482,192,1,32,26,160,15,16,0,0,0,1709549514,0, 2024-03-04 16:21:53.936
188,-99915.06933,-31528.52136,-12244.41972,-29108.22977,-403.1584147,-27833.48743,-32081.10119,-71247.30304,0.036,0.852,0.482,192,0,0,0,0,0,0,0,0,0,1709549514,0, 2024-03-04 16:21:53.936
189,-99895.13158,-31510.95289,-12232.68506,-29099.26672,-118.4418939,-27818.71293,-32091.58416,-71247.99594,0.036,0.852,0.482,192,0,0,0,0,0,0,0,0,0,1709549514,0, 2024-03-04 16:21:53.936
190,-99857.44653,-31484.53313,-12214.35663,-29082.25704,28.11849452,-27806.95591,-32110.53844,-71265.31854,0.036,0.852,0.482,192,0,0,0,0,0,0,0,0,0,1709549514,0, 2024-03-04 16:21:53.936
191,-99862.72155,-31491.35041,-12228.21471,-29087.04032,-189.3416273,-27822.8033,-32126.56464,-71311.05021,0.036,0.852,0.482,192,0,0,0,0,0,0,0,0,0,1709549514,0, 2024-03-04 16:21:53.936
192,-99891.53294,-31505.49907,-12235.00964,-29082.25704,-463.7092905,-27815.53898,-32113.73474,-71231.58976,0.036,0.852,0.482,192,0,0,0,0,0,0,0,0,0,1709549514,0, 2024-03-04 16:21:53.936
193,-99901.81475,-31505.52142,-12228.41587,-29076.46794,-410.221566,-27797.32231,-32086.30915,-71168.11081,0.036,0.852,0.482,192,0,0,0,0,0,0,0,0,0,1709549514,0, 2024-03-04 16:21:53.936
194,-99891.26472,-31499.75467,-12224.95135,-29083.6205,-118.1960247,-27798.73047,-32076.51908,-71244.19615,0.036,0.852,0.482,192,0,0,0,0,0,0,0,0,0,1709549514,0, 2024-03-04 16:21:54.417
195,-99861.87218,-31479.21341,-12210.89211,-29072.7799,33.32645098,-27790.34856,-32083.80575,-71242.74328,0.036,0.852,0.482,192,0,0,0,0,0,0,0,0,0,1709549514,0, 2024-03-04 16:21:54.417
196,-99866.18607,-31478.83343,-12218.02231,-29068.86835,-178.9257144,-27789.90153,-32102.71533,-71159.59479,0.036,0.852,0.482,192,0,0,0,0,0,0,0,0,0,1709549514,0, 2024-03-04 16:21:54.417
197,-99903.06644,-31503.30859,-12239.72586,-29087.5097,-468.1349359,-27806.95591,-32109.89024,-71195.5811,0.038,0.846,0.476,192,1,48,26,112,14,224,0,0,0,1709549514,0, 2024-03-04 16:21:54.417
198,-99924.97115,-31517.36784,-12246.67725,-29102.66418,-424.0572958,-27813.46027,-32093.34994,-71239.79285,0.038,0.846,0.476,192,0,0,0,0,0,0,0,0,0,1709549514,0, 2024-03-04 16:21:54.417
199,-99909.50375,-31510.86348,-12240.61993,-29106.17341,-128.4778271,-27809.59342,-32088.70078,-71253.47212,0.038,0.846,0.476,192,0,0,0,0,0,0,0,0,0,1709549514,0, 2024-03-04 16:21:54.417
200,-99882.92752,-31499.59821,-12234.38379,-29106.86631,7.554889626,-27815.42722,-32101.28481,-71284.38458,0.038,0.846,0.476,192,0,0,0,0,0,0,0,0,0,1709549514,0, 2024-03-04 16:21:54.417
201,-99879.39595,-31493.89851,-12241.26813,-29100.8984,-201.1880518,-27816.90244,-32120.932,-71264.22331,0.038,0.846,0.476,192,0,0,0,0,0,0,0,0,0,1709549514,0, 2024-03-04 16:21:54.417
202,-99908.36381,-31504.6944,-12248.5995,-29098.55146,-478.0144069,-27812.92383,-32111.79013,-71182.21476,0.038,0.846,0.476,192,0,0,0,0,0,0,0,0,0,1709549514,0, 2024-03-04 16:21:54.417
203,-99924.92645,-31511.42228,-12247.83954,-29101.56895,-432.3944965,-27809.70518,-32090.89125,-71184.38288,0.038,0.846,0.476,192,0,0,0,0,0,0,0,0,0,1709549514,0, 2024-03-04 16:21:54.417
204,-99910.19665,-31504.02385,-12243.97269,-29107.15689,-128.2096062,-27813.99671,-32093.10408,-71257.98717,0.038,0.846,0.476,192,0,0,0,0,0,0,0,0,0,1709549514,0, 2024-03-04 16:21:54.417
205,-99877.63016,-31482.00738,-12228.25941,-29093.09764,24.87749158,-27804.9219,-32101.7989,-71239.92696,0.038,0.846,0.476,192,0,0,0,0,0,0,0,0,0,1709549514,0, 2024-03-04 16:21:54.417
206,-99872.77983,-31478.67697,-12230.29342,-29089.74488,-183.0607871,-27813.54968,-32110.47138,-71271.95701,0.038,0.846,0.476,192,0,0,0,0,0,0,0,0,0,1709549514,0, 2024-03-04 16:21:54.417
207,-99906.978,-31499.82172,-12248.95713,-29099.37848,-470.0124824,-27823.22798,-32111.65602,-71261.02701,0.04,0.848,0.476,192,1,64,26,128,14,224,0,0,0,1709549514,0, 2024-03-04 16:21:54.417
208,-99916.14222,-31498.77119,-12238.25064,-29089.58841,-432.9756418,-27803.89372,-32108.1915,-71219.2963,0.04,0.848,0.476,192,0,0,0,0,0,0,0,0,0,1709549514,0, 2024-03-04 16:21:54.417
209,-99903.51348,-31493.25031,-12227.72297,-29089.72252,-131.1376847,-27798.66341,-32100.18958,-71237.73649,0.04,0.848,0.476,192,0,0,0,0,0,0,0,0,0,1709549514,0, 2024-03-04 16:21:54.417
210,-99885.56503,-31487.70708,-12225.04076,-29092.42709,17.05438102,-27808.18526,-32114.91938,-71283.06583,0.04,0.848,0.476,192,0,0,0,0,0,0,0,0,0,1709549514,0, 2024-03-04 16:21:54.417
211,-99883.62043,-31484.55548,-12225.91248,-29086.45917,-179.1939353,-27814.19788,-32126.0282,-71269.76654,0.04,0.848,0.476,192,0,0,0,0,0,0,0,0,0,1709549514,0, 2024-03-04 16:21:54.417
212,-99909.59315,-31498.41356,-12234.16027,-29089.11903,-455.0591654,-27818.66822,-32112.99713,-71265.11738,0.04,0.848,0.476,192,0,0,0,0,0,0,0,0,0,1709549514,0, 2024-03-04 16:21:54.417
213,-99927.4522,-31508.82948,-12239.72586,-29100.56312,-426.493636,-27825.03847,-32097.08269,-71329.24453,0.04,0.848,0.476,192,0,0,0,0,0,0,0,0,0,1709549514,0, 2024-03-04 16:21:54.417
214,-99909.54845,-31498.92765,-12226.91831,-29099.40083,-130.4000772,-27818.82469,-32087.85142,-71310.62553,0.04,0.848,0.476,192,0,0,0,0,0,0,0,0,0,1709549514,0, 2024-03-04 16:21:54.417
215,-99873.7186,-31475.25716,-12208.2099,-29080.98299,34.71225914,-27800.00452,-32087.33733,-71224.21369,0.04,0.848,0.476,192,0,0,0,0,0,0,0,0,0,1709549514,0, 2024-03-04 16:21:54.417
216,-99874.00918,-31472.41848,-12214.55779,-29074.12101,-155.1434583,-27795.37771,-32109.93494,-71180.00194,0.04,0.848,0.476,192,0,0,0,0,0,0,0,0,0,1709549514,0, 2024-03-04 16:21:54.417
217,-99908.02853,-31485.80718,-12229.24289,-29078.83723,-446.3866885,-27798.35049,-32099.56373,-71186.30513,0.038,0.846,0.482,192,1,48,26,112,15,16,0,0,0,1709549514,0, 2024-03-04 16:21:54.417
218,-99928.99447,-31495.53019,-12234.02616,-29086.95091,-422.7608946,-27796.09296,-32073.12162,-71194.26235,0.038,0.846,0.482,192,0,0,0,0,0,0,0,0,0,1709549514,0, 2024-03-04 16:21:54.417
219,-99909.50375,-31480.17454,-12223.99023,-29084.06753,-120.5653096,-27783.44188,-32072.8534,-71218.42458,0.038,0.846,0.482,192,0,0,0,0,0,0,0,0,0,1709549514,0, 2024-03-04 16:21:54.417
220,-99887.86726,-31464.79654,-12224.21375,-29083.44168,29.70546838,-27785.27472,-32095.3169,-71267.91135,0.038,0.846,0.482,192,0,0,0,0,0,0,0,0,0,1709549514,0, 2024-03-04 16:21:54.417
221,-99892.76229,-31465.57885,-12236.79778,-29083.50874,-175.2600283,-27791.57791,-32115.2323,-71219.56452,0.038,0.846,0.482,192,0,0,0,0,0,0,0,0,0,1709549514,0, 2024-03-04 16:21:54.417
222,-99918.82442,-31477.55939,-12248.01835,-29086.30271,-460.3341771,-27791.46615,-32108.795,-71194.01648,0.038,0.846,0.482,192,0,0,0,0,0,0,0,0,0,1709549514,0, 2024-03-04 16:21:54.417
223,-99939.20922,-31491.2163,-12256.37791,-29099.35613,-439.1447233,-27796.22707,-32088.09728,-71202.33133,0.038,0.846,0.482,192,0,0,0,0,0,0,0,0,0,1709549514,0, 2024-03-04 16:21:54.417
224,-99922.71363,-31479.66045,-12250.87938,-29100.56312,-157.8480193,-27791.84613,-32097.93205,-71194.70938,0.038,0.846,0.482,192,0,0,0,0,0,0,0,0,0,1709549514,0, 2024-03-04 16:21:54.417
225,-99884.49215,-31451.07257,-12231.52277,-29085.14042,0.4023314,-27783.39717,-32109.10792,-71205.25941,0.038,0.846,0.482,192,0,0,0,0,0,0,0,0,0,1709549514,0, 2024-03-04 16:21:54.417
226,-99879.86533,-31449.26208,-12238.11653,-29089.02962,-188.2463918,-27802.70908,-32125.73762,-71267.12904,0.038,0.846,0.482,192,0,0,0,0,0,0,0,0,0,1709549514,0, 2024-03-04 16:21:54.417
227,-99905.05575,-31462.80723,-12247.9513,-29093.79054,-479.9366569,-27811.33685,-32126.7658,-71253.60623,0.036,0.846,0.478,192,1,32,26,112,14,240,0,0,0,1709549514,0, 2024-03-04 16:21:54.417
228,-99917.34921,-31465.46709,-12241.37989,-29089.34255,-451.0358514,-27800.67507,-32108.66089,-71227.5441,0.036,0.846,0.478,192,0,0,0,0,0,0,0,0,0,1709549514,0, 2024-03-04 16:21:54.417
229,-99896.42798,-31450.06674,-12223.31968,-29081.05005,-143.4758477,-27787.84517,-32091.31594,-71261.18347,0.036,0.846,0.478,192,0,0,0,0,0,0,0,0,0,1709549514,0, 2024-03-04 16:21:54.417
230,-99873.83036,-31435.58281,-12218.24583,-29078.30078,16.42853217,-27791.82378,-32105.53165,-71332.53024,0.036,0.846,0.478,192,0,0,0,0,0,0,0,0,0,1709549514,0, 2024-03-04 16:21:54.417
231,-99867.2366,-31427.93851,-12217.15059,-29065.76145,-175.5953044,-27788.33691,-32110.94077,-71292.09593,0.036,0.846,0.478,192,0,0,0,0,0,0,0,0,0,1709549514,0, 2024-03-04 16:21:54.417
232,-99892.44937,-31441.21545,-12226.94066,-29063.12395,-463.1728486,-27784.91709,-32100.36839,-71235.81424,0.036,0.846,0.478,192,0,0,0,0,0,0,0,0,0,1709549514,0, 2024-03-04 16:21:54.417
233,-99913.03532,-31452.23486,-12230.13696,-29066.47671,-448.532456,-27778.0104,-32099.38492,-71221.66559,0.036,0.846,0.478,192,0,0,0,0,0,0,0,0,0,1709549514,0, 2024-03-04 16:21:54.417
234,-99890.97415,-31436.18631,-12210.8027,-29058.56419,-135.8762545,-27761.82774,-32089.50544,-71228.68404,0.036,0.846,0.478,192,0,0,0,0,0,0,0,0,0,1709549514,0, 2024-03-04 16:21:54.417
235,-99870.92464,-31427.26796,-12205.19241,-29059.86059,27.8055701,-27768.64502,-32098.26733,-71264.51388,0.036,0.846,0.478,192,0,0,0,0,0,0,0,0,0,1709549514,0, 2024-03-04 16:21:54.417
236,-99875.19382,-31433.30293,-12213.08258,-29063.50393,-152.0812693,-27781.47492,-32110.56079,-71269.81125,0.036,0.846,0.478,192,0,0,0,0,0,0,0,0,0,1709549514,0, 2024-03-04 16:21:54.417
237,-99905.39103,-31450.29026,-12232.30508,-29072.84696,-446.3643368,-27790.7956,-32117.04279,-71266.83846,0.036,0.846,0.478,192,0,0,0,0,0,0,0,0,0,1709549514,0, 2024-03-04 16:21:54.417
238,-99932.23547,-31466.47292,-12243.36919,-29085.49805,-448.532456,-27792.62844,-32109.15263,-71272.20288,0.034,0.842,0.482,192,1,16,26,80,15,16,0,0,0,1709549514,0, 2024-03-04 16:21:54.417
239,-99920.14318,-31457.68868,-12231.18749,-29079.37367,-153.4000222,-27775.77523,-32092.23236,-71212.8143,0.034,0.842,0.482,192,0,0,0,0,0,0,0,0,0,1709549514,0, 2024-03-04 16:21:54.417
240,-99890.61652,-31438.84616,-12209.66276,-29066.65552,19.26720372,-27764.37584,-32083.29166,-71175.12926,0.034,0.842,0.482,192,0,0,0,0,0,0,0,0,0,1709549514,0, 2024-03-04 16:21:54.417
241,-99895.51156,-31442.15422,-12223.43144,-29073.09283,-164.7547084,-27778.88212,-32106.53747,-71215.34004,0.034,0.842,0.482,192,0,0,0,0,0,0,0,0,0,1709549514,0, 2024-03-04 16:21:54.417
242,-99930.11206,-31462.69547,-12248.5548,-29088.7614,-465.0503951,-27794.26012,-32116.90868,-71264.93856,0.034,0.842,0.482,192,0,0,0,0,0,0,0,0,0,1709549514,0, 2024-03-04 16:21:54.417
243,-99954.63192,-31480.9345,-12259.95419,-29101.90423,-469.3642818,-27797.43407,-32096.92622,-71252.95803,0.034,0.842,0.482,192,0,0,0,0,0,0,0,0,0,1709549514,0, 2024-03-04 16:21:54.417
244,-99936.66112,-31469.31159,-12244.21856,-29093.47762,-154.6517199,-27777.45161,-32083.62694,-71185.54517,0.034,0.842,0.482,192,0,0,0,0,0,0,0,0,0,1709549514,0, 2024-03-04 16:21:54.417
245,-99907.76031,-31452.90541,-12237.46833,-29088.8061,16.00384903,-27777.71983,-32106.42572,-71214.60244,0.034,0.842,0.482,192,0,0,0,0,0,0,0,0,0,1709549514,0, 2024-03-04 16:21:54.417
246,-99909.14612,-31457.04048,-12250.03001,-29097.0986,-164.0394526,-27798.88693,-32125.87173,-71284.83162,0.034,0.842,0.482,192,0,0,0,0,0,0,0,0,0,1709549514,0, 2024-03-04 16:21:54.417
247,-99936.01292,-31471.97145,-12264.11161,-29104.51938,-466.9055899,-27808.94522,-32122.36251,-71299.02498,0.034,0.842,0.482,192,0,0,0,0,0,0,0,0,0,1709549514,0, 2024-03-04 16:21:54.417
248,-99959.07992,-31484.84605,-12271.73355,-29112.4766,-479.4672703,-27805.86068,-32109.21968,-71245.22433,0.034,0.842,0.484,192,1,16,26,80,15,32,0,0,0,1709549514,0, 2024-03-04 16:21:54.417
249,-99941.17617,-31468.55163,-12257.29433,-29101.45719,-170.4320515,-27784.3583,-32098.24498,-71192.2954,0.034,0.842,0.484,192,0,0,0,0,0,0,0,0,0,1709549514,0, 2024-03-04 16:21:54.417
250,-99907.20152,-31444.56821,-12241.514,-29085.63216,8.448959404,-27771.41664,-32107.67741,-71165.24978,0.034,0.842,0.484,192,0,0,0,0,0,0,0,0,0,1709549514,0, 2024-03-04 16:21:54.417
251,-99908.43086,-31446.4234,-12246.72195,-29086.03449,-179.305694,-27785.02885,-32121.89312,-71189.8367,0.034,0.842,0.484,192,0,0,0,0,0,0,0,0,0,1709549514,0, 2024-03-04 16:21:54.417
252,-99941.44439,-31468.05989,-12261.58586,-29098.03737,-490.4196251,-27802.48556,-32126.45288,-71219.76569,0.034,0.842,0.484,192,0,0,0,0,0,0,0,0,0,1709549514,0, 2024-03-04 16:21:54.417
253,-99958.2082,-31474.5866,-12266.74912,-29104.36292,-498.04157,-27803.42433,-32100.77072,-71267.95605,0.034,0.842,0.484,192,0,0,0,0,0,0,0,0,0,1709549514,0, 2024-03-04 16:21:54.417
254,-99941.13147,-31463.45543,-12254.47801,-29103.67001,-201.523328,-27799.55748,-32109.68907,-71333.17844,0.034,0.842,0.484,192,0,0,0,0,0,0,0,0,0,1709549514,0, 2024-03-04 16:21:54.417
255,-99907.24622,-31441.2825,-12232.81917,-29085.94508,-4.738569825,-27783.59834,-32122.16134,-71272.53816,0.034,0.842,0.484,192,0,0,0,0,0,0,0,0,0,1709549514,0, 2024-03-04 16:21:54.417
0,-99900.92068,-31434.59933,-12229.77933,-29072.28816,-164.9782258,-27776.46813,-32125.40235,-71223.47608,0.034,0.842,0.484,192,0,0,0,0,0,0,0,0,0,1709549514,0, 2024-03-04 16:21:54.417
1,-99930.22381,-31451.05022,-12240.99991,-29077.63023,-474.773404,-27784.00067,-32118.60742,-71241.40218,0.034,0.842,0.484,192,0,0,0,0,0,0,0,0,0,1709549514,0, 2024-03-04 16:21:54.417
2,-99949.82629,-31463.20957,-12246.99017,-29084.82749,-481.2107064,-27780.84907,-32104.05643,-71246.61013,0.038,0.842,0.482,192,1,48,26,80,15,16,0,0,0,1709549514,0, 2024-03-04 16:21:54.417
3,-99930.42498,-31450.29026,-12232.0145,-29074.16571,-176.6011329,-27757.31269,-32094.13226,-71203.47127,0.038,0.842,0.482,192,0,0,0,0,0,0,0,0,0,1709549514,0, 2024-03-04 16:21:54.417
4,-99905.48043,-31438.15326,-12226.47127,-29076.69146,-0.424683145,-27763.2359,-32108.86206,-71268.6266,0.038,0.842,0.482,192,0,0,0,0,0,0,0,0,0,1709549514,0, 2024-03-04 16:21:54.417
5,-99899.60192,-31434.17465,-12229.95814,-29072.62344,-162.4748304,-27766.78983,-32123.99419,-71242.72093,0.038,0.842,0.482,192,0,0,0,0,0,0,0,0,0,1709549514,0, 2024-03-04 16:21:54.417
6,-99927.13927,-31446.3787,-12241.89398,-29070.20945,-467.0173486,-27761.82774,-32121.35668,-71186.05926,0.038,0.842,0.482,192,0,0,0,0,0,0,0,0,0,1709549514,0, 2024-03-04 16:21:54.417
7,-99955.41423,-31463.0084,-12252.35459,-29081.78766,-485.2787239,-27763.72764,-32098.15557,-71210.3556,0.038,0.842,0.482,192,0,0,0,0,0,0,0,0,0,1709549514,0, 2024-03-04 16:21:54.417
8,-99943.32194,-31458.11337,-12245.38085,-29089.07432,-189.453386,-27763.48177,-32079.11188,-71252.84627,0.038,0.842,0.482,192,0,0,0,0,0,0,0,0,0,1709549514,0, 2024-03-04 16:21:54.417
9,-99912.23066,-31441.2378,-12233.48972,-29084.24635,-8.694828593,-27761.42541,-32088.52197,-71257.22721,0.038,0.842,0.482,192,0,0,0,0,0,0,0,0,0,1709549514,0, 2024-03-04 16:21:54.417
10,-99913.46001,-31443.8306,-12244.82205,-29090.08015,-173.1366126,-27777.04928,-32111.41015,-71260.75879,0.038,0.842,0.482,192,0,0,0,0,0,0,0,0,0,1709549514,0, 2024-03-04 16:21:54.417
11,-99944.46188,-31462.02492,-12263.48576,-29102.55243,-483.3788256,-27792.18141,-32115.47817,-71270.03476,0.038,0.842,0.482,192,0,0,0,0,0,0,0,0,0,1709549514,0, 2024-03-04 16:21:54.417
12,-99960.1975,-31469.84803,-12263.9328,-29103.51355,-500.5896688,-27782.03372,-32094.42283,-71200.00675,0.044,0.844,0.48,192,1,96,26,96,15,0,0,0,0,1709549514,0, 2024-03-04 16:21:54.417
13,-99938.65042,-31455.65468,-12247.88424,-29096.80803,-207.468892,-27764.80052,-32083.2246,-71170.30128,0.044,0.844,0.48,192,0,0,0,0,0,0,0,0,0,1709549514,0, 2024-03-04 16:21:54.417
14,-99909.21317,-31436.36512,-12236.93189,-29090.08015,-27.8055701,-27761.11248,-32099.65314,-71218.26812,0.044,0.844,0.48,192,0,0,0,0,0,0,0,0,0,1709549514,0, 2024-03-04 16:21:54.417
15,-99904.02757,-31430.3525,-12241.96103,-29085.87802,-188.2240401,-27768.3768,-32114.02531,-71220.19037,0.044,0.844,0.48,192,0,0,0,0,0,0,0,0,0,1709549514,0, 2024-03-04 16:21:54.417
16,-99923.83122,-31439.20379,-12248.66655,-29082.4135,-484.2728954,-27766.56631,-32111.49956,-71170.72596,0.044,0.844,0.48,192,0,0,0,0,0,0,0,0,0,1709549514,0, 2024-03-04 16:21:54.417
17,-99947.3229,-31452.36897,-12255.77441,-29091.62242,-518.1357882,-27771.97543,-32102.62592,-71193.45769,0.044,0.844,0.48,192,0,0,0,0,0,0,0,0,0,1709549514,0, 2024-03-04 16:21:54.417
18,-99935.00709,-31446.62457,-12255.32737,-29099.53494,-238.9848517,-27777.3175,-32107.63271,-71280.31657,0.044,0.844,0.48,192,0,0,0,0,0,0,0,0,0,1709549514,0, 2024-03-04 16:21:54.417
19,-99899.69133,-31423.89285,-12241.29048,-29089.25314,-43.56354994,-27771.5284,-32114.38294,-71288.69847,0.044,0.844,0.48,192,0,0,0,0,0,0,0,0,0,1709549514,0, 2024-03-04 16:21:54.417
20,-99886.19088,-31412.58286,-12233.60148,-29074.0763,-186.9052871,-27766.02987,-32122.04958,-71217.03878,0.044,0.844,0.48,192,0,0,0,0,0,0,0,0,0,1709549514,0, 2024-03-04 16:21:54.417
21,-99915.49401,-31429.72665,-12250.09707,-29084.29105,-495.851099,-27782.48075,-32131.54908,-71265.60912,0.044,0.844,0.48,192,0,0,0,0,0,0,0,0,0,1709549514,0, 2024-03-04 16:21:54.417
22,-99935.07414,-31438.44383,-12252.91339,-29086.07919,-526.1377127,-27776.40108,-32117.19926,-71234.31667,0.042,0.846,0.482,192,1,80,26,112,15,16,0,0,0,1709549514,0, 2024-03-04 16:21:54.417
23,-99919.42792,-31429.36902,-12239.77056,-29081.7653,-220.5223108,-27765.35931,-32106.87275,-71210.17679,0.042,0.846,0.482,192,0,0,0,0,0,0,0,0,0,1709549514,0, 2024-03-04 16:21:54.417
24,-99881.09468,-31401.69756,-12219.40812,-29062.74397,-11.62290712,-27750.04837,-32106.35866,-71225.93477,0.042,0.846,0.482,192,0,0,0,0,0,0,0,0,0,1709549514,0, 2024-03-04 16:21:54.417
25,-99870.36584,-31394.18738,-12218.58111,-29058.0501,-162.5418857,-27758.095,-32130.18562,-71266.16791,0.042,0.846,0.482,192,0,0,0,0,0,0,0,0,0,1709549514,0, 2024-03-04 16:21:54.417
26,-99905.70395,-31418.97546,-12239.07766,-29072.39992,-465.3409678,-27771.99778,-32138.92515,-71246.54308,0.042,0.846,0.482,192,0,0,0,0,0,0,0,0,0,1709549514,0, 2024-03-04 16:21:54.417
27,-99930.71555,-31434.55463,-12242.60923,-29079.01604,-488.8997065,-27767.57214,-32115.90285,-71197.54806,0.042,0.846,0.482,192,0,0,0,0,0,0,0,0,0,1709549514,0, 2024-03-04 16:21:54.417
28,-99913.57176,-31422.86467,-12227.29829,-29072.89166,-185.7206447,-27751.7471,-32097.57442,-71207.42753,0.042,0.846,0.482,192,0,0,0,0,0,0,0,0,0,1709549514,0, 2024-03-04 16:21:54.417
29,-99882.21227,-31405.47501,-12212.792,-29069.60595,18.79781709,-27750.60716,-32115.52288,-71260.95995,0.042,0.846,0.482,192,0,0,0,0,0,0,0,0,0,1709549514,0, 2024-03-04 16:21:54.417
30,-99876.89255,-31405.69853,-12222.76088,-29071.88583,-136.9938418,-27761.76068,-32134.74538,-71270.5712,0.042,0.846,0.482,192,0,0,0,0,0,0,0,0,0,1709549514,0, 2024-03-04 16:21:54.417
31,-99907.13446,-31422.84231,-12237.73655,-29079.2172,-441.8045809,-27767.50508,-32132.77842,-71261.13877,0.042,0.846,0.482,192,0,0,0,0,0,0,0,0,0,1709549514,0, 2024-03-04 16:21:54.417
32,-99933.50952,-31438.24267,-12245.69377,-29087.55441,-477.3662063,-27765.47107,-32122.67543,-71225.26422,0.036,0.844,0.484,192,1,32,26,96,15,32,0,0,0,1709549514,0, 2024-03-04 16:21:54.417
33,-99924.18884,-31433.74997,-12241.06696,-29092.42709,-182.1890691,-27761.71598,-32095.40631,-71241.96097,0.036,0.844,0.484,192,0,0,0,0,0,0,0,0,0,1709549514,0, 2024-03-04 16:21:54.417
34,-99897.92554,-31417.4779,-12230.42753,-29089.16373,18.01550603,-27761.62657,-32103.83291,-71263.99979,0.036,0.844,0.484,192,0,0,0,0,0,0,0,0,0,1709549514,0, 2024-03-04 16:21:54.417
35,-99891.53294,-31412.15818,-12230.11461,-29085.65451,-118.8442253,-27765.69459,-32140.71329,-71234.31667,0.036,0.844,0.484,192,0,0,0,0,0,0,0,0,0,1709549514,0, 2024-03-04 16:21:54.417
36,-99921.7078,-31432.05123,-12250.92408,-29099.78081,-430.8075226,-27781.94431,-32133.73955,-71259.26122,0.036,0.844,0.484,192,0,0,0,0,0,0,0,0,0,1709549514,0, 2024-03-04 16:21:54.417
37,-99954.9672,-31457.33106,-12269.14075,-29121.57376,-486.6198285,-27797.90345,-32124.26241,-71295.33694,0.036,0.844,0.484,192,0,0,0,0,0,0,0,0,0,1709549514,0, 2024-03-04 16:21:54.417
38,-99939.16451,-31446.49046,-12253.36042,-29113.01304,-183.6642842,-27777.89864,-32109.66672,-71211.65201,0.036,0.844,0.484,192,0,0,0,0,0,0,0,0,0,1709549514,0, 2024-03-04 16:21:54.417
39,-99909.79432,-31429.68195,-12236.44015,-29107.76038,27.0009073,-27777.87629,-32108.88441,-71231.18743,0.036,0.844,0.484,192,0,0,0,0,0,0,0,0,0,1709549514,0, 2024-03-04 16:21:54.417
40,-99902.19473,-31424.25047,-12242.02809,-29103.31239,-101.9463065,-27784.49241,-32123.4801,-71215.3624,0.036,0.844,0.484,192,0,0,0,0,0,0,0,0,0,1709549514,0, 2024-03-04 16:21:54.417
41,-99921.55134,-31432.56532,-12254.72388,-29103.4465,-408.7910543,-27787.5546,-32129.33625,-71200.38673,0.036,0.844,0.484,192,0,0,0,0,0,0,0,0,0,1709549514,0, 2024-03-04 16:21:54.417
42,-99936.92934,-31439.3379,-12254.92504,-29104.87701,-464.1786771,-27784.91709,-32120.66378,-71228.8852,0.032,0.84,0.486,192,1,0,26,64,15,48,0,0,0,1709549514,0, 2024-03-04 16:21:54.417
43,-99926.64754,-31434.91226,-12249.44887,-29105.86048,-176.9364091,-27781.51963,-32124.08359,-71250.27582,0.032,0.84,0.486,192,0,0,0,0,0,0,0,0,0,1709549514,0, 2024-03-04 16:21:54.417
44,-99894.1034,-31416.74029,-12230.47223,-29097.88091,45.93283486,-27778.41273,-32130.58795,-71270.77237,0.032,0.84,0.486,192,0,0,0,0,0,0,0,0,0,1709549514,0, 2024-03-04 16:21:54.417
45,-99879.06067,-31406.57024,-12226.24775,-29087.97909,-87.17180338,-27779.55267,-32147.39646,-71261.25053,0.032,0.84,0.486,192,0,0,0,0,0,0,0,0,0,1709549514,0, 2024-03-04 16:21:54.417
46,-99899.37841,-31416.33796,-12238.4071,-29087.75557,-409.3721997,-27781.49727,-32153.14086,-71259.82002,0.032,0.84,0.486,192,0,0,0,0,0,0,0,0,0,1709549514,0, 2024-03-04 16:21:54.417
47,-99917.37156,-31422.90937,-12238.78708,-29088.69434,-452.4216595,-27775.48465,-32136.10883,-71271.42057,0.032,0.84,0.486,192,0,0,0,0,0,0,0,0,0,1709549514,0, 2024-03-04 16:21:54.417
48,-99898.70785,-31410.10182,-12220.21278,-29080.08892,-150.4719437,-27759.61492,-32108.48208,-71250.85697,0.032,0.84,0.486,192,0,0,0,0,0,0,0,0,0,1709549514,0, 2024-03-04 16:21:54.417
49,-99867.08014,-31387.3701,-12206.51116,-29065.22501,67.77048919,-27742.91816,-32106.22455,-71213.44015,0.032,0.84,0.486,192,0,0,0,0,0,0,0,0,0,1709549514,0, 2024-03-04 16:21:54.417
50,-99863.05682,-31384.84435,-12215.02718,-29063.90626,-70.87738167,-27749.78015,-32128.37513,-71219.76569,0.032,0.84,0.486,192,0,0,0,0,0,0,0,0,0,1709549514,0, 2024-03-04 16:21:54.417
51,-99900.49599,-31410.77237,-12240.12819,-29081.40768,-389.4567954,-27768.55561,-32140.08744,-71254.72382,0.032,0.84,0.486,192,0,0,0,0,0,0,0,0,0,1709549514,0, 2024-03-04 16:21:54.417
52,-99930.40263,-31431.47009,-12250.23118,-29094.68461,-455.349738,-27773.20478,-32121.15551,-71261.09406,0.034,0.846,0.484,192,1,16,26,112,15,32,0,0,0,1709549514,0, 2024-03-04 16:21:54.417
53,-99915.76224,-31422.43998,-12240.75404,-29094.01406,-173.7177579,-27764.68876,-32107.87858,-71288.94434,0.034,0.846,0.484,192,0,0,0,0,0,0,0,0,0,1709549514,0, 2024-03-04 16:21:54.417
54,-99883.44161,-31405.40795,-12228.88526,-29089.54371,44.56937844,-27761.82774,-32132.5549,-71295.4934,0.034,0.846,0.484,192,0,0,0,0,0,0,0,0,0,1709549514,0, 2024-03-04 16:21:54.417
55,-99883.93335,-31409.29716,-12241.20107,-29097.0539,-87.75294873,-27777.04928,-32156.7842,-71297.75093,0.034,0.846,0.484,192,0,0,0,0,0,0,0,0,0,1709549514,0, 2024-03-04 16:21:54.417
56,-99909.81667,-31423.55757,-12252.46635,-29100.60782,-405.9970863,-27780.08911,-32151.24096,-71274.50511,0.034,0.846,0.484,192,0,0,0,0,0,0,0,0,0,1709549514,0, 2024-03-04 16:21:54.417
57,-99934.51535,-31437.03567,-12258.38956,-29106.01695,-466.3914998,-27774.03179,-32126.43053,-71244.17379,0.034,0.846,0.484,192,0,0,0,0,0,0,0,0,0,1709549514,0, 2024-03-04 16:21:54.417
58,-99930.22381,-31435.64986,-12254.94739,-29110.86728,-173.6507027,-27769.18146,-32117.1322,-71222.22438,0.034,0.846,0.484,192,0,0,0,0,0,0,0,0,0,1709549514,0, 2024-03-04 16:21:54.417
59,-99896.36092,-31411.93466,-12238.45181,-29100.76429,40.61311968,-27759.21258,-32121.5802,-71241.20101,0.034,0.846,0.484,192,0,0,0,0,0,0,0,0,0,1709549515,0, 2024-03-04 16:21:54.898
60,-99885.69914,-31403.66452,-12240.17289,-29094.84107,-86.2777336,-27758.8326,-32130.27503,-71233.64612,0.034,0.846,0.484,192,0,0,0,0,0,0,0,0,0,1709549515,0, 2024-03-04 16:21:54.898
61,-99916.70101,-31422.23882,-12259.90948,-29100.83134,-402.0184758,-27762.56535,-32139.14867,-71192.51891,0.034,0.846,0.484,192,0,0,0,0,0,0,0,0,0,1709549515,0, 2024-03-04 16:21:54.898
62,-99949.9604,-31444.50115,-12273.90167,-29115.20351,-479.668436,-27769.42733,-32125.64822,-71193.52474,0.038,0.848,0.482,192,1,48,26,128,15,16,0,0,0,1709549515,0, 2024-03-04 16:21:54.898
63,-99937.30932,-31437.52741,-12263.08343,-29117.37163,-185.0500923,-27769.11441,-32112.75126,-71244.8667,0.038,0.848,0.482,192,0,0,0,0,0,0,0,0,0,1709549515,0, 2024-03-04 16:21:54.898
64,-99899.73603,-31414.23689,-12243.19038,-29104.89936,47.45275348,-27764.93463,-32117.75805,-71237.26711,0.038,0.848,0.482,192,0,0,0,0,0,0,0,0,0,1709549515,0, 2024-03-04 16:21:54.898
65,-99890.61652,-31409.54303,-12241.69281,-29098.97615,-67.83754442,-27772.10954,-32130.14092,-71223.34197,0.038,0.848,0.482,192,0,0,0,0,0,0,0,0,0,1709549515,0, 2024-03-04 16:21:54.898
66,-99921.26076,-31430.77718,-12263.03873,-29113.84006,-398.2857344,-27795.10949,-32146.05536,-71278.19315,0.038,0.848,0.482,192,0,0,0,0,0,0,0,0,0,1709549515,0, 2024-03-04 16:21:54.898
67,-99941.6232,-31440.5896,-12264.20102,-29117.81867,-480.4283953,-27796.31648,-32124.93296,-71293.41469,0.038,0.848,0.482,192,0,0,0,0,0,0,0,0,0,1709549515,0, 2024-03-04 16:21:54.898
68,-99931.9896,-31435.02402,-12249.67238,-29114.19769,-187.4640807,-27785.23001,-32107.40919,-71284.83162,0.038,0.848,0.482,192,0,0,0,0,0,0,0,0,0,1709549515,0, 2024-03-04 16:21:54.898
69,-99895.10922,-31408.62661,-12228.30412,-29094.10347,56.10287858,-27766.45455,-32103.20706,-71254.52265,0.038,0.848,0.482,192,0,0,0,0,0,0,0,0,0,1709549515,0, 2024-03-04 16:21:54.898
70,-99877.33959,-31395.1038,-12218.62581,-29078.14432,-45.61991043,-27757.75972,-32124.41887,-71215.47415,0.038,0.848,0.482,192,0,0,0,0,0,0,0,0,0,1709549515,0, 2024-03-04 16:21:54.898
71,-99907.82737,-31411.24176,-12236.48485,-29085.65451,-382.6618651,-27766.27574,-32137.6064,-71237.89295,0.038,0.848,0.482,192,0,0,0,0,0,0,0,0,0,1709549515,0, 2024-03-04 16:21:54.898
72,-99938.56101,-31427.78205,-12249.13594,-29099.93727,-477.0309302,-27773.02596,-32138.09814,-71291.47009,0.034,0.844,0.48,192,1,16,26,96,15,0,0,0,0,1709549515,0, 2024-03-04 16:21:54.898
73,-99926.78165,-31421.09888,-12237.7589,-29101.70306,-186.7041214,-27767.25921,-32125.13413,-71315.16293,0.034,0.844,0.48,192,0,0,0,0,0,0,0,0,0,1709549515,0, 2024-03-04 16:21:54.898
74,-99896.07035,-31403.32924,-12221.28567,-29092.27062,51.14079131,-27756.77624,-32117.64629,-71293.77232,0.034,0.844,0.48,192,0,0,0,0,0,0,0,0,0,1709549515,0, 2024-03-04 16:21:54.898
75,-99882.72636,-31393.47212,-12218.96109,-29084.224,-49.33030001,-27755.30103,-32131.862,-71283.60227,0.034,0.844,0.48,192,0,0,0,0,0,0,0,0,0,1709549515,0, 2024-03-04 16:21:54.898
76,-99907.91677,-31402.8375,-12234.29438,-29089.3649,-383.2653622,-27762.34183,-32137.98638,-71282.19411,0.034,0.844,0.48,192,0,0,0,0,0,0,0,0,0,1709549515,0, 2024-03-04 16:21:54.898
77,-99941.17617,-31421.21064,-12245.96199,-29101.21132,-479.757843,-27767.34862,-32119.0321,-71250.27582,0.034,0.844,0.48,192,0,0,0,0,0,0,0,0,0,1709549515,0, 2024-03-04 16:21:54.898
78,-99932.99543,-31416.20385,-12239.03295,-29102.08304,-194.0354936,-27760.79956,-32105.41989,-71253.1592,0.034,0.844,0.48,192,0,0,0,0,0,0,0,0,0,1709549515,0, 2024-03-04 16:21:54.898
79,-99897.59027,-31395.34967,-12224.79489,-29090.32602,38.75792489,-27748.66256,-32109.66672,-71203.33716,0.034,0.844,0.48,192,0,0,0,0,0,0,0,0,0,1709549515,0, 2024-03-04 16:21:54.898
80,-99890.43771,-31394.16503,-12228.10295,-29090.28132,-62.38371877,-27758.20676,-32127.77163,-71226.91825,0.034,0.844,0.48,192,0,0,0,0,0,0,0,0,0,1709549515,0, 2024-03-04 16:21:54.898
81,-99923.80886,-31418.19315,-12252.75692,-29108.38623,-380.6278563,-27779.61973,-32137.82992,-71272.58286,0.034,0.844,0.48,192,0,0,0,0,0,0,0,0,0,1709549515,0, 2024-03-04 16:21:54.898
82,-99949.15574,-31430.956,-12260.1777,-29117.77396,-483.2223634,-27781.51963,-32127.07873,-71288.16203,0.04,0.846,0.474,192,1,64,26,112,14,208,0,0,0,1709549515,0, 2024-03-04 16:21:54.898
83,-99946.13826,-31432.9006,-12257.83077,-29126.20057,-203.7808542,-27783.28541,-32115.41112,-71311.49725,0.04,0.846,0.474,192,0,0,0,0,0,0,0,0,0,1709549515,0, 2024-03-04 16:21:54.898
84,-99915.94105,-31413.65575,-12241.04461,-29111.31431,35.4945702,-27769.15911,-32117.0875,-71255.66259,0.04,0.846,0.474,192,0,0,0,0,0,0,0,0,0,1709549515,0, 2024-03-04 16:21:54.898
85,-99907.31328,-31409.20775,-12240.28465,-29103.80412,-57.39927976,-27769.15911,-32123.90478,-71231.09802,0.04,0.846,0.474,192,0,0,0,0,0,0,0,0,0,1709549515,0, 2024-03-04 16:21:54.898
86,-99941.15382,-31431.38068,-12264.71511,-29119.98679,-395.2011937,-27788.53807,-32141.62971,-71284.20577,0.04,0.846,0.474,192,0,0,0,0,0,0,0,0,0,1709549515,0, 2024-03-04 16:21:54.898
87,-99967.43947,-31445.81991,-12273.81227,-29129.82155,-501.2602212,-27791.28734,-32145.58597,-71274.21454,0.04,0.846,0.474,192,0,0,0,0,0,0,0,0,0,1709549515,0, 2024-03-04 16:21:54.898
88,-99952.66497,-31434.46522,-12260.22241,-29123.00427,-218.2424329,-27773.98709,-32120.21674,-71238.33999,0.04,0.846,0.474,192,0,0,0,0,0,0,0,0,0,1709549515,0, 2024-03-04 16:21:54.898
89,-99916.45514,-31409.27481,-12238.74238,-29109.25795,28.07379104,-27762.20772,-32120.26145,-71258.72478,0.04,0.846,0.474,192,0,0,0,0,0,0,0,0,0,1709549515,0, 2024-03-04 16:21:54.898
90,-99902.26178,-31398.03188,-12236.17193,-29101.47954,-55.94641637,-27766.70042,-32131.66083,-71253.31566,0.04,0.846,0.474,192,0,0,0,0,0,0,0,0,0,1709549515,0, 2024-03-04 16:21:54.898
91,-99933.80009,-31417.54495,-12258.16605,-29111.7837,-394.7094553,-27779.9103,-32145.96595,-71248.1077,0.04,0.846,0.474,192,0,0,0,0,0,0,0,0,0,1709549515,0, 2024-03-04 16:21:54.898
92,-99957.0012,-31429.1008,-12257.02611,-29109.68263,-507.8092823,-27771.95308,-32138.74634,-71197.25748,0.038,0.848,0.484,192,1,48,26,128,15,32,0,0,0,1709549515,0, 2024-03-04 16:21:54.898
93,-99942.65138,-31419.57896,-12243.92798,-29104.04999,-220.9693457,-27760.10665,-32114.33823,-71214.35657,0.038,0.848,0.484,192,0,0,0,0,0,0,0,0,0,1709549515,0, 2024-03-04 16:21:54.898
94,-99907.06741,-31396.73548,-12231.54512,-29094.28228,29.45959919,-27752.46236,-32123.4801,-71255.70729,0.038,0.848,0.484,192,0,0,0,0,0,0,0,0,0,1709549515,0, 2024-03-04 16:21:54.898
95,-99895.35509,-31390.25347,-12233.9144,-29092.89647,-67.54697174,-27761.3807,-32147.21765,-71292.85589,0.038,0.848,0.484,192,0,0,0,0,0,0,0,0,0,1709549515,0, 2024-03-04 16:21:54.898
96,-99923.09361,-31407.64313,-12252.24283,-29102.32891,-404.186595,-27772.95891,-32156.94066,-71308.368,0.038,0.848,0.484,192,0,0,0,0,0,0,0,0,0,1709549515,0, 2024-03-04 16:21:54.898
97,-99942.76314,-31417.4779,-12255.5956,-29105.23464,-512.8831283,-27767.95212,-32139.93098,-71289.34667,0.038,0.848,0.484,192,0,0,0,0,0,0,0,0,0,1709549515,0, 2024-03-04 16:21:54.898
98,-99935.36472,-31413.25342,-12246.99017,-29105.81578,-216.9013282,-27758.34087,-32119.09915,-71274.28159,0.038,0.848,0.484,192,0,0,0,0,0,0,0,0,0,1709549515,0, 2024-03-04 16:21:54.898
99,-99905.83806,-31394.18738,-12232.19332,-29098.26089,28.85610209,-27750.24953,-32123.36834,-71260.35646,0.038,0.848,0.484,192,0,0,0,0,0,0,0,0,0,1709549515,0, 2024-03-04 16:21:54.898
100,-99890.41536,-31383.07856,-12230.0699,-29092.6506,-53.68889018,-27756.26215,-32138.50047,-71277.47789,0.038,0.848,0.484,192,0,0,0,0,0,0,0,0,0,1709549515,0, 2024-03-04 16:21:54.898
101,-99914.10821,-31396.53431,-12244.73265,-29098.395,-392.8095571,-27762.40888,-32148.91638,-71259.46239,0.038,0.848,0.484,192,0,0,0,0,0,0,0,0,0,1709549515,0, 2024-03-04 16:21:54.898
102,-99944.75245,-31417.05321,-12257.33903,-29108.98973,-522.8296546,-27762.6324,-32135.86296,-71228.77344,0.038,0.848,0.484,192,1,48,26,128,15,32,0,0,0,1709549515,0, 2024-03-04 16:21:54.898
103,-99937.80106,-31414.19219,-12247.28075,-29110.26378,-236.4591046,-27753.87052,-32117.8251,-71247.66067,0.038,0.848,0.484,192,0,0,0,0,0,0,0,0,0,1709549515,0, 2024-03-04 16:21:54.898
104,-99918.69031,-31408.04546,-12245.89494,-29116.23169,9.521843138,-27761.89479,-32131.43732,-71303.04829,0.038,0.848,0.484,192,0,0,0,0,0,0,0,0,0,1709549515,0, 2024-03-04 16:21:54.898
105,-99909.39199,-31401.02701,-12247.39251,-29109.8838,-64.12715484,-27763.8841,-32146.99413,-71271.80055,0.038,0.848,0.484,192,0,0,0,0,0,0,0,0,0,1709549515,0, 2024-03-04 16:21:54.898
106,-99928.65919,-31408.06781,-12256.37791,-29108.43093,-396.229374,-27763.05708,-32154.59372,-71230.85215,0.038,0.848,0.484,192,0,0,0,0,0,0,0,0,0,1709549515,0, 2024-03-04 16:21:54.898
107,-99954.22959,-31421.54591,-12262.0329,-29114.73413,-522.5390819,-27762.16301,-32133.51603,-71222.02322,0.038,0.848,0.484,192,0,0,0,0,0,0,0,0,0,1709549515,0, 2024-03-04 16:21:54.898
108,-99944.37247,-31415.13096,-12250.14177,-29112.29779,-228.4124766,-27753.84817,-32103.54234,-71220.61506,0.038,0.848,0.484,192,0,0,0,0,0,0,0,0,0,1709549515,0, 2024-03-04 16:21:54.898
109,-99912.7671,-31394.58971,-12237.84831,-29104.34057,18.19431999,-27748.59551,-32120.41791,-71252.68981,0.038,0.848,0.484,192,0,0,0,0,0,0,0,0,0,1709549515,0, 2024-03-04 16:21:54.898
110,-99907.06741,-31393.27096,-12245.42555,-29107.58157,-53.97946286,-27762.29713,-32144.40133,-71269.07364,0.038,0.848,0.484,192,0,0,0,0,0,0,0,0,0,1709549515,0, 2024-03-04 16:21:54.898
111,-99934.78357,-31409.36421,-12260.84826,-29112.67777,-390.1720512,-27769.98613,-32153.47614,-71257.40603,0.038,0.848,0.484,192,0,0,0,0,0,0,0,0,0,1709549515,0, 2024-03-04 16:21:54.898
112,-99960.82335,-31422.6188,-12265.2739,-29116.65638,-526.8306168,-27767.61684,-32134.56656,-71246.29721,0.038,0.848,0.484,192,0,0,0,0,0,0,0,0,0,1709549515,0, 2024-03-04 16:21:54.898
113,-99955.03425,-31419.33309,-12257.33903,-29117.77396,-251.6582908,-27760.44193,-32117.40042,-71248.73355,0.038,0.84,0.48,192,1,48,26,64,15,0,0,0,0,1709549515,0, 2024-03-04 16:21:54.898
114,-99933.8448,-31410.83943,-12254.32155,-29121.26084,2.816319801,-27767.37097,-32120.10498,-71265.07268,0.038,0.84,0.48,192,0,0,0,0,0,0,0,0,0,1709549515,0, 2024-03-04 16:21:54.898
115,-99928.54743,-31410.70532,-12260.40122,-29123.87599,-56.05817509,-27782.01136,-32139.90863,-71271.84525,0.038,0.84,0.48,192,0,0,0,0,0,0,0,0,0,1709549515,0, 2024-03-04 16:21:54.898
116,-99942.60668,-31412.33699,-12264.93862,-29116.70108,-387.7580628,-27776.22226,-32153.96788,-71256.4449,0.038,0.84,0.48,192,0,0,0,0,0,0,0,0,0,1709549515,0, 2024-03-04 16:21:54.898
117,-99963.12558,-31422.57409,-12268.35844,-29119.29388,-550.6799281,-27773.45065,-32142.38967,-71282.86466,0.038,0.84,0.48,192,0,0,0,0,0,0,0,0,0,1709549515,0, 2024-03-04 16:21:54.898
118,-99952.95554,-31417.50025,-12255.01445,-29119.78562,-279.3297505,-27768.22034,-32128.6657,-71298.42148,0.038,0.84,0.48,192,0,0,0,0,0,0,0,0,0,1709549515,0, 2024-03-04 16:21:54.898
119,-99921.59604,-31398.18834,-12240.9552,-29112.94599,-4.403293658,-27763.81704,-32136.71233,-71306.19989,0.038,0.84,0.48,192,0,0,0,0,0,0,0,0,0,1709549515,0, 2024-03-04 16:21:54.898
120,-99905.18986,-31387.39245,-12238.3177,-29105.63697,-42.71418365,-27769.60615,-32152.89499,-71311.16197,0.038,0.84,0.48,192,0,0,0,0,0,0,0,0,0,1709549515,0, 2024-03-04 16:21:54.898
121,-99922.57952,-31391.54987,-12240.97755,-29096.18218,-365.5404288,-27760.15136,-32149.31871,-71244.15144,0.038,0.84,0.48,192,0,0,0,0,0,0,0,0,0,1709549515,0, 2024-03-04 16:21:54.898
122,-99951.99441,-31405.56442,-12247.63837,-29100.40666,-530.7198203,-27755.77042,-32132.13022,-71224.79483,0.038,0.84,0.48,192,0,0,0,0,0,0,0,0,0,1709549515,0, 2024-03-04 16:21:54.898
123,-99950.20627,-31407.08433,-12241.98338,-29108.31918,-256.8438955,-27755.99393,-32119.43443,-71240.35165,0.044,0.85,0.484,192,1,96,26,144,15,32,0,0,0,1709549515,0, 2024-03-04 16:21:54.898
124,-99927.18398,-31397.58484,-12237.78125,-29112.16368,-6.77257857,-27763.16884,-32134.23129,-71298.82381,0.044,0.85,0.484,192,0,0,0,0,0,0,0,0,0,1709549515,0, 2024-03-04 16:21:54.898
125,-99920.38905,-31396.57901,-12243.48095,-29116.9693,-47.74332616,-27777.3175,-32144.02135,-71353.04914,0.044,0.85,0.484,192,0,0,0,0,0,0,0,0,0,1709549515,0, 2024-03-04 16:21:54.898
126,-99941.64556,-31404.62564,-12252.93574,-29115.80701,-377.5433156,-27773.13772,-32153.6326,-71266.10086,0.044,0.85,0.484,192,0,0,0,0,0,0,0,0,0,1709549515,0, 2024-03-04 16:21:54.898
127,-99968.08767,-31417.25438,-12261.89879,-29121.77493,-553.3621375,-27768.46621,-32147.44117,-71259.46239,0.044,0.85,0.484,192,0,0,0,0,0,0,0,0,0,1709549515,0, 2024-03-04 16:21:54.898
128,-99962.07505,-31412.80638,-12252.08637,-29120.50088,-280.7379104,-27755.74806,-32126.65404,-71248.91236,0.044,0.85,0.484,192,0,0,0,0,0,0,0,0,0,1709549515,0, 2024-03-04 16:21:54.898
129,-99933.71069,-31395.752,-12239.54704,-29112.56601,-12.11464549,-27747.05324,-32128.86687,-71257.33897,0.044,0.85,0.484,192,0,0,0,0,0,0,0,0,0,1709549515,0, 2024-03-04 16:21:54.898
130,-99923.98768,-31390.14171,-12244.44207,-29111.2249,-44.97170984,-27756.99976,-32147.59763,-71286.84327,0.044,0.85,0.484,192,0,0,0,0,0,0,0,0,0,1709549515,0, 2024-03-04 16:21:54.898
131,-99939.36568,-31392.22042,-12251.61698,-29100.58547,-380.1808214,-27745.93565,-32149.25166,-71235.83659,0.044,0.85,0.484,192,0,0,0,0,0,0,0,0,0,1709549515,0, 2024-03-04 16:21:54.898
132,-99967.66299,-31406.23497,-12264.71511,-29106.24046,-558.39128,-27740.10184,-32141.76382,-71223.07375,0.044,0.85,0.484,192,0,0,0,0,0,0,0,0,0,1709549515,0, 2024-03-04 16:21:54.898
133,-99958.23055,-31398.3001,-12247.43721,-29100.02668,-288.9410006,-27724.72384,-32118.24979,-71195.62581,0.036,0.842,0.488,192,1,32,26,80,15,64,0,0,0,1709549515,0, 2024-03-04 16:21:54.898
134,-99928.83801,-31381.37983,-12235.30021,-29092.5612,-20.87652932,-27719.78411,-32117.51218,-71195.42464,0.036,0.842,0.488,192,0,0,0,0,0,0,0,0,0,1709549515,0, 2024-03-04 16:21:54.898
135,-99917.8186,-31377.24476,-12242.47512,-29094.63991,-56.48285824,-27735.49738,-32133.56073,-71227.92408,0.036,0.842,0.488,192,0,0,0,0,0,0,0,0,0,1709549515,0, 2024-03-04 16:21:54.898
