Sample Index, EXG Channel 0, EXG Channel 1, EXG Channel 2, EXG Channel 3, EXG Channel 4, EXG Channel 5, EXG Channel 6, EXG Channel 7, Accel Channel 0, Accel Channel 1, Accel Channel 2, Other, Other.1, Other.2, Other.3, Other.4, Other.5, Other.6, Analog Channel 0, Analog Channel 1, Analog Channel 2, Timestamp, Other.7, Timestamp (Formatted)
0,-100255.8217,-24045.5373,-11850.93961,-28830.64345,-145.5322081,-24996.42521,-31120.73614,-70427.64222,0.07,0.862,0.452,192,2,48,26,240,14,32,0,0,0,1709549655,0, 2024-03-04 16:24:14.965
1,-100241.9412,-24039.1447,-11840.54605,-28835.51614,529.6916401,-24987.43981,-31106.29691,-70456.02893,0.07,0.862,0.452,192,0,0,0,0,0,0,0,0,0,1709549655,0, 2024-03-04 16:24:14.965
2,-100201.5293,-24009.57334,-11825.61509,-28816.83008,642.4338391,-24977.80621,-31120.22205,-70444.51778,0.07,0.862,0.452,192,0,0,0,0,0,0,0,0,0,1709549655,0, 2024-03-04 16:24:14.965
3,-100193.058,-24001.50436,-11830.33131,-28810.30337,79.63926549,-24993.87711,-31151.22392,-70479.83354,0.07,0.862,0.452,192,0,0,0,0,0,0,0,0,0,1709549655,0, 2024-03-04 16:24:14.965
4,-100228.6643,-24019.36341,-11842.89299,-28816.69597,-415.7871504,-25002.79546,-31156.45422,-70471.71986,0.07,0.862,0.452,192,0,0,0,0,0,0,0,0,0,1709549655,0, 2024-03-04 16:24:14.965
5,-100248.2444,-24028.16999,-11832.1865,-28817.43357,-140.0113273,-24982.56713,-31109.80613,-70435.1077,0.07,0.862,0.452,192,0,0,0,0,0,0,0,0,0,1709549655,0, 2024-03-04 16:24:14.965
6,-100227.0103,-24016.14475,-11809.52183,-28809.63282,555.6420154,-24958.78487,-31083.27461,-70413.49356,0.07,0.862,0.452,192,0,0,0,0,0,0,0,0,0,1709549655,0, 2024-03-04 16:24:14.965
7,-100194.4438,-23995.84937,-11798.30126,-28796.11001,656.2248655,-24954.47099,-31107.28039,-70423.01541,0.07,0.862,0.452,192,0,0,0,0,0,0,0,0,0,1709549655,0, 2024-03-04 16:24:14.965
8,-100186.6207,-23987.57923,-11801.98929,-28781.58138,102.8180245,-24959.27661,-31138.68459,-70398.18262,0.07,0.862,0.452,192,0,0,0,0,0,0,0,0,0,1709549655,0, 2024-03-04 16:24:14.965
9,-100217.332,-24000.27502,-11815.5568,-28780.37438,-408.299316,-24959.85776,-31146.10537,-70387.92317,0.07,0.862,0.452,192,0,0,0,0,0,0,0,0,0,1709549655,0, 2024-03-04 16:24:14.965
10,-100236.5545,-24007.65109,-11806.6161,-28779.79324,-146.7615541,-24941.7752,-31102.54182,-70391.81237,0.066,0.866,0.45,192,2,16,27,16,14,16,0,0,0,1709549655,0, 2024-03-04 16:24:14.965
11,-100214.6051,-23992.83188,-11783.99614,-28768.66207,556.8490096,-24914.05903,-31067.96367,-70376.61319,0.066,0.866,0.45,192,0,0,0,0,0,0,0,0,0,1709549655,0, 2024-03-04 16:24:14.965
12,-100187.9841,-23981.70072,-11784.01849,-28768.66207,681.2588193,-24923.31265,-31101.20071,-70412.93477,0.066,0.866,0.45,192,0,0,0,0,0,0,0,0,0,1709549655,0, 2024-03-04 16:24:14.965
13,-100187.8277,-23983.62297,-11801.94459,-28772.52892,108.2718501,-24949.93358,-31151.53684,-70484.21448,0.066,0.866,0.45,192,0,0,0,0,0,0,0,0,0,1709549655,0, 2024-03-04 16:24:14.965
14,-100221.3553,-23999.04567,-11819.3119,-28778.16156,-399.8727083,-24957.28731,-31150.41925,-70480.6382,0.066,0.866,0.45,192,0,0,0,0,0,0,0,0,0,1709549655,0, 2024-03-04 16:24:14.966
15,-100244.2658,-24010.78034,-11818.39547,-28777.91569,-153.3776705,-24931.51575,-31094.51754,-70364.96793,0.066,0.866,0.45,192,0,0,0,0,0,0,0,0,0,1709549655,0, 2024-03-04 16:24:14.966
16,-100222.8081,-23999.09037,-11793.0933,-28771.47839,554.8597044,-24904.44778,-31085.06275,-70321.87376,0.066,0.866,0.45,192,0,0,0,0,0,0,0,0,0,1709549655,0, 2024-03-04 16:24:14.966
17,-100189.9958,-23985.12053,-11788.86882,-28772.37246,689.5736682,-24913.88022,-31109.49321,-70358.46357,0.066,0.866,0.45,192,0,0,0,0,0,0,0,0,0,1709549655,0, 2024-03-04 16:24:14.966
18,-100197.3495,-23995.40234,-11809.96887,-28784.73297,129.7742283,-24949.66536,-31150.12868,-70405.6928,0.066,0.866,0.45,192,0,0,0,0,0,0,0,0,0,1709549655,0, 2024-03-04 16:24:14.966
19,-100234.9898,-24019.47516,-11831.38184,-28802.4132,-386.4840134,-24975.99572,-31154.50962,-70449.72574,0.066,0.866,0.45,192,0,0,0,0,0,0,0,0,0,1709549655,0, 2024-03-04 16:24:14.966
20,-100253.6536,-24027.23122,-11826.64327,-28808.51523,-143.6546616,-24966.92091,-31113.49417,-70438.10283,0.068,0.868,0.45,192,2,32,27,32,14,16,0,0,0,1709549655,0, 2024-03-04 16:24:14.966
21,-100227.7926,-24010.84739,-11803.66567,-28798.81457,551.21637,-24944.4127,-31085.28627,-70359.31293,0.068,0.868,0.45,192,0,0,0,0,0,0,0,0,0,1709549655,0, 2024-03-04 16:24:14.966
22,-100189.7276,-23988.76387,-11794.41205,-28789.42684,675.4473657,-24945.99968,-31107.70507,-70382.37994,0.068,0.868,0.45,192,0,0,0,0,0,0,0,0,0,1709549655,0, 2024-03-04 16:24:14.966
23,-100190.8228,-23988.20507,-11814.43921,-28795.01477,136.2562342,-24974.78872,-31156.70009,-70433.27486,0.068,0.868,0.45,192,0,0,0,0,0,0,0,0,0,1709549655,0, 2024-03-04 16:24:14.966
24,-100219.6789,-23998.03984,-11832.34296,-28797.85345,-395.8493943,-24982.09774,-31160.52224,-70420.08733,0.068,0.868,0.45,192,0,0,0,0,0,0,0,0,0,1709549655,0, 2024-03-04 16:24:14.966
25,-100236.4204,-24004.41009,-11816.89791,-28797.47347,-161.7595746,-24964.81984,-31111.92955,-70397.10973,0.068,0.868,0.45,192,0,0,0,0,0,0,0,0,0,1709549655,0, 2024-03-04 16:24:14.966
26,-100213.9345,-23986.5734,-11792.4451,-28787.12461,551.8645706,-24939.3165,-31079.296,-70384.74922,0.068,0.868,0.45,192,0,0,0,0,0,0,0,0,0,1709549655,0, 2024-03-04 16:24:14.966
27,-100190.0405,-23974.68227,-11799.26238,-28788.51042,685.6621129,-24949.03951,-31102.67593,-70434.05717,0.068,0.868,0.45,192,0,0,0,0,0,0,0,0,0,1709549655,0, 2024-03-04 16:24:14.966
28,-100189.504,-23977.76681,-11816.49558,-28791.88553,134.9821848,-24972.30768,-31146.37359,-70465.2602,0.068,0.868,0.45,192,0,0,0,0,0,0,0,0,0,1709549655,0, 2024-03-04 16:24:14.966
29,-100216.9073,-23992.89894,-11818.86486,-28792.15375,-387.5568971,-24973.46997,-31149.27931,-70427.70927,0.068,0.868,0.45,192,0,0,0,0,0,0,0,0,0,1709549655,0, 2024-03-04 16:24:14.966
30,-100237.4932,-24002.55489,-11813.0087,-28793.22663,-159.7479176,-24952.97342,-31107.05687,-70399.30021,0.064,0.862,0.454,192,2,0,26,240,14,48,0,0,0,1709549655,0, 2024-03-04 16:24:14.966
31,-100224.9763,-23998.39747,-11804.87267,-28798.09931,529.1551982,-24941.14935,-31088.10259,-70435.13005,0.064,0.862,0.454,192,0,0,0,0,0,0,0,0,0,1709549655,0, 2024-03-04 16:24:14.966
32,-100191.2251,-23978.21384,-11797.29543,-28786.58817,673.8156883,-24936.79076,-31103.48059,-70441.63441,0.064,0.862,0.454,192,0,0,0,0,0,0,0,0,0,1709549655,0, 2024-03-04 16:24:14.966
33,-100187.5594,-23973.49763,-11809.70065,-28778.0051,132.0094028,-24946.58082,-31139.71277,-70414.52174,0.064,0.862,0.454,192,0,0,0,0,0,0,0,0,0,1709549655,0, 2024-03-04 16:24:14.966
34,-100217.1532,-23985.07583,-11823.49167,-28779.65913,-398.8892315,-24949.82182,-31150.59807,-70423.66361,0.064,0.862,0.454,192,0,0,0,0,0,0,0,0,0,1709549655,0, 2024-03-04 16:24:14.966
35,-100247.1045,-24003.51602,-11825.39157,-28793.85248,-176.9140574,-24946.08908,-31111.39311,-70444.58484,0.064,0.862,0.454,192,0,0,0,0,0,0,0,0,0,1709549655,0, 2024-03-04 16:24:14.966
36,-100221.3106,-23986.14871,-11793.92031,-28778.698,539.7052216,-24911.80151,-31062.88982,-70351.08749,0.064,0.862,0.454,192,0,0,0,0,0,0,0,0,0,1709549655,0, 2024-03-04 16:24:14.966
37,-100183.782,-23964.04284,-11786.20896,-28764.6164,693.7534444,-24902.95022,-31098.98789,-70309.73677,0.064,0.862,0.454,192,0,0,0,0,0,0,0,0,0,1709549655,0, 2024-03-04 16:24:14.966
38,-100187.1348,-23968.96022,-11811.80171,-28775.05467,129.6624696,-24935.98609,-31151.08981,-70389.59955,0.064,0.862,0.454,192,0,0,0,0,0,0,0,0,0,1709549655,0, 2024-03-04 16:24:14.966
39,-100230.4077,-23995.24587,-11843.38472,-28800.26743,-425.0407726,-24968.19496,-31161.14809,-70476.1455,0.064,0.862,0.454,192,0,0,0,0,0,0,0,0,0,1709549655,0, 2024-03-04 16:24:14.966
40,-100259.7779,-24012.8814,-11846.73749,-28817.00889,-209.7711217,-24969.40195,-31134.34835,-70486.76258,0.068,0.856,0.454,192,2,32,26,192,14,48,0,0,0,1709549655,0, 2024-03-04 16:24:14.966
41,-100233.0676,-23995.40234,-11815.91443,-28801.7203,503.8306718,-24935.18143,-31096.90918,-70379.3401,0.068,0.856,0.454,192,0,0,0,0,0,0,0,0,0,1709549655,0, 2024-03-04 16:24:14.966
42,-100193.0803,-23974.30229,-11795.32847,-28787.90692,673.7486331,-24932.61098,-31106.52043,-70336.96119,0.068,0.856,0.454,192,0,0,0,0,0,0,0,0,0,1709549655,0, 2024-03-04 16:24:14.966
43,-100184.1173,-23967.55206,-11804.26917,-28783.21305,132.4117342,-24950.85,-31142.84201,-70340.04573,0.068,0.856,0.454,192,0,0,0,0,0,0,0,0,0,1709549655,0, 2024-03-04 16:24:14.966
44,-100223.9704,-23990.32849,-11831.24773,-28802.14498,-419.408133,-24975.66044,-31160.32108,-70400.59661,0.068,0.856,0.454,192,0,0,0,0,0,0,0,0,0,1709549655,0, 2024-03-04 16:24:14.966
45,-100250.6361,-24006.19823,-11828.90079,-28815.53368,-204.6972757,-24973.8723,-31125.9888,-70430.615,0.068,0.856,0.454,192,0,0,0,0,0,0,0,0,0,1709549655,0, 2024-03-04 16:24:14.966
46,-100229.6701,-23994.46356,-11805.61028,-28812.42678,507.3622474,-24957.8014,-31093.08703,-70445.83654,0.068,0.856,0.454,192,0,0,0,0,0,0,0,0,0,1709549655,0, 2024-03-04 16:24:14.966
47,-100198.5565,-23979.86787,-11801.94459,-28808.40347,672.0499005,-24962.987,-31115.63994,-70450.95509,0.068,0.856,0.454,192,0,0,0,0,0,0,0,0,0,1709549655,0, 2024-03-04 16:24:14.966
48,-100190.5099,-23973.85525,-11808.62776,-28803.15081,132.4117342,-24979.14731,-31142.19381,-70453.39143,0.068,0.856,0.454,192,0,0,0,0,0,0,0,0,0,1709549655,0, 2024-03-04 16:24:14.966
49,-100221.78,-23989.14385,-11820.31772,-28806.01183,-402.6890281,-24985.20464,-31147.62529,-70453.23496,0.068,0.856,0.454,192,0,0,0,0,0,0,0,0,0,1709549655,0, 2024-03-04 16:24:14.966
50,-100248.6021,-24003.2478,-11818.41783,-28811.66682,-188.6710749,-24972.95588,-31113.31536,-70433.36426,0.072,0.864,0.454,192,2,64,27,0,14,48,0,0,0,1709549655,0, 2024-03-04 16:24:14.966
51,-100229.089,-23988.27213,-11800.20115,-28798.12167,513.9336603,-24938.82477,-31084.81688,-70387.6773,0.072,0.864,0.454,192,0,0,0,0,0,0,0,0,0,1709549655,0, 2024-03-04 16:24:14.966
52,-100193.3038,-23966.43447,-11785.71722,-28782.76602,682.242296,-24930.26405,-31099.43492,-70393.57816,0.072,0.864,0.454,192,0,0,0,0,0,0,0,0,0,1709549655,0, 2024-03-04 16:24:14.966
53,-100188.8782,-23965.36159,-11791.8863,-28778.7427,154.9869961,-24947.16197,-31143.84784,-70409.04557,0.072,0.864,0.454,192,0,0,0,0,0,0,0,0,0,1709549655,0, 2024-03-04 16:24:14.966
54,-100225.1551,-23986.75221,-11810.4606,-28786.29759,-400.7444263,-24958.15902,-31145.77009,-70420.15438,0.072,0.864,0.454,192,0,0,0,0,0,0,0,0,0,1709549655,0, 2024-03-04 16:24:14.966
55,-100252.0666,-24000.43148,-11804.00095,-28787.14696,-187.6652464,-24938.17656,-31102.02773,-70386.91734,0.072,0.864,0.454,192,0,0,0,0,0,0,0,0,0,1709549655,0, 2024-03-04 16:24:14.966
56,-100235.8169,-23992.94364,-11789.36056,-28783.54833,534.4302099,-24915.40014,-31076.52439,-70383.98926,0.072,0.864,0.454,192,0,0,0,0,0,0,0,0,0,1709549655,0, 2024-03-04 16:24:14.966
57,-100196.3213,-23968.0438,-11778.47526,-28768.84088,712.7524272,-24906.14652,-31081.48647,-70392.25941,0.072,0.864,0.454,192,0,0,0,0,0,0,0,0,0,1709549655,0, 2024-03-04 16:24:14.966
58,-100193.7509,-23965.47335,-11795.41788,-28766.42689,174.3883102,-24922.73151,-31134.72833,-70390.11364,0.072,0.864,0.454,192,0,0,0,0,0,0,0,0,0,1709549655,0, 2024-03-04 16:24:14.966
59,-100217.4884,-23975.0399,-11807.66664,-28767.92446,-382.2371819,-24928.14063,-31132.15788,-70410.25256,0.072,0.864,0.454,192,0,0,0,0,0,0,0,0,0,1709549655,0, 2024-03-04 16:24:14.966
60,-100236.3086,-23983.08652,-11805.43146,-28772.81949,-190.7050837,-24914.28255,-31096.95388,-70408.86675,0.068,0.86,0.45,192,2,32,26,224,14,16,0,0,0,1709549655,0, 2024-03-04 16:24:14.966
61,-100221.2882,-23977.69975,-11791.97571,-28776.84281,511.8102445,-24899.88803,-31085.01805,-70397.17679,0.068,0.86,0.45,192,0,0,0,0,0,0,0,0,0,1709549655,0, 2024-03-04 16:24:14.966
62,-100189.9734,-23962.9029,-11786.83481,-28773.42299,688.5678397,-24901.87733,-31106.83335,-70371.15936,0.068,0.86,0.45,192,0,0,0,0,0,0,0,0,0,1709549655,0, 2024-03-04 16:24:14.966
63,-100188.4759,-23964.55693,-11806.86197,-28779.81559,154.2717402,-24931.02401,-31147.62529,-70391.54415,0.068,0.86,0.45,192,0,0,0,0,0,0,0,0,0,1709549655,0, 2024-03-04 16:24:14.966
64,-100223.9704,-23985.03113,-11829.07961,-28797.07113,-409.4169032,-24957.66729,-31157.28124,-70444.02605,0.068,0.86,0.45,192,0,0,0,0,0,0,0,0,0,1709549655,0, 2024-03-04 16:24:14.966
65,-100248.8479,-23998.21866,-11822.70936,-28804.3578,-211.3357438,-24948.43602,-31110.36493,-70432.42549,0.068,0.86,0.45,192,0,0,0,0,0,0,0,0,0,1709549655,0, 2024-03-04 16:24:14.966
66,-100232.5312,-23991.37902,-11801.87753,-28805.31893,497.3263141,-24937.01427,-31082.26878,-70403.23411,0.068,0.86,0.45,192,0,0,0,0,0,0,0,0,0,1709549655,0, 2024-03-04 16:24:14.966
67,-100199.3388,-23972.51415,-11790.34403,-28797.47347,679.6047902,-24940.45644,-31104.59818,-70375.38384,0.068,0.86,0.45,192,0,0,0,0,0,0,0,0,0,1709549655,0, 2024-03-04 16:24:14.966
68,-100192.9015,-23967.57441,-11799.66471,-28795.50651,154.025871,-24964.52927,-31136.94115,-70400.99894,0.068,0.86,0.45,192,0,0,0,0,0,0,0,0,0,1709549655,0, 2024-03-04 16:24:14.966
69,-100227.6138,-23987.04278,-11819.60247,-28808.78345,-395.000028,-24986.32222,-31144.83132,-70426.21171,0.068,0.86,0.45,192,0,0,0,0,0,0,0,0,0,1709549655,0, 2024-03-04 16:24:14.966
70,-100242.7012,-23988.36154,-11803.71038,-28802.48026,-197.7682349,-24964.9316,-31113.78474,-70396.90857,0.07,0.854,0.456,192,2,48,26,176,14,64,0,0,0,1709549655,0, 2024-03-04 16:24:14.966
71,-100225.468,-23978.54912,-11789.2041,-28798.65811,505.8870323,-24947.25137,-31081.75469,-70413.15829,0.07,0.854,0.456,192,0,0,0,0,0,0,0,0,0,1709549655,0, 2024-03-04 16:24:14.966
72,-100188.1853,-23959.7066,-11778.74348,-28787.88457,696.2121363,-24945.48559,-31098.13852,-70432.04551,0.07,0.854,0.456,192,0,0,0,0,0,0,0,0,0,1709549655,0, 2024-03-04 16:24:14.966
73,-100177.9929,-23953.55987,-11787.55007,-28779.27915,159.4349932,-24958.78487,-31136.42706,-70419.28267,0.07,0.854,0.456,192,0,0,0,0,0,0,0,0,0,1709549655,0, 2024-03-04 16:24:14.966
74,-100210.4029,-23969.25079,-11800.46937,-28781.58138,-395.4694146,-24966.76445,-31135.77886,-70427.53046,0.07,0.854,0.456,192,0,0,0,0,0,0,0,0,0,1709549655,0, 2024-03-04 16:24:14.966
75,-100237.1133,-23983.53356,-11800.35762,-28790.58913,-197.7458832,-24957.95786,-31096.5739,-70454.75488,0.07,0.854,0.456,192,0,0,0,0,0,0,0,0,0,1709549655,0, 2024-03-04 16:24:14.966
76,-100223.7022,-23976.85039,-11784.33142,-28788.06338,502.6013258,-24936.00845,-31064.00741,-70421.94252,0.07,0.854,0.456,192,0,0,0,0,0,0,0,0,0,1709549655,0, 2024-03-04 16:24:14.966
77,-100197.506,-23965.98744,-11782.34211,-28784.77768,688.366674,-24937.34955,-31092.63999,-70403.43528,0.07,0.854,0.456,192,0,0,0,0,0,0,0,0,0,1709549655,0, 2024-03-04 16:24:14.966
78,-100188.8782,-23957.51613,-11781.44804,-28769.98082,169.2250573,-24939.54002,-31110.63315,-70381.15059,0.07,0.854,0.456,192,0,0,0,0,0,0,0,0,0,1709549655,0, 2024-03-04 16:24:14.966
79,-100225.7809,-23975.33047,-11799.19533,-28775.61346,-383.9359145,-24947.38548,-31111.48251,-70396.68505,0.07,0.854,0.456,192,0,0,0,0,0,0,0,0,0,1709549655,0, 2024-03-04 16:24:14.966
80,-100259.8897,-23995.6482,-11800.98346,-28787.23637,-198.0811594,-24939.8753,-31083.16285,-70400.19428,0.066,0.864,0.456,192,2,16,27,0,14,64,0,0,0,1709549655,0, 2024-03-04 16:24:14.966
81,-100248.3115,-23989.05444,-11783.21383,-28781.80489,515.3865237,-24914.48372,-31051.91512,-70372.25459,0.066,0.864,0.456,192,0,0,0,0,0,0,0,0,0,1709549655,0, 2024-03-04 16:24:14.966
82,-100220.9977,-23975.46458,-11787.12538,-28781.08964,700.7495404,-24921.21159,-31076.79261,-70418.99209,0.066,0.864,0.456,192,0,0,0,0,0,0,0,0,0,1709549655,0, 2024-03-04 16:24:14.966
83,-100217.1755,-23970.81542,-11804.5821,-28776.7534,168.1521735,-24933.68386,-31121.76432,-70402.94354,0.066,0.864,0.456,192,0,0,0,0,0,0,0,0,0,1709549655,0, 2024-03-04 16:24:14.966
84,-100252.9383,-23990.82023,-11830.68893,-28789.49389,-398.241031,-24948.92775,-31134.68363,-70406.07278,0.066,0.864,0.456,192,0,0,0,0,0,0,0,0,0,1709549655,0, 2024-03-04 16:24:14.966
85,-100269.1657,-23993.50244,-11819.22249,-28784.33064,-210.9781159,-24921.21159,-31082.35819,-70353.47913,0.066,0.864,0.456,192,0,0,0,0,0,0,0,0,0,1709549655,0, 2024-03-04 16:24:14.966
86,-100250.2784,-23982.23716,-11798.65888,-28775.76992,505.5964596,-24891.90845,-31056.89955,-70308.57447,0.066,0.864,0.456,192,0,0,0,0,0,0,0,0,0,1709549655,0, 2024-03-04 16:24:14.966
87,-100217.3096,-23968.96022,-11798.90475,-28777.73688,698.2014416,-24903.66547,-31085.28627,-70374.80269,0.066,0.864,0.456,192,0,0,0,0,0,0,0,0,0,1709549655,0, 2024-03-04 16:24:14.966
88,-100214.8062,-23970.90482,-11820.29537,-28786.05172,153.1094495,-24936.92487,-31138.19285,-70428.82686,0.066,0.864,0.456,192,0,0,0,0,0,0,0,0,0,1709549655,0, 2024-03-04 16:24:14.966
89,-100240.2649,-23981.20898,-11825.43627,-28785.29177,-402.8007868,-24941.99871,-31127.06168,-70376.16615,0.066,0.864,0.456,192,0,0,0,0,0,0,0,0,0,1709549655,0, 2024-03-04 16:24:14.966
90,-100262.4601,-23991.28961,-11814.12629,-28789.06921,-223.4727411,-24929.74996,-31091.3883,-70347.3771,0.072,0.86,0.452,192,2,64,26,224,14,32,0,0,0,1709549655,0, 2024-03-04 16:24:15.445
91,-100251.3513,-23988.36154,-11799.5753,-28797.07113,488.1844506,-24922.57505,-31077.06083,-70374.2886,0.072,0.86,0.452,192,0,0,0,0,0,0,0,0,0,1709549655,0, 2024-03-04 16:24:15.445
92,-100222.674,-23975.6881,-11800.20115,-28800.17803,693.529927,-24936.45548,-31093.53406,-70436.64997,0.072,0.86,0.452,192,0,0,0,0,0,0,0,0,0,1709549655,0, 2024-03-04 16:24:15.445
93,-100214.3145,-23968.13321,-11810.84058,-28799.70864,168.3309875,-24960.77418,-31131.93436,-70434.43715,0.072,0.86,0.452,192,0,0,0,0,0,0,0,0,0,1709549655,0, 2024-03-04 16:24:15.445
94,-100245.2046,-23980.8737,-11826.17388,-28804.55897,-398.4198449,-24971.95005,-31142.7079,-70378.46838,0.072,0.86,0.452,192,0,0,0,0,0,0,0,0,0,1709549655,0, 2024-03-04 16:24:15.445
95,-100265.1871,-23984.7182,-11819.51306,-28806.79414,-226.5349301,-24961.33297,-31101.6254,-70411.50426,0.072,0.86,0.452,192,0,0,0,0,0,0,0,0,0,1709549655,0, 2024-03-04 16:24:15.445
96,-100248.6244,-23972.71531,-11803.77743,-28805.78832,490.8219565,-24948.16779,-31075.3621,-70441.83558,0.072,0.86,0.452,192,0,0,0,0,0,0,0,0,0,1709549655,0, 2024-03-04 16:24:15.445
97,-100207.2066,-23944.01568,-11789.06999,-28791.66201,705.1528341,-24940.94818,-31091.70122,-70451.1786,0.072,0.86,0.452,192,0,0,0,0,0,0,0,0,0,1709549655,0, 2024-03-04 16:24:15.445
98,-100197.7965,-23933.82328,-11797.49659,-28782.5872,180.0880051,-24949.86653,-31133.16371,-70407.30213,0.072,0.86,0.452,192,0,0,0,0,0,0,0,0,0,1709549655,0, 2024-03-04 16:24:15.445
99,-100227.055,-23945.33443,-11806.59375,-28778.80976,-383.5335831,-24949.95593,-31133.16371,-70370.64527,0.072,0.86,0.452,192,0,0,0,0,0,0,0,0,0,1709549655,0, 2024-03-04 16:24:15.445
100,-100256.9393,-23962.21,-11803.71038,-28782.43074,-207.6924095,-24934.84616,-31092.26001,-70360.63169,0.068,0.866,0.448,192,2,32,27,16,14,0,0,0,0,1709549655,0, 2024-03-04 16:24:15.445
101,-100246.5681,-23960.89124,-11788.82412,-28784.95649,497.2816106,-24921.43511,-31064.81207,-70391.5218,0.068,0.866,0.448,192,0,0,0,0,0,0,0,0,0,1709549655,0, 2024-03-04 16:24:15.445
102,-100212.6158,-23946.29555,-11778.09528,-28778.38508,722.2966221,-24922.12801,-31076.6585,-70417.29336,0.068,0.866,0.448,192,0,0,0,0,0,0,0,0,0,1709549655,0, 2024-03-04 16:24:15.445
103,-100206.7149,-23943.45688,-11792.78037,-28776.12755,199.9140024,-24940.61291,-31119.41738,-70405.46929,0.068,0.866,0.448,192,0,0,0,0,0,0,0,0,0,1709549655,0, 2024-03-04 16:24:15.445
104,-100231.9053,-23953.49281,-11807.10784,-28773.53475,-366.5462573,-24937.99775,-31127.68753,-70340.71628,0.068,0.866,0.448,192,0,0,0,0,0,0,0,0,0,1709549655,0, 2024-03-04 16:24:15.445
105,-100265.8129,-23974.65992,-11819.75893,-28791.93023,-206.0383804,-24940.76937,-31100.08312,-70398.96493,0.068,0.866,0.448,192,0,0,0,0,0,0,0,0,0,1709549655,0, 2024-03-04 16:24:15.445
106,-100250.0102,-23966.1439,-11800.69289,-28788.39866,502.0425322,-24919.53521,-31062.50984,-70379.31775,0.068,0.866,0.448,192,0,0,0,0,0,0,0,0,0,1709549655,0, 2024-03-04 16:24:15.445
107,-100213.6216,-23941.22171,-11789.8523,-28771.41133,739.4851136,-24904.0678,-31077.10553,-70325.5618,0.068,0.866,0.448,192,0,0,0,0,0,0,0,0,0,1709549655,0, 2024-03-04 16:24:15.445
108,-100207.4749,-23935.90199,-11808.24778,-28771.47839,229.4630086,-24923.40206,-31120.37851,-70355.55784,0.068,0.866,0.448,192,0,0,0,0,0,0,0,0,0,1709549655,0, 2024-03-04 16:24:15.445
109,-100240.1531,-23952.91167,-11828.45376,-28783.03424,-337.533693,-24937.75188,-31131.2191,-70375.71912,0.068,0.866,0.448,192,0,0,0,0,0,0,0,0,0,1709549655,0, 2024-03-04 16:24:15.445
110,-100270.9091,-23970.65895,-11832.47707,-28796.78056,-174.8353451,-24930.71108,-31100.3737,-70369.84061,0.068,0.866,0.456,192,2,32,27,16,14,64,0,0,0,1709549655,0, 2024-03-04 16:24:15.445
111,-100261.9684,-23972.29063,-11825.25746,-28810.37042,511.0502852,-24928.69943,-31075.4068,-70414.16412,0.068,0.866,0.456,192,0,0,0,0,0,0,0,0,0,1709549655,0, 2024-03-04 16:24:15.445
112,-100228.9549,-23957.2032,-11824.34104,-28811.37625,736.6240903,-24935.02497,-31098.4291,-70449.70339,0.068,0.866,0.456,192,0,0,0,0,0,0,0,0,0,1709549655,0, 2024-03-04 16:24:15.445
113,-100213.8451,-23949.38009,-11831.04656,-28803.15081,233.0392877,-24945.21736,-31135.0636,-70399.07669,0.068,0.866,0.456,192,0,0,0,0,0,0,0,0,0,1709549655,0, 2024-03-04 16:24:15.445
114,-100237.3591,-23960.19834,-11840.23313,-28804.69308,-334.2926901,-24955.63328,-31141.52326,-70374.22155,0.068,0.866,0.456,192,0,0,0,0,0,0,0,0,0,1709549655,0, 2024-03-04 16:24:15.445
115,-100266.6623,-23977.96797,-11841.97656,-28818.32764,-181.6526272,-24956.37088,-31113.42712,-70368.58891,0.068,0.866,0.456,192,0,0,0,0,0,0,0,0,0,1709549655,0, 2024-03-04 16:24:15.445
116,-100246.881,-23966.81445,-11823.29051,-28817.1877,523.2766894,-24943.89861,-31072.18815,-70388.77253,0.068,0.866,0.456,192,0,0,0,0,0,0,0,0,0,1709549655,0, 2024-03-04 16:24:15.445
117,-100211.7217,-23949.38009,-11816.74144,-28814.05846,761.6133406,-24953.28634,-31093.48936,-70424.55768,0.068,0.866,0.456,192,0,0,0,0,0,0,0,0,0,1709549655,0, 2024-03-04 16:24:15.445
118,-100202.4457,-23940.64056,-11828.45376,-28807.5541,255.9051223,-24970.7207,-31140.38332,-70431.17379,0.068,0.866,0.456,192,0,0,0,0,0,0,0,0,0,1709549655,0, 2024-03-04 16:24:15.445
119,-100229.2455,-23951.59292,-11843.22826,-28809.78928,-324.592033,-24981.62836,-31148.92169,-70444.47308,0.068,0.866,0.456,192,0,0,0,0,0,0,0,0,0,1709549655,0, 2024-03-04 16:24:15.445
120,-100255.5088,-23960.91359,-11840.21078,-28810.52688,-166.0734613,-24966.07154,-31103.07826,-70420.86964,0.07,0.856,0.454,192,2,48,26,192,14,48,0,0,0,1709549655,0, 2024-03-04 16:24:15.445
121,-100241.4719,-23952.19641,-11822.97758,-28807.24118,546.9024833,-24947.11726,-31072.65753,-70426.41287,0.07,0.856,0.454,192,0,0,0,0,0,0,0,0,0,1709549655,0, 2024-03-04 16:24:15.445
122,-100204.3009,-23931.25283,-11811.60054,-28800.02156,783.00396,-24951.09587,-31090.24836,-70513.36116,0.07,0.856,0.454,192,0,0,0,0,0,0,0,0,0,1709549655,0, 2024-03-04 16:24:15.445
123,-100198.0871,-23930.06819,-11824.02811,-28794.94772,270.277294,-24965.64686,-31144.49604,-70502.98995,0.07,0.856,0.454,192,0,0,0,0,0,0,0,0,0,1709549655,0, 2024-03-04 16:24:15.445
124,-100219.8801,-23938.85242,-11831.18067,-28785.96232,-304.2742973,-24957.77904,-31137.18702,-70414.40998,0.07,0.856,0.454,192,0,0,0,0,0,0,0,0,0,1709549655,0, 2024-03-04 16:24:15.445
125,-100246.7916,-23952.82226,-11827.35852,-28787.57164,-145.286339,-24937.46131,-31097.66914,-70355.37903,0.07,0.856,0.454,192,0,0,0,0,0,0,0,0,0,1709549655,0, 2024-03-04 16:24:15.445
126,-100233.8946,-23948.97776,-11808.96304,-28787.45988,563.6886434,-24920.45163,-31066.10847,-70371.91932,0.07,0.856,0.454,192,0,0,0,0,0,0,0,0,0,1709549655,0, 2024-03-04 16:24:15.445
127,-100201.2164,-23934.02445,-11805.09619,-28784.97884,792.279934,-24923.44677,-31085.80036,-70421.20492,0.07,0.856,0.454,192,0,0,0,0,0,0,0,0,0,1709549655,0, 2024-03-04 16:24:15.445
128,-100194.1756,-23929.01765,-11812.42756,-28778.83211,290.6397332,-24933.72857,-31125.16178,-70393.44405,0.07,0.856,0.454,192,0,0,0,0,0,0,0,0,0,1709549655,0, 2024-03-04 16:24:15.445
129,-100226.7421,-23944.75328,-11828.78903,-28785.11295,-282.5931051,-24943.27276,-31133.119,-70388.57137,0.07,0.856,0.454,192,0,0,0,0,0,0,0,0,0,1709549655,0, 2024-03-04 16:24:15.445
130,-100258.9062,-23963.86402,-11835.53926,-28802.70377,-153.4223739,-24945.10561,-31106.56513,-70413.96295,0.07,0.856,0.454,192,0,0,0,0,0,0,0,0,0,1709549655,0, 2024-03-04 16:24:15.445
131,-100249.9432,-23956.86793,-11821.52472,-28803.39668,556.2455125,-24926.62071,-31076.68085,-70415.86285,0.074,0.854,0.454,192,2,80,26,176,14,48,0,0,0,1709549655,0, 2024-03-04 16:24:15.445
132,-100221.1541,-23937.2431,-11818.7531,-28794.16541,807.322658,-24918.66349,-31096.35038,-70379.63067,0.074,0.854,0.454,192,0,0,0,0,0,0,0,0,0,1709549655,0, 2024-03-04 16:24:15.445
133,-100215.8791,-23932.01279,-11832.70059,-28787.97397,300.2509833,-24934.46618,-31136.11414,-70365.12439,0.074,0.854,0.454,192,0,0,0,0,0,0,0,0,0,1709549655,0, 2024-03-04 16:24:15.445
134,-100241.4719,-23941.7358,-11845.91047,-28791.77377,-305.2354223,-24946.82669,-31137.81287,-70363.04568,0.074,0.854,0.454,192,0,0,0,0,0,0,0,0,0,1709549655,0, 2024-03-04 16:24:15.445
135,-100274.0607,-23961.91942,-11848.74914,-28810.99627,-189.3416273,-24954.67215,-31099.45728,-70397.89205,0.074,0.854,0.454,192,0,0,0,0,0,0,0,0,0,1709549655,0, 2024-03-04 16:24:15.445
136,-100259.3309,-23955.23625,-11832.94646,-28818.79703,509.2621457,-24948.36896,-31081.86645,-70442.99787,0.074,0.854,0.454,192,0,0,0,0,0,0,0,0,0,1709549655,0, 2024-03-04 16:24:15.445
137,-100218.8072,-23933.46565,-11820.34008,-28812.24797,781.8193176,-24949.17362,-31096.55155,-70451.87151,0.074,0.854,0.454,192,0,0,0,0,0,0,0,0,0,1709549655,0, 2024-03-04 16:24:15.445
138,-100205.7091,-23927.02835,-11829.70546,-28807.79997,295.4006547,-24967.65852,-31135.53299,-70418.36624,0.074,0.854,0.454,192,0,0,0,0,0,0,0,0,0,1709549655,0, 2024-03-04 16:24:15.445
139,-100232.3076,-23941.44522,-11848.2574,-28814.75136,-296.6970559,-24982.63418,-31145.18894,-70416.64516,0.074,0.854,0.454,192,0,0,0,0,0,0,0,0,0,1709549655,0, 2024-03-04 16:24:15.445
140,-100256.6487,-23954.49864,-11843.1165,-28817.81355,-169.0462433,-24969.04432,-31101.87126,-70406.05043,0.074,0.854,0.454,192,0,0,0,0,0,0,0,0,0,1709549655,0, 2024-03-04 16:24:15.445
141,-100244.7576,-23948.10604,-11826.82208,-28814.23727,534.9890035,-24946.80434,-31072.54578,-70382.71521,0.07,0.862,0.456,192,2,48,26,240,14,64,0,0,0,1709549655,0, 2024-03-04 16:24:15.445
142,-100200.7246,-23919.58522,-11799.32944,-28793.67367,812.2400418,-24932.8345,-31085.26392,-70388.81724,0.07,0.862,0.456,192,0,0,0,0,0,0,0,0,0,1709549655,0, 2024-03-04 16:24:15.445
143,-100191.6722,-23915.42779,-11816.18265,-28790.58913,331.7892947,-24951.63232,-31133.7672,-70429.85504,0.07,0.862,0.456,192,0,0,0,0,0,0,0,0,0,1709549655,0, 2024-03-04 16:24:15.445
144,-100222.5399,-23930.247,-11833.59466,-28795.50651,-265.4046137,-24962.87524,-31147.62529,-70453.95022,0.07,0.862,0.456,192,0,0,0,0,0,0,0,0,0,1709549655,0, 2024-03-04 16:24:15.445
145,-100250.0773,-23943.27807,-11830.91245,-28798.12167,-155.6799001,-24950.29121,-31111.01313,-70478.47008,0.07,0.862,0.456,192,0,0,0,0,0,0,0,0,0,1709549655,0, 2024-03-04 16:24:15.445
146,-100241.7848,-23939.99236,-11817.5014,-28795.46181,533.290271,-24928.25239,-31082.11232,-70447.62468,0.07,0.862,0.456,192,0,0,0,0,0,0,0,0,0,1709549655,0, 2024-03-04 16:24:15.445
147,-100203.8762,-23917.75238,-11800.75995,-28778.36272,811.7259516,-24915.86952,-31090.1366,-70372.25459,0.07,0.862,0.456,192,0,0,0,0,0,0,0,0,0,1709549655,0, 2024-03-04 16:24:15.446
148,-100186.7771,-23903.49196,-11798.59183,-28765.59988,356.7561933,-24924.5867,-31128.96158,-70376.72494,0.07,0.862,0.456,192,0,0,0,0,0,0,0,0,0,1709549655,0, 2024-03-04 16:24:15.446
149,-100219.3883,-23918.62409,-11816.98731,-28771.83602,-234.4027441,-24935.29319,-31140.67389,-70378.91541,0.07,0.862,0.456,192,0,0,0,0,0,0,0,0,0,1709549655,0, 2024-03-04 16:24:15.446
150,-100251.709,-23935.14203,-11815.35564,-28783.92831,-155.076403,-24931.11341,-31092.93057,-70402.94354,0.07,0.862,0.456,192,0,0,0,0,0,0,0,0,0,1709549655,0, 2024-03-04 16:24:15.446
151,-100242.4553,-23929.24117,-11798.25655,-28785.31412,539.5934629,-24913.27672,-31064.76737,-70403.23411,0.066,0.866,0.452,192,2,16,27,16,14,32,0,0,0,1709549655,0, 2024-03-04 16:24:15.446
152,-100209.7324,-23912.11974,-11794.94849,-28784.71062,805.9592016,-24917.23298,-31082.71582,-70441.61206,0.066,0.866,0.452,192,0,0,0,0,0,0,0,0,0,1709549655,0, 2024-03-04 16:24:15.446
153,-100206.849,-23911.94092,-11817.4567,-28794.76891,336.0808296,-24949.73242,-31128.91687,-70535.55644,0.066,0.866,0.452,192,0,0,0,0,0,0,0,0,0,1709549655,0, 2024-03-04 16:24:15.446
154,-100242.6565,-23931.74457,-11840.79192,-28807.64351,-259.861381,-24968.7314,-31140.96447,-70532.58366,0.066,0.866,0.452,192,0,0,0,0,0,0,0,0,0,1709549655,0, 2024-03-04 16:24:15.446
155,-100265.4106,-23937.84659,-11829.52664,-28797.89815,-169.4038712,-24935.29319,-31093.9811,-70375.60736,0.066,0.866,0.452,192,0,0,0,0,0,0,0,0,0,1709549655,0, 2024-03-04 16:24:15.446
156,-100252.8489,-23930.35876,-11813.70161,-28793.69602,523.0084685,-24908.31463,-31061.54872,-70320.86793,0.066,0.866,0.452,192,0,0,0,0,0,0,0,0,0,1709549655,0, 2024-03-04 16:24:15.446
157,-100220.2377,-23914.55608,-11811.82406,-28794.50068,808.8202249,-24915.02016,-31081.86645,-70353.47913,0.066,0.866,0.452,192,0,0,0,0,0,0,0,0,0,1709549655,0, 2024-03-04 16:24:15.446
158,-100211.3417,-23912.70088,-11825.07865,-28795.79709,348.8883792,-24938.46714,-31125.56411,-70369.37122,0.066,0.866,0.452,192,0,0,0,0,0,0,0,0,0,1709549655,0, 2024-03-04 16:24:15.446
159,-100249.2503,-23939.47827,-11854.78411,-28814.39374,-269.0255963,-24966.65269,-31148.89933,-70439.6004,0.066,0.866,0.452,192,0,0,0,0,0,0,0,0,0,1709549655,0, 2024-03-04 16:24:15.446
160,-100277.2346,-23954.05161,-11854.06886,-28819.82521,-196.9188687,-24957.55553,-31101.29012,-70418.20978,0.066,0.866,0.452,192,0,0,0,0,0,0,0,0,0,1709549655,0, 2024-03-04 16:24:15.446
161,-100267.4669,-23950.14005,-11834.48873,-28819.35582,498.3768461,-24940.83642,-31073.61866,-70389.28662,0.072,0.862,0.452,192,2,64,26,240,14,32,0,0,0,1709549655,0, 2024-03-04 16:24:15.446
162,-100228.8431,-23928.83884,-11817.412,-28807.75527,802.4276259,-24936.679,-31088.01318,-70407.32448,0.072,0.862,0.452,192,0,0,0,0,0,0,0,0,0,1709549655,0, 2024-03-04 16:24:15.446
163,-100213.0851,-23917.03712,-11818.30607,-28798.79222,371.5530481,-24950.62649,-31129.34156,-70408.7997,0.072,0.862,0.452,192,0,0,0,0,0,0,0,0,0,1709549655,0, 2024-03-04 16:24:15.446
164,-100242.2318,-23929.73291,-11834.22051,-28801.96617,-235.4085726,-24964.12694,-31141.88089,-70422.90365,0.072,0.862,0.452,192,0,0,0,0,0,0,0,0,0,1709549655,0, 2024-03-04 16:24:15.446
165,-100271.3785,-23943.76981,-11835.94159,-28808.42582,-188.0452261,-24957.86845,-31095.94805,-70446.86472,0.072,0.862,0.452,192,0,0,0,0,0,0,0,0,0,1709549655,0, 2024-03-04 16:24:15.446
166,-100263.5777,-23940.97584,-11823.2458,-28813.56672,492.1630612,-24947.05021,-31083.94517,-70473.64211,0.072,0.862,0.452,192,0,0,0,0,0,0,0,0,0,1709549655,0, 2024-03-04 16:24:15.446
167,-100224.9763,-23917.05947,-11806.95138,-28798.14402,810.6083644,-24933.68386,-31098.89848,-70452.45265,0.072,0.862,0.452,192,0,0,0,0,0,0,0,0,0,1709549655,0, 2024-03-04 16:24:15.446
168,-100207.4301,-23903.13433,-11810.19238,-28781.53667,383.1312517,-24935.09202,-31133.90131,-70420.89199,0.072,0.862,0.452,192,0,0,0,0,0,0,0,0,0,1709549655,0, 2024-03-04 16:24:15.446
169,-100232.2406,-23911.69505,-11824.96689,-28777.96039,-241.0188605,-24936.43313,-31135.6224,-70381.9329,0.072,0.862,0.452,192,0,0,0,0,0,0,0,0,0,1709549655,0, 2024-03-04 16:24:15.446
170,-100268.7633,-23932.70569,-11830.42071,-28789.73976,-195.9577436,-24932.34276,-31103.97233,-70362.08455,0.072,0.862,0.452,192,0,0,0,0,0,0,0,0,0,1709549655,0, 2024-03-04 16:24:15.446
171,-100259.7109,-23929.30823,-11814.17099,-28793.78543,499.002695,-24921.61392,-31069.46123,-70412.7336,0.066,0.862,0.446,192,2,16,26,240,13,240,0,0,0,1709549655,0, 2024-03-04 16:24:15.446
172,-100227.7255,-23913.75141,-11801.65402,-28790.76794,822.0077541,-24922.5974,-31078.11136,-70429.78799,0.066,0.862,0.446,192,0,0,0,0,0,0,0,0,0,1709549655,0, 2024-03-04 16:24:15.446
173,-100219.366,-23911.78446,-11813.52279,-28791.59496,406.6676386,-24940.41174,-31109.29204,-70397.53442,0.066,0.862,0.446,192,0,0,0,0,0,0,0,0,0,1709549655,0, 2024-03-04 16:24:15.446
174,-100251.1949,-23933.06332,-11838.78026,-28807.68821,-225.8196742,-24963.07641,-31131.44262,-70438.92985,0.066,0.862,0.446,192,0,0,0,0,0,0,0,0,0,1709549655,0, 2024-03-04 16:24:15.446
175,-100286.4436,-23956.13032,-11847.22922,-28825.50255,-195.8236332,-24964.03753,-31107.52626,-70462.55564,0.066,0.862,0.446,192,0,0,0,0,0,0,0,0,0,1709549655,0, 2024-03-04 16:24:15.446
176,-100269.7468,-23944.14979,-11825.72685,-28816.85243,503.7412648,-24934.33206,-31067.94132,-70389.15251,0.066,0.862,0.446,192,0,0,0,0,0,0,0,0,0,1709549655,0, 2024-03-04 16:24:15.446
177,-100237.0015,-23924.01086,-11818.84251,-28807.57645,822.454789,-24925.81605,-31081.75469,-70372.03108,0.066,0.862,0.446,192,0,0,0,0,0,0,0,0,0,1709549655,0, 2024-03-04 16:24:15.446
178,-100228.0385,-23918.44528,-11834.7346,-28810.99627,395.7152838,-24951.34174,-31122.77015,-70437.56639,0.066,0.862,0.446,192,0,0,0,0,0,0,0,0,0,1709549655,0, 2024-03-04 16:24:15.446
179,-100258.9509,-23931.96808,-11856.57225,-28814.48314,-236.4144011,-24960.32714,-31146.66416,-70421.33903,0.066,0.862,0.446,192,0,0,0,0,0,0,0,0,0,1709549655,0, 2024-03-04 16:24:15.446
180,-100287.4941,-23945.24502,-11850.82785,-28815.91366,-212.0509996,-24943.25041,-31101.98302,-70385.68799,0.066,0.862,0.446,192,0,0,0,0,0,0,0,0,0,1709549655,0, 2024-03-04 16:24:15.446
181,-100285.4154,-23947.63666,-11848.168,-28828.0283,463.7092905,-24936.94722,-31082.42525,-70433.56543,0.066,0.858,0.442,192,2,16,26,208,13,208,0,0,0,1709549655,0, 2024-03-04 16:24:15.446
182,-100241.8965,-23921.66393,-11828.23024,-28814.5949,794.8056811,-24926.73247,-31092.66235,-70424.93766,0.066,0.858,0.442,192,0,0,0,0,0,0,0,0,0,1709549655,0, 2024-03-04 16:24:15.446
183,-100223.7469,-23910.53276,-11829.6831,-28803.93312,383.6900453,-24935.4273,-31125.67587,-70364.54324,0.066,0.858,0.442,192,0,0,0,0,0,0,0,0,0,1709549655,0, 2024-03-04 16:24:15.446
184,-100251.9101,-23924.77082,-11844.88229,-28811.80093,-242.4270204,-24955.2533,-31142.21616,-70387.23026,0.066,0.858,0.442,192,0,0,0,0,0,0,0,0,0,1709549655,0, 2024-03-04 16:24:15.446
185,-100283.6943,-23943.05455,-11843.92117,-28824.7873,-219.1812061,-24960.3495,-31110.52139,-70430.36913,0.066,0.858,0.442,192,0,0,0,0,0,0,0,0,0,1709549655,0, 2024-03-04 16:24:15.446
186,-100279.7157,-23944.61917,-11830.77834,-28834.24209,461.4070608,-24960.26009,-31077.93255,-70475.27379,0.066,0.858,0.442,192,0,0,0,0,0,0,0,0,0,1709549655,0, 2024-03-04 16:24:15.446
187,-100236.1074,-23916.52303,-11805.76674,-28813.67848,803.0758265,-24947.22902,-31083.87811,-70438.37105,0.066,0.858,0.442,192,0,0,0,0,0,0,0,0,0,1709549655,0, 2024-03-04 16:24:15.446
188,-100216.4379,-23899.02161,-11807.46547,-28799.19455,398.4869001,-24956.52735,-31119.01505,-70451.71505,0.066,0.858,0.442,192,0,0,0,0,0,0,0,0,0,1709549655,0, 2024-03-04 16:24:15.446
189,-100244.02,-23908.69992,-11824.16222,-28800.73682,-232.5699011,-24967.74792,-31131.55438,-70458.08529,0.066,0.858,0.442,192,0,0,0,0,0,0,0,0,0,1709549655,0, 2024-03-04 16:24:15.446
190,-100279.0004,-23927.56479,-11828.25259,-28807.77762,-218.84593,-24958.18138,-31097.60208,-70411.61602,0.066,0.858,0.442,192,0,0,0,0,0,0,0,0,0,1709549655,0, 2024-03-04 16:24:15.446
191,-100268.3387,-23919.62992,-11806.68316,-28800.75917,448.1077728,-24932.29806,-31052.74213,-70398.07086,0.072,0.864,0.446,192,2,64,27,0,13,240,0,0,0,1709549655,0, 2024-03-04 16:24:15.446
192,-100231.0559,-23897.30053,-11789.2488,-28785.38117,799.2089747,-24918.77525,-31072.92576,-70386.58206,0.072,0.864,0.446,192,0,0,0,0,0,0,0,0,0,1709549655,0, 2024-03-04 16:24:15.446
193,-100222.987,-23895.95942,-11803.21864,-28787.0799,408.8581096,-24942.35634,-31115.41642,-70424.69179,0.072,0.864,0.446,192,0,0,0,0,0,0,0,0,0,1709549655,0, 2024-03-04 16:24:15.446
194,-100247.1045,-23907.24706,-11822.03881,-28793.49486,-223.9421277,-24956.70616,-31131.71084,-70447.80349,0.072,0.864,0.446,192,0,0,0,0,0,0,0,0,0,1709549655,0, 2024-03-04 16:24:15.446
195,-100281.258,-23927.67655,-11830.53247,-28804.2684,-232.8604737,-24950.17945,-31101.0219,-70431.06203,0.072,0.864,0.446,192,0,0,0,0,0,0,0,0,0,1709549655,0, 2024-03-04 16:24:15.446
196,-100274.0383,-23926.11193,-11815.17682,-28807.08472,450.4770578,-24933.72857,-31068.61187,-70446.88707,0.072,0.864,0.446,192,0,0,0,0,0,0,0,0,0,1709549655,0, 2024-03-04 16:24:15.446
197,-100244.6682,-23911.20331,-11810.90764,-28807.06236,789.9106491,-24937.57307,-31081.41942,-70507.77322,0.072,0.864,0.446,192,0,0,0,0,0,0,0,0,0,1709549655,0, 2024-03-04 16:24:15.446
198,-100239.3708,-23911.42683,-11821.77059,-28807.30823,392.6307431,-24954.87332,-31111.81779,-70462.13096,0.072,0.864,0.446,192,0,0,0,0,0,0,0,0,0,1709549655,0, 2024-03-04 16:24:15.446
199,-100268.2716,-23929.26352,-11832.8794,-28811.71153,-225.1267702,-24965.08807,-31107.48155,-70396.84151,0.072,0.864,0.446,192,0,0,0,0,0,0,0,0,0,1709549655,0, 2024-03-04 16:24:15.446
200,-100296.9489,-23942.87574,-11827.6938,-28815.17605,-225.1938254,-24951.25234,-31083.49813,-70387.69965,0.072,0.864,0.446,192,0,0,0,0,0,0,0,0,0,1709549655,0, 2024-03-04 16:24:15.446
201,-100295.0043,-23943.52394,-11821.54707,-28824.56378,443.7044792,-24940.47879,-31064.05211,-70436.89584,0.066,0.866,0.444,192,2,16,27,16,13,224,0,0,0,1709549655,0, 2024-03-04 16:24:15.446
202,-100272.3173,-23935.81258,-11827.93967,-28836.63372,774.3985384,-24959.61189,-31088.39316,-70547.29111,0.066,0.866,0.444,192,0,0,0,0,0,0,0,0,0,1709549655,0, 2024-03-04 16:24:15.446
203,-100255.2629,-23919.92049,-11827.82791,-28821.81452,394.7765106,-24962.13764,-31110.16376,-70482.22518,0.066,0.866,0.444,192,0,0,0,0,0,0,0,0,0,1709549655,0, 2024-03-04 16:24:15.446
204,-100270.6409,-23917.19358,-11834.60049,-28802.10028,-215.3590578,-24941.2164,-31117.33867,-70301.48897,0.066,0.866,0.444,192,0,0,0,0,0,0,0,0,0,1709549655,0, 2024-03-04 16:24:15.446
205,-100298.4688,-23929.66586,-11837.50622,-28809.23048,-233.70984,-24931.60515,-31095.70218,-70298.38208,0.066,0.866,0.444,192,0,0,0,0,0,0,0,0,0,1709549655,0, 2024-03-04 16:24:15.446
206,-100287.8294,-23925.7096,-11824.27398,-28818.23824,451.415831,-24926.97834,-31066.93549,-70367.1584,0.066,0.866,0.444,192,0,0,0,0,0,0,0,0,0,1709549655,0, 2024-03-04 16:24:15.446
207,-100248.4456,-23905.05658,-11815.33328,-28813.16439,794.8727363,-24932.05219,-31076.45733,-70418.4333,0.066,0.866,0.444,192,0,0,0,0,0,0,0,0,0,1709549655,0, 2024-03-04 16:24:15.446
208,-100234.5652,-23897.32288,-11819.15543,-28803.48609,403.0913595,-24944.25624,-31111.70603,-70414.94643,0.066,0.866,0.444,192,0,0,0,0,0,0,0,0,0,1709549655,0, 2024-03-04 16:24:15.446
209,-100249.8091,-23900.69799,-11824.43044,-28798.70281,-214.5990985,-24951.20763,-31121.87608,-70404.32935,0.066,0.866,0.444,192,0,0,0,0,0,0,0,0,0,1709549655,0, 2024-03-04 16:24:15.446
210,-100280.2298,-23917.35004,-11826.77738,-28809.4093,-236.7273255,-24952.45933,-31094.85282,-70414.72291,0.066,0.866,0.444,192,0,0,0,0,0,0,0,0,0,1709549656,0, 2024-03-04 16:24:15.926
211,-100266.6399,-23907.91761,-11802.43633,-28803.41903,447.7724967,-24931.51575,-31059.78293,-70395.90274,0.066,0.864,0.442,192,2,16,27,0,13,208,0,0,0,1709549656,0, 2024-03-04 16:24:15.926
212,-100229.7372,-23887.80104,-11790.36639,-28796.98173,812.7317801,-24930.8899,-31072.76929,-70427.75398,0.066,0.864,0.442,192,0,0,0,0,0,0,0,0,0,1709549656,0, 2024-03-04 16:24:15.926
213,-100217.8908,-23880.46967,-11799.03886,-28792.33256,446.3866885,-24946.51377,-31116.66812,-70441.00856,0.066,0.864,0.442,192,0,0,0,0,0,0,0,0,0,1709549656,0, 2024-03-04 16:24:15.926
214,-100245.3834,-23894.9536,-11807.62193,-28794.23246,-158.5856269,-24956.61675,-31112.77892,-70421.51784,0.066,0.864,0.442,192,0,0,0,0,0,0,0,0,0,1709549656,0, 2024-03-04 16:24:15.926
215,-100279.8722,-23915.69601,-11817.21083,-28808.2023,-188.7604819,-24956.52735,-31101.84891,-70468.59061,0.066,0.864,0.442,192,0,0,0,0,0,0,0,0,0,1709549656,0, 2024-03-04 16:24:15.926
216,-100269.8362,-23908.20818,-11797.34013,-28802.77083,480.3613401,-24928.85589,-31064.16387,-70442.23791,0.066,0.864,0.442,192,0,0,0,0,0,0,0,0,0,1709549656,0, 2024-03-04 16:24:15.926
217,-100238.9014,-23892.83018,-11790.47814,-28797.33936,843.9124637,-24924.29613,-31071.42819,-70414.6335,0.066,0.864,0.442,192,0,0,0,0,0,0,0,0,0,1709549656,0, 2024-03-04 16:24:15.926
218,-100227.7702,-23887.9575,-11800.46937,-28793.71837,475.555715,-24941.55168,-31106.78865,-70415.52757,0.066,0.864,0.442,192,0,0,0,0,0,0,0,0,0,1709549656,0, 2024-03-04 16:24:15.926
219,-100256.2911,-23901.25679,-11818.99897,-28800.08862,-144.4369727,-24957.37671,-31120.13264,-70457.50415,0.066,0.864,0.442,192,0,0,0,0,0,0,0,0,0,1709549656,0, 2024-03-04 16:24:15.926
220,-100287.0471,-23915.5619,-11818.66369,-28800.71447,-175.6400079,-24939.13769,-31082.08997,-70411.52661,0.066,0.864,0.442,192,0,0,0,0,0,0,0,0,0,1709549656,0, 2024-03-04 16:24:15.926
221,-100281.8168,-23912.05268,-11806.23612,-28796.17706,496.0522647,-24907.8229,-31051.64689,-70341.61035,0.066,0.864,0.444,192,2,16,27,0,13,224,0,0,0,1709549656,0, 2024-03-04 16:24:15.926
222,-100251.1502,-23895.93707,-11800.827,-28791.79612,850.0144899,-24907.04058,-31059.80528,-70367.27016,0.066,0.864,0.444,192,0,0,0,0,0,0,0,0,0,1709549656,0, 2024-03-04 16:24:15.926
223,-100245.9869,-23897.27818,-11818.61899,-28797.58522,462.6364067,-24934.98027,-31108.91206,-70430.05621,0.066,0.864,0.444,192,0,0,0,0,0,0,0,0,0,1709549656,0, 2024-03-04 16:24:15.926
224,-100279.8051,-23915.22663,-11842.22243,-28807.08472,-161.9607403,-24950.78295,-31129.07334,-70435.04065,0.066,0.864,0.444,192,0,0,0,0,0,0,0,0,0,1709549656,0, 2024-03-04 16:24:15.926
225,-100311.2764,-23929.30823,-11848.65974,-28815.8466,-205.7701595,-24942.4681,-31102.76533,-70412.80066,0.066,0.864,0.444,192,0,0,0,0,0,0,0,0,0,1709549656,0, 2024-03-04 16:24:15.926
226,-100296.0995,-23917.61826,-11826.4421,-28810.54924,455.9308834,-24915.46719,-31078.35723,-70397.42266,0.066,0.864,0.444,192,0,0,0,0,0,0,0,0,0,1709549656,0, 2024-03-04 16:24:15.926
227,-100262.0802,-23900.87681,-11814.03688,-28804.60367,815.8833761,-24912.76263,-31077.9549,-70417.47217,0.066,0.864,0.444,192,0,0,0,0,0,0,0,0,0,1709549656,0, 2024-03-04 16:24:15.926
228,-100252.4466,-23898.64163,-11829.14666,-28807.35294,444.8444181,-24936.679,-31116.91399,-70431.59848,0.066,0.864,0.444,192,0,0,0,0,0,0,0,0,0,1709549656,0, 2024-03-04 16:24:15.926
229,-100273.7031,-23905.45892,-11843.18356,-28805.90007,-176.1540981,-24942.33399,-31135.37653,-70389.71131,0.066,0.864,0.444,192,0,0,0,0,0,0,0,0,0,1709549656,0, 2024-03-04 16:24:15.926
230,-100299.2288,-23915.94188,-11840.50135,-28807.86703,-222.9586509,-24930.17464,-31099.88196,-70372.96985,0.066,0.864,0.444,192,0,0,0,0,0,0,0,0,0,1709549656,0, 2024-03-04 16:24:15.926
231,-100295.3843,-23919.07113,-11824.11752,-28812.82911,443.2574443,-24918.12705,-31057.34659,-70361.81633,0.066,0.866,0.452,192,2,16,27,16,14,32,0,0,0,1709549656,0, 2024-03-04 16:24:15.926
232,-100260.6049,-23902.41908,-11810.12533,-28805.67656,826.209882,-24915.35543,-31073.26103,-70350.59575,0.066,0.866,0.452,192,0,0,0,0,0,0,0,0,0,1709549656,0, 2024-03-04 16:24:15.926
233,-100243.2376,-23890.14797,-11815.10977,-28796.73586,472.6499883,-24929.88407,-31103.72646,-70362.53159,0.066,0.866,0.452,192,0,0,0,0,0,0,0,0,0,1709549656,0, 2024-03-04 16:24:15.926
234,-100267.4446,-23900.98857,-11826.21858,-28797.85345,-141.8888738,-24943.47393,-31118.90329,-70372.9922,0.066,0.866,0.452,192,0,0,0,0,0,0,0,0,0,1709549656,0, 2024-03-04 16:24:15.926
235,-100298.3794,-23917.84178,-11834.06405,-28812.42678,-196.1589093,-24949.93358,-31098.00441,-70441.81322,0.066,0.866,0.452,192,0,0,0,0,0,0,0,0,0,1709549656,0, 2024-03-04 16:24:15.926
236,-100289.8187,-23913.08086,-11819.73658,-28816.40539,447.7948484,-24937.59542,-31068.65657,-70448.45169,0.066,0.866,0.452,192,0,0,0,0,0,0,0,0,0,1709549656,0, 2024-03-04 16:24:15.926
237,-100253.6312,-23891.42202,-11801.40815,-28801.36267,820.9795738,-24923.55852,-31066.28729,-70391.65591,0.066,0.866,0.452,192,0,0,0,0,0,0,0,0,0,1709549656,0, 2024-03-04 16:24:15.926
238,-100242.0754,-23886.97402,-11810.30414,-28801.63089,467.8890667,-24948.05604,-31098.29499,-70447.51292,0.066,0.866,0.452,192,0,0,0,0,0,0,0,0,0,1709549656,0, 2024-03-04 16:24:15.926
239,-100263.9801,-23895.33358,-11826.12918,-28800.87093,-151.5895309,-24957.01909,-31109.62732,-70456.99006,0.066,0.866,0.452,192,0,0,0,0,0,0,0,0,0,1709549656,0, 2024-03-04 16:24:15.926
240,-100293.3279,-23909.6834,-11825.07865,-28804.89425,-198.9975809,-24946.98315,-31097.2221,-70459.15818,0.066,0.866,0.452,192,0,0,0,0,0,0,0,0,0,1709549656,0, 2024-03-04 16:24:15.926
241,-100285.3483,-23905.2801,-11809.94651,-28800.58036,452.6898805,-24922.30683,-31051.6916,-70446.77531,0.074,0.862,0.45,192,2,80,26,240,14,16,0,0,0,1709549656,0, 2024-03-04 16:24:15.926
242,-100259.8003,-23893.27722,-11802.81631,-28793.20428,831.3954868,-24912.9638,-31061.25814,-70389.86777,0.074,0.862,0.45,192,0,0,0,0,0,0,0,0,0,1709549656,0, 2024-03-04 16:24:15.926
243,-100242.5671,-23878.99445,-11805.40911,-28776.1052,475.5333633,-24911.82386,-31093.15408,-70326.1653,0.074,0.862,0.45,192,0,0,0,0,0,0,0,0,0,1709549656,0, 2024-03-04 16:24:15.926
244,-100274.8654,-23894.3054,-11826.88914,-28785.15765,-156.037528,-24929.10176,-31113.8965,-70376.05439,0.074,0.862,0.45,192,0,0,0,0,0,0,0,0,0,1709549656,0, 2024-03-04 16:24:15.926
245,-100311.2093,-23911.69505,-11836.6792,-28796.98173,-224.7244388,-24924.38554,-31088.34846,-70389.24192,0.074,0.862,0.45,192,0,0,0,0,0,0,0,0,0,1709549656,0, 2024-03-04 16:24:15.926
246,-100302.5592,-23907.29176,-11824.09517,-28800.02156,417.8435108,-24907.50997,-31054.48557,-70396.97562,0.074,0.862,0.45,192,0,0,0,0,0,0,0,0,0,1709549656,0, 2024-03-04 16:24:15.926
247,-100268.3834,-23889.34331,-11812.15934,-28798.09931,800.7065416,-24909.38752,-31064.09682,-70415.05819,0.074,0.862,0.45,192,0,0,0,0,0,0,0,0,0,1709549656,0, 2024-03-04 16:24:15.926
248,-100253.0054,-23879.59795,-11819.37895,-28795.10418,446.4537438,-24925.32431,-31091.16478,-70420.3779,0.074,0.862,0.45,192,0,0,0,0,0,0,0,0,0,1709549656,0, 2024-03-04 16:24:15.926
249,-100281.7944,-23893.65719,-11842.33419,-28804.9613,-194.3707698,-24944.18918,-31123.93244,-70422.72483,0.074,0.862,0.45,192,0,0,0,0,0,0,0,0,0,1709549656,0, 2024-03-04 16:24:15.926
250,-100314.0927,-23908.18583,-11844.18939,-28810.23631,-259.4590496,-24935.65082,-31103.14531,-70373.551,0.074,0.862,0.45,192,0,0,0,0,0,0,0,0,0,1709549656,0, 2024-03-04 16:24:15.926
251,-100308.2365,-23903.20139,-11826.17388,-28809.36459,397.2352025,-24915.71306,-31054.41851,-70348.42764,0.07,0.868,0.456,192,2,48,27,32,14,64,0,0,0,1709549656,0, 2024-03-04 16:24:15.926
252,-100273.7478,-23884.82826,-11817.18848,-28806.10124,782.6910356,-24915.80247,-31064.61091,-70354.44025,0.07,0.868,0.456,192,0,0,0,0,0,0,0,0,0,1709549656,0, 2024-03-04 16:24:15.926
253,-100262.4825,-23878.90504,-11831.51595,-28807.62116,438.2506535,-24940.85877,-31107.68272,-70390.65008,0.07,0.868,0.456,192,0,0,0,0,0,0,0,0,0,1709549656,0, 2024-03-04 16:24:15.926
254,-100286.9577,-23889.16449,-11846.98335,-28812.42678,-179.216287,-24955.9462,-31132.89549,-70411.4372,0.07,0.868,0.456,192,0,0,0,0,0,0,0,0,0,1709549656,0, 2024-03-04 16:24:15.926
255,-100321.4687,-23909.23636,-11856.19227,-28828.40828,-245.0198227,-24961.17651,-31117.15986,-70443.69077,0.07,0.868,0.456,192,0,0,0,0,0,0,0,0,0,1709549656,0, 2024-03-04 16:24:15.926
0,-100308.84,-23903.20139,-11836.6345,-28826.26251,400.0515223,-24943.29511,-31068.76833,-70422.50132,0.07,0.868,0.456,192,0,0,0,0,0,0,0,0,0,1709549656,0, 2024-03-04 16:24:15.926
1,-100270.7079,-23884.42592,-11821.41296,-28818.59586,798.2478497,-24941.39522,-31073.30573,-70413.09123,0.07,0.868,0.456,192,0,0,0,0,0,0,0,0,0,1709549656,0, 2024-03-04 16:24:15.926
2,-100253.0724,-23875.84285,-11825.23511,-28814.46079,470.3701103,-24960.61772,-31110.45433,-70444.80836,0.07,0.868,0.456,192,0,0,0,0,0,0,0,0,0,1709549656,0, 2024-03-04 16:24:15.926
3,-100275.0665,-23885.3647,-11838.02031,-28812.09151,-153.6011879,-24969.62547,-31134.88479,-70415.95226,0.07,0.868,0.456,192,0,0,0,0,0,0,0,0,0,1709549656,0, 2024-03-04 16:24:15.926
4,-100299.7429,-23894.81949,-11836.16511,-28809.58811,-224.5009213,-24953.04048,-31105.80517,-70391.54415,0.07,0.868,0.456,192,0,0,0,0,0,0,0,0,0,1709549656,0, 2024-03-04 16:24:15.926
5,-100294.9372,-23893.72425,-11822.28468,-28810.01279,425.7560284,-24934.91321,-31070.15414,-70403.0553,0.07,0.868,0.456,192,0,0,0,0,0,0,0,0,0,1709549656,0, 2024-03-04 16:24:15.926
6,-100251.6419,-23866.56688,-11803.26334,-28790.38796,834.5023792,-24917.41179,-31072.27755,-70373.39453,0.064,0.862,0.454,192,2,0,26,240,14,48,0,0,0,1709549656,0, 2024-03-04 16:24:15.926
7,-100237.6497,-23858.56496,-11817.16613,-28786.31995,497.9745147,-24933.57211,-31116.51166,-70392.66174,0.064,0.862,0.454,192,0,0,0,0,0,0,0,0,0,1709549656,0, 2024-03-04 16:24:15.926
8,-100265.2988,-23872.69126,-11841.08249,-28793.15958,-151.0307373,-24951.4982,-31143.40081,-70418.50035,0.064,0.862,0.454,192,0,0,0,0,0,0,0,0,0,1709549656,0, 2024-03-04 16:24:15.926
9,-100300.4581,-23892.09257,-11850.58199,-28803.08375,-244.1704564,-24946.29025,-31115.37172,-70427.79868,0.064,0.862,0.454,192,0,0,0,0,0,0,0,0,0,1709549656,0, 2024-03-04 16:24:15.926
10,-100297.6194,-23893.50073,-11837.72973,-28811.33155,407.0476183,-24935.27084,-31081.37471,-70470.37875,0.064,0.862,0.454,192,0,0,0,0,0,0,0,0,0,1709549656,0, 2024-03-04 16:24:15.926
11,-100265.2094,-23878.41331,-11832.58883,-28808.06819,816.1068936,-24931.18047,-31086.2921,-70469.39528,0.064,0.862,0.454,192,0,0,0,0,0,0,0,0,0,1709549656,0, 2024-03-04 16:24:15.926
12,-100251.6866,-23871.59602,-11839.36141,-28799.66394,497.6168868,-24938.46714,-31118.3445,-70415.72874,0.064,0.862,0.454,192,0,0,0,0,0,0,0,0,0,1709549656,0, 2024-03-04 16:24:15.926
13,-100274.8654,-23878.41331,-11857.42162,-28799.84275,-136.5915104,-24944.30094,-31138.66224,-70389.68896,0.064,0.862,0.454,192,0,0,0,0,0,0,0,0,0,1709549656,0, 2024-03-04 16:24:15.926
14,-100307.6777,-23894.9536,-11859.12035,-28807.35294,-231.0276307,-24934.93556,-31107.81683,-70399.09904,0.064,0.862,0.454,192,0,0,0,0,0,0,0,0,0,1709549656,0, 2024-03-04 16:24:15.926
15,-100306.5601,-23897.50169,-11843.1165,-28809.90104,411.361505,-24915.02016,-31069.75181,-70384.79392,0.064,0.862,0.454,192,0,0,0,0,0,0,0,0,0,1709549656,0, 2024-03-04 16:24:15.926
16,-100272.8537,-23881.96723,-11835.9863,-28806.72709,819.6608209,-24910.4157,-31080.19007,-70391.85707,0.068,0.858,0.448,192,2,32,26,208,14,0,0,0,0,1709549656,0, 2024-03-04 16:24:15.926
17,-100259.2862,-23876.58046,-11845.86577,-28806.61533,488.9667617,-24932.1863,-31117.53984,-70423.46244,0.068,0.858,0.448,192,0,0,0,0,0,0,0,0,0,1709549656,0, 2024-03-04 16:24:15.926
18,-100280.6768,-23884.51533,-11855.9464,-28803.6202,-144.7722488,-24937.17074,-31131.71084,-70372.9922,0.068,0.858,0.448,192,0,0,0,0,0,0,0,0,0,1709549656,0, 2024-03-04 16:24:15.926
19,-100308.9518,-23895.57944,-11855.96876,-28806.72709,-234.9168342,-24923.51382,-31103.88292,-70353.83676,0.068,0.858,0.448,192,0,0,0,0,0,0,0,0,0,1709549656,0, 2024-03-04 16:24:15.926
20,-100304.8838,-23892.76313,-11841.10485,-28810.14691,404.2312985,-24907.59938,-31065.95201,-70365.10204,0.068,0.858,0.448,192,0,0,0,0,0,0,0,0,0,1709549656,0, 2024-03-04 16:24:15.926
21,-100271.3114,-23878.41331,-11829.12431,-28805.006,801.2653352,-24906.03476,-31081.64294,-70359.64821,0.068,0.858,0.448,192,0,0,0,0,0,0,0,0,0,1709549656,0, 2024-03-04 16:24:15.926
22,-100259.3533,-23875.84285,-11843.98822,-28809.454,482.3729971,-24934.95791,-31126.05585,-70427.68692,0.068,0.858,0.448,192,0,0,0,0,0,0,0,0,0,1709549656,0, 2024-03-04 16:24:15.926
23,-100284.0296,-23888.91862,-11859.88031,-28816.67361,-152.5283042,-24960.4389,-31142.95377,-70462.0192,0.068,0.858,0.448,192,0,0,0,0,0,0,0,0,0,1709549656,0, 2024-03-04 16:24:15.926
24,-100305.0402,-23894.48421,-11847.58685,-28810.661,-237.1296569,-24946.3126,-31113.98591,-70414.85702,0.068,0.858,0.448,192,0,0,0,0,0,0,0,0,0,1709549656,0, 2024-03-04 16:24:15.926
25,-100293.1044,-23884.113,-11818.28372,-28799.93216,415.8542056,-24919.02112,-31068.79068,-70376.50143,0.068,0.858,0.448,192,0,0,0,0,0,0,0,0,0,1709549656,0, 2024-03-04 16:24:15.926
26,-100257.7663,-23863.81762,-11807.75604,-28791.10322,828.8697396,-24914.3049,-31079.00543,-70386.09032,0.068,0.866,0.446,192,2,32,27,16,13,240,0,0,0,1709549656,0, 2024-03-04 16:24:15.926
27,-100239.9743,-23851.59121,-11810.4606,-28784.3977,515.3418202,-24928.3865,-31114.76822,-70411.10193,0.068,0.866,0.446,192,0,0,0,0,0,0,0,0,0,1709549656,0, 2024-03-04 16:24:15.926
28,-100264.293,-23862.70003,-11818.97662,-28783.95066,-101.6110303,-24936.96957,-31127.79929,-70378.02134,0.068,0.866,0.446,192,0,0,0,0,0,0,0,0,0,1709549656,0, 2024-03-04 16:24:15.926
29,-100295.6301,-23875.61934,-11825.36922,-28788.9351,-209.8605287,-24929.54879,-31106.22985,-70390.3148,0.068,0.866,0.446,192,0,0,0,0,0,0,0,0,0,1709549656,0, 2024-03-04 16:24:15.926
30,-100294.1549,-23875.28406,-11813.25457,-28794.29952,423.1855778,-24917.25533,-31067.02489,-70438.92985,0.068,0.866,0.446,192,0,0,0,0,0,0,0,0,0,1709549656,0, 2024-03-04 16:24:15.926
31,-100265.5,-23859.72725,-11804.87267,-28790.70089,827.8192076,-24917.09887,-31077.44081,-70490.62943,0.068,0.866,0.446,192,0,0,0,0,0,0,0,0,0,1709549656,0, 2024-03-04 16:24:15.926
32,-100252.8265,-23852.68645,-11814.34981,-28786.27524,524.5507389,-24930.26405,-31115.93051,-70487.36608,0.068,0.866,0.446,192,0,0,0,0,0,0,0,0,0,1709549656,0, 2024-03-04 16:24:15.926
33,-100276.2065,-23860.21899,-11828.23024,-28779.14504,-108.2942019,-24929.50409,-31133.32017,-70420.3332,0.068,0.866,0.446,192,0,0,0,0,0,0,0,0,0,1709549656,0, 2024-03-04 16:24:15.926
34,-100308.8624,-23875.48523,-11826.01742,-28780.68731,-209.9052322,-24914.17079,-31103.0112,-70377.70842,0.068,0.866,0.446,192,0,0,0,0,0,0,0,0,0,1709549656,0, 2024-03-04 16:24:15.926
35,-100309.2423,-23880.76024,-11816.60733,-28792.75725,425.9795458,-24905.00658,-31069.72946,-70401.64714,0.068,0.866,0.446,192,0,0,0,0,0,0,0,0,0,1709549656,0, 2024-03-04 16:24:15.926
36,-100278.6205,-23867.4386,-11804.20212,-28789.5833,850.8415044,-24900.02214,-31070.24355,-70382.78227,0.07,0.868,0.446,192,2,48,27,32,13,240,0,0,0,1709549656,0, 2024-03-04 16:24:15.926
37,-100263.4213,-23860.01782,-11813.79101,-28786.92344,543.5497217,-24914.8637,-31106.96746,-70402.07182,0.07,0.868,0.446,192,0,0,0,0,0,0,0,0,0,1709549656,0, 2024-03-04 16:24:15.926
38,-100298.9605,-23881.85547,-11849.30794,-28804.69308,-116.85492,-24943.63039,-31139.80217,-70436.76173,0.07,0.868,0.446,192,0,0,0,0,0,0,0,0,0,1709549656,0, 2024-03-04 16:24:15.926
39,-100333.3822,-23901.12268,-11858.47215,-28813.54437,-224.3668108,-24935.89669,-31103.07826,-70371.62875,0.07,0.868,0.446,192,0,0,0,0,0,0,0,0,0,1709549656,0, 2024-03-04 16:24:15.926
40,-100329.8507,-23900.7427,-11843.40708,-28817.7912,412.5237957,-24918.86466,-31072.2105,-70394.1146,0.07,0.868,0.446,192,0,0,0,0,0,0,0,0,0,1709549656,0, 2024-03-04 16:24:15.926
41,-100296.8595,-23882.10134,-11835.09223,-28812.76206,824.7346669,-24916.76359,-31079.47482,-70423.28363,0.07,0.868,0.446,192,0,0,0,0,0,0,0,0,0,1709549656,0, 2024-03-04 16:24:15.926
42,-100282.3755,-23874.4794,-11843.51883,-28812.33738,517.2417184,-24935.06967,-31114.81292,-70425.29528,0.07,0.868,0.446,192,0,0,0,0,0,0,0,0,0,1709549656,0, 2024-03-04 16:24:15.926
43,-100304.1238,-23882.92836,-11855.23115,-28810.99627,-125.5497486,-24943.8092,-31135.22007,-70403.81526,0.07,0.868,0.446,192,0,0,0,0,0,0,0,0,0,1709549656,0, 2024-03-04 16:24:15.926
44,-100334.9916,-23895.06535,-11857.68984,-28812.82911,-246.0256512,-24929.54879,-31114.12002,-70371.36053,0.07,0.868,0.446,192,0,0,0,0,0,0,0,0,0,1709549656,0, 2024-03-04 16:24:15.926
45,-100322.7652,-23884.67179,-11835.78513,-28810.77275,384.7182256,-24908.38169,-31077.9996,-70394.69575,0.07,0.868,0.446,192,0,0,0,0,0,0,0,0,0,1709549656,0, 2024-03-04 16:24:15.926
46,-100286.8012,-23864.1976,-11825.36922,-28805.6095,813.3129255,-24904.96187,-31081.08414,-70431.12909,0.068,0.864,0.448,192,2,32,27,0,14,0,0,0,0,1709549656,0, 2024-03-04 16:24:15.926
47,-100269.1657,-23853.98285,-11831.38184,-28801.65324,518.2922504,-24919.46815,-31115.48348,-70419.43913,0.068,0.864,0.448,192,0,0,0,0,0,0,0,0,0,1709549656,0, 2024-03-04 16:24:15.926
48,-100285.393,-23857.00033,-11844.70348,-28799.68629,-131.897644,-24928.69943,-31134.01307,-70388.05728,0.068,0.864,0.448,192,0,0,0,0,0,0,0,0,0,1709549656,0, 2024-03-04 16:24:15.926
49,-100312.6845,-23866.65629,-11841.2166,-28799.93216,-255.6816048,-24918.93171,-31111.88485,-70370.64527,0.068,0.864,0.448,192,0,0,0,0,0,0,0,0,0,1709549656,0, 2024-03-04 16:24:15.926
50,-100308.1248,-23865.89633,-11821.68118,-28802.03322,393.2565919,-24905.67713,-31073.5516,-70384.23513,0.068,0.864,0.448,192,0,0,0,0,0,0,0,0,0,1709549656,0, 2024-03-04 16:24:15.926
51,-100277.1229,-23852.59704,-11814.14864,-28799.59688,820.443132,-24907.35351,-31079.34071,-70390.8736,0.068,0.864,0.448,192,0,0,0,0,0,0,0,0,0,1709549656,0, 2024-03-04 16:24:15.926
52,-100266.4835,-23851.30064,-11826.4421,-28803.39668,512.816073,-24935.49436,-31108.73325,-70436.42645,0.068,0.864,0.448,192,0,0,0,0,0,0,0,0,0,1709549656,0, 2024-03-04 16:24:15.926
53,-100283.4708,-23855.3463,-11830.2419,-28798.74752,-127.181426,-24942.35634,-31141.54561,-70431.53142,0.068,0.864,0.448,192,0,0,0,0,0,0,0,0,0,1709549656,0, 2024-03-04 16:24:15.926
54,-100313.5339,-23867.75152,-11832.81235,-28799.52983,-248.9090263,-24929.52644,-31114.61176,-70417.31571,0.068,0.864,0.448,192,0,0,0,0,0,0,0,0,0,1709549656,0, 2024-03-04 16:24:15.926
55,-100311.3211,-23866.43277,-11819.75893,-28795.73003,386.8192895,-24903.88899,-31069.14831,-70383.11754,0.068,0.864,0.448,192,0,0,0,0,0,0,0,0,0,1709549656,0, 2024-03-04 16:24:15.926
56,-100282.979,-23853.64757,-11809.74535,-28790.03034,822.2312715,-24896.06588,-31087.47674,-70398.09321,0.072,0.86,0.45,192,2,64,26,224,14,16,0,0,0,1709549656,0, 2024-03-04 16:24:15.926
57,-100269.7245,-23848.93135,-11818.61899,-28790.03034,518.9628028,-24916.45067,-31120.64673,-70450.99979,0.072,0.86,0.45,192,0,0,0,0,0,0,0,0,0,1709549656,0, 2024-03-04 16:24:15.926
58,-100304.3697,-23873.183,-11854.29238,-28809.52106,-135.7644958,-24946.22319,-31151.80506,-70472.23395,0.072,0.86,0.45,192,0,0,0,0,0,0,0,0,0,1709549656,0, 2024-03-04 16:24:15.926
59,-100342.6582,-23892.47255,-11864.32831,-28816.40539,-256.1286397,-24934.95791,-31130.28033,-70402.67532,0.072,0.86,0.45,192,0,0,0,0,0,0,0,0,0,1709549656,0, 2024-03-04 16:24:15.926
60,-100331.7729,-23882.59308,-11836.29922,-28807.12942,390.3955687,-24903.06197,-31072.43402,-70378.91541,0.072,0.86,0.45,192,0,0,0,0,0,0,0,0,0,1709549656,0, 2024-03-04 16:24:15.926
61,-100300.2569,-23869.11498,-11829.79486,-28807.37529,829.9873269,-24901.40795,-31079.296,-70400.90953,0.072,0.86,0.45,192,0,0,0,0,0,0,0,0,0,1709549656,0, 2024-03-04 16:24:15.926
62,-100287.1141,-23863.01295,-11843.29532,-28811.77858,519.6557068,-24926.4866,-31115.28231,-70441.32149,0.072,0.86,0.45,192,0,0,0,0,0,0,0,0,0,1709549656,0, 2024-03-04 16:24:15.926
63,-100308.2142,-23872.5795,-11859.03095,-28816.22658,-135.0939435,-24941.73049,-31153.74966,-70414.85702,0.072,0.86,0.45,192,0,0,0,0,0,0,0,0,0,1709549656,0, 2024-03-04 16:24:15.926
64,-100348.3579,-23897.56875,-11875.86181,-28836.58902,-269.5843899,-24949.66536,-31140.7186,-70400.44014,0.072,0.86,0.45,192,0,0,0,0,0,0,0,0,0,1709549656,0, 2024-03-04 16:24:15.926
65,-100346.6592,-23896.62998,-11861.53434,-28840.50057,359.6172165,-24932.05219,-31098.69732,-70407.77152,0.072,0.86,0.45,192,0,0,0,0,0,0,0,0,0,1709549656,0, 2024-03-04 16:24:15.926
66,-100312.7069,-23877.31807,-11847.5645,-28833.68329,807.143844,-24924.72081,-31098.13852,-70411.97364,0.068,0.862,0.454,192,2,32,26,240,14,48,0,0,0,1709549656,0, 2024-03-04 16:24:15.926
67,-100294.669,-23867.75152,-11853.53242,-28826.1284,500.2320409,-24935.80728,-31131.55438,-70404.37405,0.068,0.862,0.454,192,0,0,0,0,0,0,0,0,0,1709549656,0, 2024-03-04 16:24:15.926
68,-100317.5125,-23877.6757,-11868.48573,-28829.48116,-157.1551153,-24951.09587,-31151.15686,-70440.87445,0.068,0.862,0.454,192,0,0,0,0,0,0,0,0,0,1709549656,0, 2024-03-04 16:24:15.926
69,-100354.7728,-23898.35106,-11880.33216,-28840.7688,-285.5882389,-24950.17945,-31125.58647,-70438.10283,0.068,0.862,0.454,192,0,0,0,0,0,0,0,0,0,1709549656,0, 2024-03-04 16:24:15.926
70,-100347.6873,-23893.99247,-11858.04747,-28838.10894,357.73967,-24929.39233,-31084.16868,-70421.40608,0.068,0.862,0.454,192,0,0,0,0,0,0,0,0,0,1709549656,0, 2024-03-04 16:24:15.926
71,-100308.46,-23869.71848,-11837.19329,-28821.47924,803.5005097,-24914.01433,-31094.85282,-70406.49747,0.068,0.862,0.454,192,0,0,0,0,0,0,0,0,0,1709549656,0, 2024-03-04 16:24:15.926
72,-100288.634,-23856.84387,-11838.91438,-28812.6503,502.1542909,-24927.98417,-31130.30268,-70385.46448,0.068,0.862,0.454,192,0,0,0,0,0,0,0,0,0,1709549656,0, 2024-03-04 16:24:15.926
73,-100306.9401,-23862.52121,-11851.31959,-28809.63282,-144.3252139,-24937.43896,-31143.66903,-70348.87467,0.068,0.862,0.454,192,0,0,0,0,0,0,0,0,0,1709549656,0, 2024-03-04 16:24:15.926
74,-100342.2112,-23880.58142,-11862.09313,-28824.2285,-268.1538782,-24944.47976,-31126.7264,-70413.69473,0.068,0.862,0.454,192,0,0,0,0,0,0,0,0,0,1709549656,0, 2024-03-04 16:24:16.407
75,-100330.3647,-23870.99253,-11830.91245,-28818.9982,374.6375888,-24923.78204,-31076.30087,-70437.58874,0.068,0.862,0.454,192,0,0,0,0,0,0,0,0,0,1709549656,0, 2024-03-04 16:24:16.407
76,-100292.0762,-23846.33855,-11807.80075,-28803.24022,834.6811932,-24909.36517,-31075.60796,-70439.71216,0.072,0.864,0.454,192,2,64,27,0,14,48,0,0,0,1709549656,0, 2024-03-04 16:24:16.407
77,-100274.7536,-23835.54266,-11813.81337,-28792.75725,525.2883464,-24918.32822,-31122.85955,-70418.478,0.072,0.864,0.454,192,0,0,0,0,0,0,0,0,0,1709549656,0, 2024-03-04 16:24:16.407
78,-100299.8099,-23846.89735,-11832.65589,-28793.67367,-144.9734145,-24931.80632,-31140.31626,-70419.05915,0.072,0.864,0.454,192,0,0,0,0,0,0,0,0,0,1709549656,0, 2024-03-04 16:24:16.407
79,-100336.7797,-23866.09749,-11838.44499,-28800.87093,-263.5270671,-24928.87824,-31113.60593,-70443.71312,0.072,0.864,0.454,192,0,0,0,0,0,0,0,0,0,1709549656,0, 2024-03-04 16:24:16.407
80,-100333.7175,-23862.9906,-11820.67535,-28799.01574,378.1468127,-24905.40891,-31070.9588,-70408.03974,0.072,0.864,0.454,192,0,0,0,0,0,0,0,0,0,1709549656,0, 2024-03-04 16:24:16.407
81,-100301.4639,-23846.76323,-11811.0641,-28793.27134,823.6841349,-24895.70825,-31077.17259,-70379.94359,0.072,0.864,0.454,192,0,0,0,0,0,0,0,0,0,1709549656,0, 2024-03-04 16:24:16.407
82,-100293.7079,-23848.43962,-11833.95229,-28800.20038,514.0677707,-24919.64697,-31121.09376,-70402.98824,0.072,0.864,0.454,192,0,0,0,0,0,0,0,0,0,1709549656,0, 2024-03-04 16:24:16.407
83,-100315.4785,-23859.50373,-11845.6199,-28802.77083,-137.9549668,-24932.2757,-31136.56117,-70403.12235,0.072,0.864,0.454,192,0,0,0,0,0,0,0,0,0,1709549656,0, 2024-03-04 16:24:16.407
84,-100348.0226,-23878.16744,-11849.30794,-28814.01376,-263.3929567,-24932.61098,-31111.66133,-70425.5188,0.072,0.864,0.454,192,0,0,0,0,0,0,0,0,0,1709549656,0, 2024-03-04 16:24:16.407
85,-100352.2247,-23884.42592,-11843.6753,-28827.9836,380.0690627,-24926.82188,-31077.3514,-70464.07556,0.072,0.864,0.454,192,0,0,0,0,0,0,0,0,0,1709549656,0, 2024-03-04 16:24:16.407
86,-100319.0101,-23867.84093,-11830.8454,-28823.93793,835.1505798,-24921.61392,-31081.41942,-70449.05519,0.066,0.864,0.452,192,2,16,27,0,14,32,0,0,0,1709549656,0, 2024-03-04 16:24:16.407
87,-100301.6204,-23861.22481,-11837.95325,-28823.78147,531.4350762,-24941.66344,-31119.08211,-70442.8414,0.066,0.864,0.452,192,0,0,0,0,0,0,0,0,0,1709549656,0, 2024-03-04 16:24:16.407
88,-100320.2394,-23871.66308,-11853.46536,-28828.7212,-128.7907516,-24956.97438,-31128.91687,-70437.99108,0.066,0.864,0.452,192,0,0,0,0,0,0,0,0,0,1709549656,0, 2024-03-04 16:24:16.407
89,-100359.6902,-23892.33844,-11862.71898,-28841.19348,-243.7234215,-24954.47099,-31101.0666,-70397.9144,0.066,0.864,0.452,192,0,0,0,0,0,0,0,0,0,1709549656,0, 2024-03-04 16:24:16.407
90,-100359.9808,-23889.79034,-11849.64321,-28842.69105,393.6142199,-24936.32137,-31046.72951,-70396.23802,0.066,0.864,0.452,192,0,0,0,0,0,0,0,0,0,1709549656,0, 2024-03-04 16:24:16.407
91,-100325.1344,-23869.18203,-11833.32644,-28837.10311,834.7482484,-24934.57793,-31078.40193,-70457.95118,0.066,0.864,0.452,192,0,0,0,0,0,0,0,0,0,1709549656,0, 2024-03-04 16:24:16.407
92,-100304.0567,-23856.28508,-11838.6238,-28828.76591,525.0201255,-24947.27372,-31125.85469,-70461.79568,0.066,0.864,0.452,192,0,0,0,0,0,0,0,0,0,1709549656,0, 2024-03-04 16:24:16.407
93,-100326.2744,-23867.66212,-11857.13105,-28828.20711,-136.5021034,-24956.48264,-31139.15397,-70392.52763,0.066,0.864,0.452,192,0,0,0,0,0,0,0,0,0,1709549656,0, 2024-03-04 16:24:16.407
94,-100356.114,-23881.58725,-11854.04651,-28831.38106,-244.0586977,-24950.96176,-31119.99853,-70379.45186,0.066,0.864,0.452,192,0,0,0,0,0,0,0,0,0,1709549656,0, 2024-03-04 16:24:16.407
95,-100355.3987,-23881.72136,-11839.98726,-28834.68912,391.4461006,-24936.0755,-31081.82175,-70420.08733,0.066,0.864,0.452,192,0,0,0,0,0,0,0,0,0,1709549656,0, 2024-03-04 16:24:16.407
96,-100316.9313,-23856.28508,-11819.84834,-28818.57351,846.6617282,-24919.53521,-31082.22408,-70390.15834,0.068,0.87,0.448,192,2,32,27,48,14,0,0,0,0,1709549656,0, 2024-03-04 16:24:16.407
97,-100289.6622,-23838.49309,-11822.30703,-28808.31406,550.8363904,-24929.81701,-31123.28424,-70418.72387,0.068,0.87,0.448,192,0,0,0,0,0,0,0,0,0,1709549656,0, 2024-03-04 16:24:16.407
98,-100311.7234,-23848.05964,-11840.99309,-28815.8019,-105.746103,-24956.99673,-31145.56892,-70494.85391,0.068,0.87,0.448,192,0,0,0,0,0,0,0,0,0,1709549656,0, 2024-03-04 16:24:16.407
99,-100345.7204,-23865.20342,-11845.0611,-28825.59196,-238.5378168,-24959.00839,-31118.88094,-70499.83835,0.068,0.87,0.448,192,0,0,0,0,0,0,0,0,0,1709549656,0, 2024-03-04 16:24:16.407
100,-100337.8749,-23856.21802,-11820.09421,-28814.12552,402.3984554,-24923.22325,-31069.59535,-70424.80355,0.068,0.87,0.448,192,0,0,0,0,0,0,0,0,0,1709549656,0, 2024-03-04 16:24:16.407
101,-100305.6214,-23836.54849,-11805.52087,-28802.10028,859.5586848,-24908.18052,-31067.85191,-70371.85226,0.068,0.87,0.448,192,0,0,0,0,0,0,0,0,0,1709549656,0, 2024-03-04 16:24:16.407
102,-100287.3823,-23824.74677,-11811.80171,-28793.45015,566.4826115,-24917.25533,-31109.00147,-70373.48394,0.068,0.87,0.448,192,0,0,0,0,0,0,0,0,0,1709549656,0, 2024-03-04 16:24:16.407
103,-100309.0635,-23834.87211,-11825.59274,-28793.33839,-91.57509703,-24930.95695,-31128.98393,-70393.55581,0.068,0.87,0.448,192,0,0,0,0,0,0,0,0,0,1709549656,0, 2024-03-04 16:24:16.407
104,-100342.7253,-23850.40657,-11829.43724,-28798.70281,-210.0393426,-24923.46912,-31099.90431,-70411.4372,0.068,0.87,0.448,192,0,0,0,0,0,0,0,0,0,1709549656,0, 2024-03-04 16:24:16.407
105,-100345.184,-23856.17332,-11821.88235,-28809.54341,414.7813219,-24913.45554,-31063.8733,-70460.58869,0.068,0.87,0.448,192,0,0,0,0,0,0,0,0,0,1709549656,0, 2024-03-04 16:24:16.407
106,-100318.183,-23843.65634,-11815.91443,-28809.00697,872.0086064,-24908.78402,-31073.28338,-70469.77526,0.072,0.864,0.446,192,2,64,27,0,13,240,0,0,0,1709549656,0, 2024-03-04 16:24:16.407
107,-100303.9897,-23839.16364,-11824.38574,-28809.29754,557.1842858,-24926.24073,-31123.15012,-70454.21844,0.072,0.864,0.446,192,0,0,0,0,0,0,0,0,0,1709549656,0, 2024-03-04 16:24:16.407
108,-100324.6203,-23849.73602,-11842.31184,-28813.61143,-106.6401728,-24939.00358,-31139.37749,-70423.5742,0.072,0.864,0.446,192,0,0,0,0,0,0,0,0,0,1709549656,0, 2024-03-04 16:24:16.407
109,-100351.3307,-23859.39197,-11842.20008,-28814.17022,-235.2074069,-24923.44677,-31107.61566,-70353.03209,0.072,0.864,0.446,192,0,0,0,0,0,0,0,0,0,1709549656,0, 2024-03-04 16:24:16.407
110,-100350.4366,-23860.08487,-11829.41488,-28821.70276,386.6851791,-24912.33795,-31071.29408,-70388.16904,0.072,0.864,0.446,192,0,0,0,0,0,0,0,0,0,1709549656,0, 2024-03-04 16:24:16.407
111,-100320.5747,-23844.03632,-11825.95036,-28821.50159,833.0271641,-24911.1086,-31084.14633,-70420.44496,0.072,0.864,0.446,192,0,0,0,0,0,0,0,0,0,1709549656,0, 2024-03-04 16:24:16.407
112,-100299.8546,-23832.25695,-11830.48777,-28818.30529,542.8344658,-24924.89963,-31122.27841,-70428.80451,0.072,0.864,0.446,192,0,0,0,0,0,0,0,0,0,1709549656,0, 2024-03-04 16:24:16.407
113,-100319.4794,-23838.51544,-11844.4129,-28816.02541,-127.2931847,-24933.57211,-31140.1151,-70403.94937,0.072,0.864,0.446,192,0,0,0,0,0,0,0,0,0,1709549656,0, 2024-03-04 16:24:16.407
114,-100367.1557,-23869.13733,-11861.91432,-28834.28679,-276.7816516,-24940.81407,-31122.16665,-70403.56939,0.072,0.864,0.446,192,0,0,0,0,0,0,0,0,0,1709549656,0, 2024-03-04 16:24:16.407
115,-100374.2412,-23877.56394,-11852.14661,-28846.69201,355.6609578,-24935.98609,-31088.08024,-70436.09118,0.072,0.864,0.446,192,0,0,0,0,0,0,0,0,0,1709549656,0, 2024-03-04 16:24:16.407
116,-100342.0547,-23860.75543,-11843.56354,-28838.75714,824.287632,-24927.76065,-31099.23376,-70440.76269,0.066,0.862,0.444,192,2,16,26,240,13,224,0,0,0,1709549656,0, 2024-03-04 16:24:16.407
117,-100321.6923,-23848.35021,-11846.20104,-28829.72703,517.197015,-24938.08716,-31135.75651,-70436.00177,0.066,0.862,0.444,192,0,0,0,0,0,0,0,0,0,1709549656,0, 2024-03-04 16:24:16.407
118,-100345.4745,-23858.5426,-11866.51878,-28833.45977,-144.056993,-24952.90636,-31157.30359,-70439.10866,0.066,0.862,0.444,192,0,0,0,0,0,0,0,0,0,1709549656,0, 2024-03-04 16:24:16.407
119,-100370.5308,-23864.2423,-11859.20976,-28827.96125,-268.6903201,-24937.19309,-31123.06072,-70393.84638,0.066,0.862,0.444,192,0,0,0,0,0,0,0,0,0,1709549656,0, 2024-03-04 16:24:16.407
120,-100364.2947,-23858.31909,-11835.3381,-28821.21102,373.1176702,-24911.98032,-31075.18328,-70369.46063,0.066,0.862,0.444,192,0,0,0,0,0,0,0,0,0,1709549656,0, 2024-03-04 16:24:16.407
121,-100330.9682,-23841.84585,-11821.74824,-28814.5502,839.598577,-24905.69948,-31086.24739,-70392.50528,0.066,0.862,0.444,192,0,0,0,0,0,0,0,0,0,1709549656,0, 2024-03-04 16:24:16.407
122,-100306.6272,-23827.1384,-11827.24676,-28809.67752,552.7809921,-24925.57018,-31112.42129,-70443.73547,0.066,0.862,0.444,192,0,0,0,0,0,0,0,0,0,1709549656,0, 2024-03-04 16:24:16.407
123,-100318.2277,-23828.30069,-11835.96394,-28805.85537,-108.0930362,-24940.43409,-31132.94019,-70451.11155,0.066,0.862,0.444,192,0,0,0,0,0,0,0,0,0,1709549656,0, 2024-03-04 16:24:16.407
124,-100347.732,-23841.75644,-11832.09709,-28807.97879,-251.7700495,-24933.66151,-31123.4407,-70430.30208,0.066,0.862,0.444,192,0,0,0,0,0,0,0,0,0,1709549656,0, 2024-03-04 16:24:16.407
125,-100346.3015,-23840.86237,-11810.75118,-28806.01183,372.4471179,-24909.34281,-31072.92576,-70393.71227,0.066,0.862,0.444,192,0,0,0,0,0,0,0,0,0,1709549656,0, 2024-03-04 16:24:16.407
126,-100320.7088,-23829.12771,-11805.8785,-28805.14011,849.6345102,-24906.81707,-31070.80234,-70447.2447,0.064,0.858,0.44,192,2,0,26,208,13,192,0,0,0,1709549656,0, 2024-03-04 16:24:16.407
127,-100305.8672,-23821.01403,-11812.58402,-28800.37919,565.476783,-24917.97059,-31113.47182,-70423.41774,0.064,0.858,0.44,192,0,0,0,0,0,0,0,0,0,1709549656,0, 2024-03-04 16:24:16.407
128,-100329.8059,-23832.48047,-11835.67337,-28805.45304,-101.7451408,-24933.21448,-31132.4261,-70400.70837,0.064,0.858,0.44,192,0,0,0,0,0,0,0,0,0,1709549656,0, 2024-03-04 16:24:16.407
129,-100368.8544,-23854.47459,-11847.74331,-28819.95932,-247.4114594,-24937.19309,-31120.80319,-70439.66746,0.064,0.858,0.44,192,0,0,0,0,0,0,0,0,0,1709549656,0, 2024-03-04 16:24:16.407
130,-100368.3404,-23854.6087,-11831.60535,-28822.73094,367.6191411,-24917.81413,-31069.50594,-70446.95412,0.064,0.858,0.44,192,0,0,0,0,0,0,0,0,0,1709549656,0, 2024-03-04 16:24:16.407
131,-100333.9857,-23835.72147,-11814.66273,-28812.98558,845.7676584,-24901.65381,-31067.96367,-70417.87451,0.064,0.858,0.44,192,0,0,0,0,0,0,0,0,0,1709549656,0, 2024-03-04 16:24:16.407
132,-100314.4279,-23826.75842,-11822.15057,-28809.56576,563.1074981,-24915.57895,-31100.79838,-70441.65676,0.064,0.858,0.44,192,0,0,0,0,0,0,0,0,0,1709549656,0, 2024-03-04 16:24:16.407
133,-100336.6903,-23840.34828,-11836.6792,-28814.34903,-99.42055934,-24933.30388,-31120.80319,-70420.31085,0.064,0.858,0.44,192,0,0,0,0,0,0,0,0,0,1709549656,0, 2024-03-04 16:24:16.407
134,-100370.0838,-23859.90606,-11846.93865,-28822.37331,-258.5426281,-24926.68777,-31101.49128,-70365.23615,0.064,0.858,0.44,192,0,0,0,0,0,0,0,0,0,1709549656,0, 2024-03-04 16:24:16.407
135,-100368.8321,-23859.52608,-11832.72294,-28823.82617,366.9709405,-24906.81707,-31058.62064,-70368.99124,0.064,0.858,0.44,192,0,0,0,0,0,0,0,0,0,1709549656,0, 2024-03-04 16:24:16.407
136,-100339.4172,-23839.56597,-11822.68701,-28815.22075,845.4994375,-24897.60815,-31062.82277,-70408.46442,0.064,0.858,0.44,192,0,0,0,0,0,0,0,0,0,1709549656,0, 2024-03-04 16:24:16.407
137,-100321.5358,-23827.18311,-11834.95812,-28812.53854,556.6701957,-24913.14261,-31109.62732,-70440.76269,0.068,0.866,0.444,192,2,32,27,16,13,224,0,0,0,1709549656,0, 2024-03-04 16:24:16.407
138,-100343.2393,-23838.56014,-11861.66845,-28820.24989,-123.4039811,-24932.1863,-31143.33375,-70422.8813,0.068,0.866,0.444,192,0,0,0,0,0,0,0,0,0,1709549656,0, 2024-03-04 16:24:16.407
139,-100380.0303,-23857.04504,-11872.12907,-28831.00108,-283.8895063,-24931.02401,-31120.35616,-70394.49458,0.068,0.866,0.444,192,0,0,0,0,0,0,0,0,0,1709549656,0, 2024-03-04 16:24:16.407
140,-100371.5367,-23846.33855,-11847.07276,-28821.05456,341.1323239,-24900.08919,-31067.49428,-70370.28764,0.068,0.866,0.444,192,0,0,0,0,0,0,0,0,0,1709549656,0, 2024-03-04 16:24:16.407
141,-100337.7855,-23824.74677,-11829.83957,-28808.98461,830.8813966,-24888.66745,-31067.51663,-70359.06707,0.068,0.866,0.444,192,0,0,0,0,0,0,0,0,0,1709549656,0, 2024-03-04 16:24:16.407
142,-100317.4007,-23813.88382,-11836.45568,-28805.18482,556.2455125,-24907.59938,-31107.28039,-70388.79489,0.068,0.866,0.444,192,0,0,0,0,0,0,0,0,0,1709549656,0, 2024-03-04 16:24:16.407
143,-100339.7972,-23827.07135,-11855.61113,-28814.01376,-115.804388,-24934.46618,-31137.36583,-70420.26614,0.068,0.866,0.444,192,0,0,0,0,0,0,0,0,0,1709549656,0, 2024-03-04 16:24:16.407
144,-100374.2189,-23847.0091,-11861.62375,-28827.9836,-281.5425732,-24943.94332,-31117.96452,-70472.74804,0.068,0.866,0.444,192,0,0,0,0,0,0,0,0,0,1709549656,0, 2024-03-04 16:24:16.407
145,-100370.4191,-23842.29289,-11838.84732,-28821.85922,329.3082511,-24917.23298,-31083.20756,-70419.7744,0.068,0.866,0.444,192,0,0,0,0,0,0,0,0,0,1709549656,0, 2024-03-04 16:24:16.408
146,-100324.7768,-23816.38721,-11812.964,-28804.73778,835.2623386,-24897.65285,-31065.32616,-70383.76574,0.068,0.866,0.444,192,0,0,0,0,0,0,0,0,0,1709549656,0, 2024-03-04 16:24:16.408
147,-100303.4979,-23805.3231,-11816.33911,-28799.97686,570.0365388,-24911.95797,-31111.86249,-70393.4217,0.076,0.868,0.444,192,2,96,27,32,13,224,0,0,0,1709549656,0, 2024-03-04 16:24:16.408
148,-100317.4454,-23808.36294,-11819.55776,-28799.50747,-100.5157948,-24930.12994,-31130.07917,-70419.32737,0.076,0.868,0.444,192,0,0,0,0,0,0,0,0,0,1709549656,0, 2024-03-04 16:24:16.408
149,-100351.9118,-23822.08691,-11826.21858,-28806.50357,-257.2238752,-24928.74413,-31100.03842,-70442.1932,0.076,0.868,0.444,192,0,0,0,0,0,0,0,0,0,1709549656,0, 2024-03-04 16:24:16.408
150,-100348.6932,-23816.63308,-11807.35371,-28803.21786,362.8805712,-24906.03476,-31058.35242,-70426.79285,0.076,0.868,0.444,192,0,0,0,0,0,0,0,0,0,1709549656,0, 2024-03-04 16:24:16.408
151,-100311.4328,-23790.41449,-11787.72888,-28784.77768,850.0591934,-24885.38174,-31055.98313,-70377.4402,0.076,0.868,0.444,192,0,0,0,0,0,0,0,0,0,1709549656,0, 2024-03-04 16:24:16.408
152,-100290.3998,-23776.53405,-11792.93684,-28774.38411,574.8645156,-24893.04839,-31096.75271,-70374.66858,0.076,0.868,0.444,192,0,0,0,0,0,0,0,0,0,1709549656,0, 2024-03-04 16:24:16.408
153,-100317.4454,-23792.73907,-11818.39547,-28783.61538,-92.87149821,-24917.43415,-31124.7818,-70397.82499,0.076,0.868,0.444,192,0,0,0,0,0,0,0,0,0,1709549656,0, 2024-03-04 16:24:16.408
154,-100351.0848,-23806.88772,-11822.37408,-28787.50459,-265.8069451,-24909.72279,-31101.40188,-70395.74628,0.076,0.868,0.444,192,0,0,0,0,0,0,0,0,0,1709549656,0, 2024-03-04 16:24:16.408
155,-100355.5999,-23811.20161,-11813.94748,-28796.98173,340.9758617,-24898.18929,-31067.44958,-70432.26903,0.076,0.868,0.444,192,0,0,0,0,0,0,0,0,0,1709549656,0, 2024-03-04 16:24:16.408
156,-100320.7535,-23793.43197,-11808.24778,-28793.22663,830.2778995,-24892.37784,-31074.8033,-70452.18443,0.076,0.868,0.444,192,0,0,0,0,0,0,0,0,0,1709549656,0, 2024-03-04 16:24:16.408
157,-100302.738,-23787.70993,-11817.56846,-28792.55608,578.7537192,-24907.77819,-31111.16959,-70429.13978,0.072,0.87,0.448,192,2,64,27,48,14,0,0,0,0,1709549656,0, 2024-03-04 16:24:16.408
158,-100322.5416,-23795.24246,-11837.52857,-28793.00312,-80.84625969,-24918.64114,-31135.73416,-70383.69869,0.072,0.87,0.448,192,0,0,0,0,0,0,0,0,0,1709549656,0, 2024-03-04 16:24:16.408
159,-100353.4988,-23808.05001,-11843.09415,-28800.26743,-262.2753694,-24913.67905,-31109.3144,-70381.86584,0.072,0.87,0.448,192,0,0,0,0,0,0,0,0,0,1709549656,0, 2024-03-04 16:24:16.408
160,-100360.1373,-23816.07429,-11843.25061,-28812.71736,346.0944111,-24903.21844,-31072.29991,-70378.80366,0.072,0.87,0.448,192,0,0,0,0,0,0,0,0,0,1709549656,0, 2024-03-04 16:24:16.408
161,-100329.5601,-23803.26674,-11834.37697,-28810.41513,857.0329376,-24895.61884,-31070.66823,-70385.59859,0.072,0.87,0.448,192,0,0,0,0,0,0,0,0,0,1709549656,0, 2024-03-04 16:24:16.408
162,-100310.9634,-23796.71768,-11849.71027,-28812.91852,603.9888387,-24914.10374,-31111.08018,-70420.53436,0.072,0.87,0.448,192,0,0,0,0,0,0,0,0,0,1709549656,0, 2024-03-04 16:24:16.408
163,-100327.5037,-23802.48443,-11866.85406,-28812.42678,-73.89486717,-24924.09497,-31144.22782,-70392.17,0.072,0.87,0.448,192,0,0,0,0,0,0,0,0,0,1709549656,0, 2024-03-04 16:24:16.408
164,-100369.3462,-23827.92071,-11881.44974,-28829.77174,-257.7379653,-24933.16977,-31134.08013,-70422.38956,0.072,0.87,0.448,192,0,0,0,0,0,0,0,0,0,1709549656,0, 2024-03-04 16:24:16.408
165,-100378.488,-23836.74965,-11876.21944,-28843.09338,334.4268005,-24930.17464,-31092.86351,-70466.80247,0.072,0.87,0.448,192,0,0,0,0,0,0,0,0,0,1709549656,0, 2024-03-04 16:24:16.408
166,-100342.7476,-23818.22006,-11864.08244,-28834.66677,833.6753647,-24919.22229,-31095.72453,-70393.15348,0.072,0.87,0.448,192,0,0,0,0,0,0,0,0,0,1709549656,0, 2024-03-04 16:24:16.408
167,-100306.9401,-23792.18027,-11856.95223,-28816.80773,603.5641555,-24923.53617,-31134.14718,-70390.44891,0.072,0.86,0.446,192,2,64,26,224,13,240,0,0,0,1709549656,0, 2024-03-04 16:24:16.408
168,-100319.4124,-23795.6448,-11864.8871,-28816.56186,-60.99791062,-24945.35147,-31150.48631,-70429.47506,0.072,0.86,0.446,192,0,0,0,0,0,0,0,0,0,1709549656,0, 2024-03-04 16:24:16.408
169,-100352.0012,-23811.671,-11866.94346,-28822.61918,-245.9809477,-24943.67509,-31129.20745,-70414.38763,0.072,0.86,0.446,192,0,0,0,0,0,0,0,0,0,1709549656,0, 2024-03-04 16:24:16.408
170,-100350.3696,-23809.83815,-11852.88422,-28826.66484,345.8038385,-24929.52644,-31102.363,-70441.90263,0.072,0.86,0.446,192,0,0,0,0,0,0,0,0,0,1709549656,0, 2024-03-04 16:24:16.408
171,-100309.9576,-23785.47475,-11830.13014,-28809.58811,852.8084579,-24909.92396,-31087.83437,-70400.73072,0.072,0.86,0.446,192,0,0,0,0,0,0,0,0,0,1709549656,0, 2024-03-04 16:24:16.408
172,-100284.7001,-23768.57683,-11825.97272,-28795.9312,618.4951208,-24911.0639,-31114.20943,-70387.81141,0.072,0.86,0.446,192,0,0,0,0,0,0,0,0,0,1709549656,0, 2024-03-04 16:24:16.408
173,-100309.8458,-23783.73132,-11848.14565,-28805.72126,-42.75888714,-24935.53906,-31145.45717,-70443.62371,0.072,0.86,0.446,192,0,0,0,0,0,0,0,0,0,1709549656,0, 2024-03-04 16:24:16.408
174,-100353.6553,-23811.69335,-11866.1388,-28826.06135,-242.2929099,-24947.83252,-31130.32503,-70509.78488,0.072,0.86,0.446,192,0,0,0,0,0,0,0,0,0,1709549656,0, 2024-03-04 16:24:16.408
175,-100363.4006,-23819.85173,-11855.72289,-28830.37523,352.3528996,-24927.1348,-31080.21242,-70449.27871,0.072,0.86,0.446,192,0,0,0,0,0,0,0,0,0,1709549656,0, 2024-03-04 16:24:16.408
176,-100333.6504,-23805.25605,-11836.12041,-28820.2946,860.497458,-24911.55564,-31084.81688,-70405.42458,0.072,0.86,0.446,192,0,0,0,0,0,0,0,0,0,1709549656,0, 2024-03-04 16:24:16.408
177,-100314.115,-23795.77891,-11844.39055,-28818.05942,610.694362,-24927.38067,-31123.26188,-70460.0746,0.074,0.856,0.444,192,2,80,26,192,13,224,0,0,0,1709549656,0, 2024-03-04 16:24:16.408
178,-100334.1198,-23805.9266,-11864.57418,-28818.70762,-59.96973037,-24939.45061,-31149.03345,-70477.53131,0.074,0.856,0.444,192,0,0,0,0,0,0,0,0,0,1709549656,0, 2024-03-04 16:24:16.408
179,-100373.1907,-23824.14327,-11871.39146,-28822.2839,-253.044099,-24929.43703,-31126.34642,-70432.67136,0.074,0.856,0.444,192,0,0,0,0,0,0,0,0,0,1709549656,0, 2024-03-04 16:24:16.408
180,-100374.0177,-23820.81286,-11851.72192,-28814.63961,343.3451466,-24895.97647,-31078.82662,-70392.03589,0.074,0.856,0.444,192,0,0,0,0,0,0,0,0,0,1709549656,0, 2024-03-04 16:24:16.408
181,-100351.1072,-23811.35807,-11847.02806,-28818.59586,835.8658357,-24897.98813,-31085.80036,-70425.83173,0.074,0.856,0.444,192,0,0,0,0,0,0,0,0,0,1709549656,0, 2024-03-04 16:24:16.408
182,-100335.1257,-23803.89259,-11852.92892,-28819.35582,613.2871644,-24916.94241,-31114.74587,-70450.68687,0.074,0.856,0.444,192,0,0,0,0,0,0,0,0,0,1709549656,0, 2024-03-04 16:24:16.408
183,-100354.6164,-23812.34155,-11873.93956,-28822.21685,-61.44494551,-24932.90155,-31143.3561,-70425.04942,0.074,0.856,0.444,192,0,0,0,0,0,0,0,0,0,1709549656,0, 2024-03-04 16:24:16.408
184,-100388.9934,-23830.66998,-11876.86764,-28832.16337,-268.3550439,-24929.92877,-31127.9781,-70380.25652,0.074,0.856,0.444,192,0,0,0,0,0,0,0,0,0,1709549656,0, 2024-03-04 16:24:16.408
185,-100394.3578,-23834.98387,-11860.43911,-28839.15947,333.1303994,-24915.42249,-31076.43498,-70379.00482,0.074,0.856,0.444,192,0,0,0,0,0,0,0,0,0,1709549656,0, 2024-03-04 16:24:16.408
186,-100367.9604,-23826.35609,-11855.96876,-28844.94857,847.376984,-24922.39623,-31078.40193,-70430.10091,0.074,0.856,0.444,192,0,0,0,0,0,0,0,0,0,1709549656,0, 2024-03-04 16:24:16.408
187,-100342.6359,-23812.74388,-11859.41092,-28838.01953,611.3872661,-24932.11924,-31122.50192,-70413.49356,0.076,0.862,0.45,192,2,96,26,240,14,16,0,0,0,1709549656,0, 2024-03-04 16:24:16.408
188,-100365.0547,-23825.7526,-11881.89678,-28844.23332,-74.5654195,-24951.4535,-31148.07232,-70388.12433,0.076,0.862,0.45,192,0,0,0,0,0,0,0,0,0,1709549656,0, 2024-03-04 16:24:16.408
189,-100401.5327,-23845.64565,-11890.27868,-28854.51512,-268.1985817,-24953.91219,-31126.12291,-70388.63842,0.076,0.862,0.45,192,0,0,0,0,0,0,0,0,0,1709549656,0, 2024-03-04 16:24:16.408
190,-100397.04,-23839.99066,-11871.05618,-28852.50346,328.0789051,-24933.86268,-31079.27365,-70413.04653,0.076,0.862,0.45,192,0,0,0,0,0,0,0,0,0,1709549656,0, 2024-03-04 16:24:16.408
191,-100361.7242,-23818.8012,-11854.22532,-28841.48405,840.1573706,-24921.41276,-31086.76148,-70425.89878,0.076,0.862,0.45,192,0,0,0,0,0,0,0,0,0,1709549656,0, 2024-03-04 16:24:16.408
192,-100324.1733,-23789.27455,-11836.34392,-28814.32668,626.4076384,-24914.57312,-31118.67978,-70397.60147,0.076,0.862,0.45,192,0,0,0,0,0,0,0,0,0,1709549656,0, 2024-03-04 16:24:16.408
193,-100336.5338,-23792.80612,-11846.53632,-28810.01279,-42.64712842,-24928.76648,-31133.49898,-70408.30796,0.076,0.862,0.45,192,0,0,0,0,0,0,0,0,0,1709549656,0, 2024-03-04 16:24:16.408
194,-100378.0857,-23817.32599,-11863.81422,-28823.15562,-265.024634,-24934.84616,-31126.6817,-70420.53436,0.076,0.862,0.45,192,0,0,0,0,0,0,0,0,0,1709549657,0, 2024-03-04 16:24:16.888
195,-100373.8612,-23810.88869,-11841.68599,-28815.8019,321.8874719,-24905.74418,-31080.68181,-70406.11749,0.076,0.862,0.45,192,0,0,0,0,0,0,0,0,0,1709549657,0, 2024-03-04 16:24:16.888
196,-100333.5834,-23788.08991,-11814.2604,-28803.17316,863.4255366,-24892.51195,-31070.89175,-70427.82103,0.076,0.862,0.45,192,0,0,0,0,0,0,0,0,0,1709549657,0, 2024-03-04 16:24:16.888
197,-100310.0247,-23775.93056,-11821.70353,-28794.90302,630.3638971,-24905.11833,-31124.51358,-70437.52169,0.08,0.866,0.448,192,2,128,27,16,14,0,0,0,0,1709549657,0, 2024-03-04 16:24:16.888
198,-100329.9624,-23785.69827,-11838.6238,-28795.48416,-46.98336685,-24920.71985,-31151.96152,-70438.48281,0.08,0.866,0.448,192,0,0,0,0,0,0,0,0,0,1709549657,0, 2024-03-04 16:24:16.888
199,-100365.2111,-23803.93729,-11841.97656,-28803.79901,-259.3249392,-24920.89867,-31130.83913,-70441.00856,0.08,0.866,0.448,192,0,0,0,0,0,0,0,0,0,1709549657,0, 2024-03-04 16:24:16.888
200,-100370.4414,-23806.08306,-11829.79486,-28807.24118,327.1401318,-24903.08433,-31092.37177,-70433.78895,0.08,0.866,0.448,192,0,0,0,0,0,0,0,0,0,1709549657,0, 2024-03-04 16:24:16.888
201,-100336.7573,-23786.65939,-11810.43825,-28799.30631,854.7754115,-24890.16502,-31078.73721,-70430.95028,0.08,0.866,0.448,192,0,0,0,0,0,0,0,0,0,1709549657,0, 2024-03-04 16:24:16.888
202,-100318.9207,-23775.97526,-11814.19335,-28795.39475,642.5008944,-24900.93856,-31110.74491,-70441.4556,0.08,0.866,0.448,192,0,0,0,0,0,0,0,0,0,1709549657,0, 2024-03-04 16:24:16.888
203,-100335.2374,-23780.22209,-11827.29147,-28790.99146,-23.87166308,-24907.19705,-31129.9227,-70410.38667,0.08,0.866,0.448,192,0,0,0,0,0,0,0,0,0,1709549657,0, 2024-03-04 16:24:16.888
204,-100369.3015,-23794.25899,-11832.67824,-28795.61827,-251.5465321,-24899.19512,-31110.92372,-70394.7181,0.08,0.866,0.448,192,0,0,0,0,0,0,0,0,0,1709549657,0, 2024-03-04 16:24:16.888
205,-100375.7835,-23795.57774,-11825.90566,-28800.82623,322.2227481,-24882.45367,-31064.23093,-70398.16027,0.08,0.866,0.448,192,0,0,0,0,0,0,0,0,0,1709549657,0, 2024-03-04 16:24:16.888
206,-100351.2636,-23785.31829,-11823.8493,-28803.53079,842.9066352,-24879.68205,-31076.41263,-70403.6588,0.08,0.866,0.448,192,0,0,0,0,0,0,0,0,0,1709549657,0, 2024-03-04 16:24:16.888
207,-100330.0965,-23777.38342,-11828.61022,-28805.18482,629.6262896,-24899.44099,-31128.20162,-70455.87247,0.068,0.87,0.442,192,2,32,27,48,13,208,0,0,0,1709549657,0, 2024-03-04 16:24:16.888
208,-100351.7777,-23790.638,-11850.53728,-28814.23727,-48.61504419,-24923.33501,-31149.81576,-70448.69756,0.068,0.87,0.442,192,0,0,0,0,0,0,0,0,0,1709549657,0, 2024-03-04 16:24:16.888
209,-100388.6357,-23809.61464,-11859.54504,-28824.04969,-275.7311196,-24922.5527,-31117.58454,-70402.07182,0.068,0.87,0.442,192,0,0,0,0,0,0,0,0,0,1709549657,0, 2024-03-04 16:24:16.888
210,-100399.4316,-23818.57769,-11855.49937,-28835.1138,301.4356257,-24909.72279,-31079.96655,-70376.50143,0.068,0.87,0.442,192,0,0,0,0,0,0,0,0,0,1709549657,0, 2024-03-04 16:24:16.888
211,-100365.7923,-23802.84206,-11837.19329,-28830.21877,826.4110477,-24901.5197,-31084.45926,-70383.29636,0.068,0.87,0.442,192,0,0,0,0,0,0,0,0,0,1709549657,0, 2024-03-04 16:24:16.888
212,-100344.491,-23793.56608,-11846.35751,-28830.24112,616.2822981,-24919.17758,-31121.47374,-70421.76371,0.068,0.87,0.442,192,0,0,0,0,0,0,0,0,0,1709549657,0, 2024-03-04 16:24:16.888
213,-100369.9273,-23809.8158,-11881.31563,-28841.95344,-67.50226826,-24947.11726,-31161.14809,-70454.12903,0.068,0.87,0.442,192,0,0,0,0,0,0,0,0,0,1709549657,0, 2024-03-04 16:24:16.888
214,-100402.7173,-23825.08204,-11885.20484,-28845.17209,-298.8428234,-24942.95984,-31140.20451,-70431.84435,0.068,0.87,0.442,192,0,0,0,0,0,0,0,0,0,1709549657,0, 2024-03-04 16:24:16.888
215,-100407.2547,-23827.45133,-11868.93277,-28848.23428,281.8107941,-24924.13967,-31096.97623,-70427.86574,0.068,0.87,0.442,192,0,0,0,0,0,0,0,0,0,1709549657,0, 2024-03-04 16:24:16.888
216,-100373.8612,-23810.24048,-11854.5606,-28843.47336,829.1156088,-24919.98224,-31096.73036,-70452.54206,0.068,0.87,0.442,192,0,0,0,0,0,0,0,0,0,1709549657,0, 2024-03-04 16:24:16.888
217,-100349.0732,-23795.37657,-11855.47702,-28834.89029,628.3969436,-24930.82284,-31132.91784,-70415.37111,0.066,0.868,0.448,192,2,16,27,32,14,0,0,0,0,1709549657,0, 2024-03-04 16:24:16.888
218,-100361.1654,-23797.45529,-11865.22238,-28827.13423,-43.3400325,-24936.36607,-31157.57181,-70359.06707,0.066,0.868,0.448,192,0,0,0,0,0,0,0,0,0,1709549657,0, 2024-03-04 16:24:16.888
219,-100400.0575,-23818.24241,-11878.14169,-28839.18182,-280.8943726,-24944.25624,-31142.86436,-70377.55196,0.066,0.868,0.448,192,0,0,0,0,0,0,0,0,0,1709549657,0, 2024-03-04 16:24:16.888
220,-100396.4589,-23812.94505,-11853.2642,-28836.03023,285.7447011,-24922.84327,-31110.45433,-70394.94162,0.066,0.868,0.448,192,0,0,0,0,0,0,0,0,0,1709549657,0, 2024-03-04 16:24:16.888
221,-100366.731,-23797.32118,-11840.30018,-28831.8281,825.4722745,-24919.89284,-31109.51556,-70427.73162,0.066,0.868,0.448,192,0,0,0,0,0,0,0,0,0,1709549657,0, 2024-03-04 16:24:16.888
222,-100334.9692,-23776.01996,-11832.49942,-28817.21006,632.1296849,-24927.17951,-31129.74389,-70446.70826,0.066,0.868,0.448,192,0,0,0,0,0,0,0,0,0,1709549657,0, 2024-03-04 16:24:16.888
223,-100350.8389,-23782.97136,-11853.44301,-28821.90392,-46.71514591,-24948.72659,-31164.03147,-70491.23293,0.066,0.868,0.448,192,0,0,0,0,0,0,0,0,0,1709549657,0, 2024-03-04 16:24:16.888
224,-100390.0439,-23806.50774,-11866.29526,-28837.90777,-285.9682186,-24957.93551,-31150.41925,-70502.11823,0.066,0.868,0.448,192,0,0,0,0,0,0,0,0,0,1709549657,0, 2024-03-04 16:24:16.888
225,-100387.9205,-23801.14332,-11845.99988,-28831.04579,294.7971576,-24926.06192,-31096.88683,-70449.47987,0.066,0.868,0.448,192,0,0,0,0,0,0,0,0,0,1709549657,0, 2024-03-04 16:24:16.888
226,-100349.8108,-23779.26097,-11831.38184,-28818.3947,838.8609694,-24907.24175,-31087.32028,-70425.02706,0.066,0.868,0.448,192,0,0,0,0,0,0,0,0,0,1709549657,0, 2024-03-04 16:24:16.888
227,-100324.0392,-23766.1852,-11830.21955,-28811.24214,656.2472172,-24917.92588,-31128.31338,-70441.43324,0.064,0.86,0.454,192,2,0,26,224,14,48,0,0,0,1709549657,0, 2024-03-04 16:24:16.888
228,-100345.1169,-23777.38342,-11854.11356,-28817.7912,-14.79685483,-24939.00358,-31155.18017,-70483.1863,0.064,0.86,0.454,192,0,0,0,0,0,0,0,0,0,1709549657,0, 2024-03-04 16:24:16.888
229,-100384.3442,-23796.24829,-11868.75395,-28826.93307,-264.8234683,-24935.4273,-31127.48636,-70458.91231,0.064,0.86,0.454,192,0,0,0,0,0,0,0,0,0,1709549657,0, 2024-03-04 16:24:16.888
230,-100390.4015,-23800.56218,-11856.72872,-28828.54239,286.5717157,-24909.45457,-31097.44562,-70374.42271,0.064,0.86,0.454,192,0,0,0,0,0,0,0,0,0,1709549657,0, 2024-03-04 16:24:16.888
231,-100372.319,-23795.46598,-11848.70444,-28829.30235,829.6296989,-24903.50901,-31096.50685,-70383.07284,0.064,0.86,0.454,192,0,0,0,0,0,0,0,0,0,1709549657,0, 2024-03-04 16:24:16.888
232,-100357.5892,-23790.52625,-11855.78994,-28833.10215,646.8818363,-24924.85493,-31129.74389,-70452.05032,0.064,0.86,0.454,192,0,0,0,0,0,0,0,0,0,1709549657,0, 2024-03-04 16:24:16.888
233,-100376.4093,-23800.67394,-11875.92886,-28840.21,-37.86385511,-24944.50211,-31156.0966,-70433.74424,0.064,0.86,0.454,192,0,0,0,0,0,0,0,0,0,1709549657,0, 2024-03-04 16:24:16.888
234,-100414.1838,-23820.29877,-11883.23788,-28849.50833,-296.2947245,-24943.98802,-31137.5223,-70420.93669,0.064,0.86,0.454,192,0,0,0,0,0,0,0,0,0,1709549657,0, 2024-03-04 16:24:16.888
235,-100420.8893,-23825.1491,-11870.36328,-28858.65019,268.1538782,-24933.08037,-31091.74592,-70479.11829,0.064,0.86,0.454,192,0,0,0,0,0,0,0,0,0,1709549657,0, 2024-03-04 16:24:16.888
236,-100388.591,-23806.86537,-11856.28168,-28856.70559,824.9805361,-24929.23587,-31086.3368,-70500.95594,0.064,0.86,0.454,192,0,0,0,0,0,0,0,0,0,1709549657,0, 2024-03-04 16:24:16.888
237,-100362.9089,-23793.52138,-11858.38274,-28846.84847,645.0266415,-24932.92391,-31121.76432,-70397.44501,0.074,0.866,0.446,192,2,80,27,16,13,240,0,0,0,1709549657,0, 2024-03-04 16:24:16.888
238,-100377.0799,-23799.04226,-11876.57706,-28842.1546,-35.31575624,-24942.24458,-31154.2861,-70321.85141,0.074,0.866,0.446,192,0,0,0,0,0,0,0,0,0,1709549657,0, 2024-03-04 16:24:16.888
239,-100405.9136,-23807.69239,-11877.78406,-28845.12739,-294.9759716,-24939.94235,-31125.60882,-70345.07487,0.074,0.866,0.446,192,0,0,0,0,0,0,0,0,0,1709549657,0, 2024-03-04 16:24:16.888
240,-100409.8923,-23808.78762,-11864.82005,-28850.35769,266.25398,-24929.32527,-31084.01222,-70400.66366,0.074,0.866,0.446,192,0,0,0,0,0,0,0,0,0,1709549657,0, 2024-03-04 16:24:16.888
241,-100379.9186,-23795.0413,-11851.61017,-28848.77072,820.3090215,-24928.47591,-31086.56032,-70444.85306,0.074,0.866,0.446,192,0,0,0,0,0,0,0,0,0,1709549657,0, 2024-03-04 16:24:16.888
242,-100355.5552,-23780.84794,-11854.67236,-28842.0652,651.4192404,-24940.76937,-31122.16665,-70444.29427,0.074,0.866,0.446,192,0,0,0,0,0,0,0,0,0,1709549657,0, 2024-03-04 16:24:16.888
243,-100370.1061,-23786.54764,-11872.03966,-28842.53458,-17.41200893,-24959.56718,-31153.83907,-70463.67323,0.074,0.866,0.446,192,0,0,0,0,0,0,0,0,0,1709549657,0, 2024-03-04 16:24:16.888
244,-100394.0672,-23795.01895,-11859.18741,-28833.50448,-263.2141427,-24943.45158,-31123.99949,-70415.95226,0.074,0.866,0.446,192,0,0,0,0,0,0,0,0,0,1709549657,0, 2024-03-04 16:24:16.888
245,-100393.1061,-23792.64966,-11837.88619,-28827.89419,295.4900617,-24917.47885,-31084.95099,-70383.16225,0.074,0.866,0.446,192,0,0,0,0,0,0,0,0,0,1709549657,0, 2024-03-04 16:24:16.888
246,-100362.8195,-23777.78575,-11827.60439,-28825.88253,846.68408,-24913.74611,-31089.35429,-70436.67232,0.074,0.866,0.446,192,0,0,0,0,0,0,0,0,0,1709549657,0, 2024-03-04 16:24:16.888
247,-100335.3715,-23759.882,-11826.91149,-28814.93018,680.8117844,-24921.27865,-31116.60106,-70463.18149,0.064,0.87,0.45,192,2,0,27,48,14,16,0,0,0,1709549657,0, 2024-03-04 16:24:16.888
248,-100354.0576,-23768.2192,-11843.18356,-28816.4501,15.66857286,-24939.98706,-31148.92169,-70477.4419,0.064,0.87,0.45,192,0,0,0,0,0,0,0,0,0,1709549657,0, 2024-03-04 16:24:16.888
249,-100390.178,-23785.81003,-11850.38082,-28823.89323,-255.5921978,-24942.04342,-31132.11317,-70496.26207,0.064,0.87,0.45,192,0,0,0,0,0,0,0,0,0,1709549657,0, 2024-03-04 16:24:16.888
250,-100397.487,-23788.82751,-11831.69476,-28826.24016,290.8632506,-24923.26795,-31084.12398,-70486.42731,0.064,0.87,0.45,192,0,0,0,0,0,0,0,0,0,1709549657,0, 2024-03-04 16:24:16.888
251,-100372.319,-23778.34455,-11819.46836,-28822.75329,838.4362863,-24914.9531,-31080.01126,-70475.20673,0.064,0.87,0.45,192,0,0,0,0,0,0,0,0,0,1709549657,0, 2024-03-04 16:24:16.888
252,-100347.9779,-23764.50882,-11817.81433,-28809.29754,679.1354035,-24915.62365,-31112.10836,-70423.93183,0.064,0.87,0.45,192,0,0,0,0,0,0,0,0,0,1709549657,0, 2024-03-04 16:24:16.888
253,-100369.4356,-23777.7187,-11840.03196,-28815.01959,11.53350014,-24935.02497,-31144.22782,-70429.81034,0.064,0.87,0.45,192,0,0,0,0,0,0,0,0,0,1709549657,0, 2024-03-04 16:24:16.888
254,-100405.3995,-23795.53304,-11851.18548,-28824.65319,-275.5076022,-24934.84616,-31131.71084,-70431.55377,0.064,0.87,0.45,192,0,0,0,0,0,0,0,0,0,1709549657,0, 2024-03-04 16:24:16.888
255,-100416.6425,-23801.85858,-11847.92213,-28830.30818,261.2918927,-24914.61783,-31093.26584,-70423.12717,0.064,0.87,0.45,192,0,0,0,0,0,0,0,0,0,1709549657,0, 2024-03-04 16:24:16.888
0,-100386.5794,-23789.2522,-11834.95812,-28829.77174,825.7628472,-24908.5605,-31083.98987,-70465.01433,0.064,0.87,0.45,192,0,0,0,0,0,0,0,0,0,1709549657,0, 2024-03-04 16:24:16.888
1,-100362.8195,-23777.91986,-11829.79486,-28820.74163,666.9313511,-24914.75194,-31107.28039,-70447.46821,0.064,0.868,0.446,192,2,0,27,32,13,240,0,0,0,1709549657,0, 2024-03-04 16:24:16.888
2,-100383.7631,-23789.18514,-11850.31376,-28824.89906,3.285706435,-24930.53227,-31138.61753,-70413.58297,0.064,0.868,0.446,192,0,0,0,0,0,0,0,0,0,1709549657,0, 2024-03-04 16:24:16.888
3,-100427.3043,-23812.78858,-11864.52947,-28837.08076,-278.0333493,-24932.38746,-31124.89356,-70399.79194,0.064,0.868,0.446,192,0,0,0,0,0,0,0,0,0,1709549657,0, 2024-03-04 16:24:16.888
4,-100444.2022,-23825.59613,-11859.85796,-28851.43058,254.8322385,-24920.89867,-31079.63128,-70380.79296,0.064,0.868,0.446,192,0,0,0,0,0,0,0,0,0,1709549657,0, 2024-03-04 16:24:16.888
5,-100416.039,-23810.73222,-11850.47023,-28854.71628,825.0699431,-24916.36126,-31073.99864,-70385.48683,0.064,0.868,0.446,192,0,0,0,0,0,0,0,0,0,1709549657,0, 2024-03-04 16:24:16.888
6,-100393.1731,-23798.90815,-11860.90849,-28855.18567,646.3677462,-24933.41564,-31113.78474,-70402.34004,0.064,0.868,0.446,192,0,0,0,0,0,0,0,0,0,1709549657,0, 2024-03-04 16:24:16.888
7,-100408.3276,-23805.9266,-11876.75588,-28856.1915,-16.49558741,-24953.3087,-31141.3668,-70400.35074,0.064,0.868,0.446,192,0,0,0,0,0,0,0,0,0,1709549657,0, 2024-03-04 16:24:16.888
8,-100443.3752,-23821.41636,-11886.03185,-28862.11471,-303.5366897,-24956.75086,-31123.84303,-70427.32929,0.064,0.868,0.446,192,0,0,0,0,0,0,0,0,0,1709549657,0, 2024-03-04 16:24:16.888
9,-100444.381,-23819.38235,-11873.00079,-28861.80179,223.3386306,-24939.29415,-31087.09676,-70448.20582,0.064,0.868,0.446,192,0,0,0,0,0,0,0,0,0,1709549657,0, 2024-03-04 16:24:16.888
10,-100404.1255,-23793.67784,-11851.87839,-28847.92135,790.8717741,-24924.36319,-31082.71582,-70449.03284,0.064,0.868,0.446,192,0,0,0,0,0,0,0,0,0,1709549657,0, 2024-03-04 16:24:16.888
11,-100378.8233,-23781.45144,-11858.15923,-28844.68035,641.1150862,-24939.51767,-31124.60299,-70474.13385,0.064,0.868,0.446,192,0,0,0,0,0,0,0,0,0,1709549657,0, 2024-03-04 16:24:16.888
12,-100384.7242,-23779.6633,-11867.56931,-28841.77462,-20.63066013,-24955.83444,-31157.05772,-70478.06775,0.072,0.864,0.446,192,2,64,27,0,13,240,0,0,0,1709549657,0, 2024-03-04 16:24:16.888
13,-100409.3335,-23786.01119,-11871.03383,-28839.65121,-308.2082043,-24947.11726,-31129.96741,-70418.09802,0.072,0.864,0.446,192,0,0,0,0,0,0,0,0,0,1709549657,0, 2024-03-04 16:24:16.888
14,-100416.2178,-23790.39214,-11864.17185,-28847.78724,215.0461334,-24936.679,-31087.78967,-70447.95995,0.072,0.864,0.446,192,0,0,0,0,0,0,0,0,0,1709549657,0, 2024-03-04 16:24:16.888
15,-100374.1965,-23762.54186,-11827.31382,-28829.25765,802.6287916,-24914.37196,-31088.25905,-70460.7675,0.072,0.864,0.446,192,0,0,0,0,0,0,0,0,0,1709549657,0, 2024-03-04 16:24:16.888
16,-100346.4133,-23746.29214,-11820.98828,-28817.52298,667.0878133,-24918.61879,-31122.01019,-70424.93766,0.072,0.864,0.446,192,0,0,0,0,0,0,0,0,0,1709549657,0, 2024-03-04 16:24:16.888
17,-100362.9536,-23755.52341,-11839.98726,-28822.32861,5.990267514,-24940.88113,-31143.22199,-70467.09305,0.072,0.864,0.446,192,0,0,0,0,0,0,0,0,0,1709549657,0, 2024-03-04 16:24:16.888
18,-100402.4044,-23775.1706,-11852.12426,-28829.74939,-290.1703465,-24940.94818,-31127.79929,-70472.05513,0.072,0.864,0.446,192,0,0,0,0,0,0,0,0,0,1709549657,0, 2024-03-04 16:24:16.888
19,-100417.9836,-23783.99954,-11846.69278,-28836.25374,222.2657469,-24925.77135,-31090.33776,-70451.44683,0.072,0.864,0.446,192,0,0,0,0,0,0,0,0,0,1709549657,0, 2024-03-04 16:24:16.888
20,-100393.3743,-23772.30957,-11835.91924,-28831.04579,794.112777,-24914.01433,-31083.72165,-70458.59938,0.072,0.864,0.446,192,0,0,0,0,0,0,0,0,0,1709549657,0, 2024-03-04 16:24:16.888
21,-100364.4959,-23754.24936,-11835.04752,-28816.69597,651.8215718,-24913.99198,-31116.08697,-70451.04449,0.072,0.864,0.446,192,0,0,0,0,0,0,0,0,0,1709549657,0, 2024-03-04 16:24:16.888
22,-100381.7961,-23763.16771,-11858.09217,-28817.83591,-16.1379595,-24927.80536,-31152.31915,-70436.4488,0.078,0.864,0.45,192,2,112,27,0,14,16,0,0,0,1709549657,0, 2024-03-04 16:24:16.888
23,-100420.2635,-23784.71479,-11863.68011,-28826.82131,-319.6299457,-24929.88407,-31128.6263,-70447.51292,0.078,0.864,0.45,192,0,0,0,0,0,0,0,0,0,1709549657,0, 2024-03-04 16:24:16.888
24,-100428.176,-23789.83334,-11847.18452,-28832.00691,200.3163338,-24914.28255,-31079.2513,-70448.87637,0.078,0.864,0.45,192,0,0,0,0,0,0,0,0,0,1709549657,0, 2024-03-04 16:24:16.888
25,-100399.4763,-23775.95291,-11834.93576,-28832.45395,782.8474978,-24906.70531,-31080.36889,-70440.8968,0.078,0.864,0.45,192,0,0,0,0,0,0,0,0,0,1709549657,0, 2024-03-04 16:24:16.888
26,-100375.9623,-23765.02291,-11843.72,-28830.46464,644.4678479,-24919.02112,-31113.22595,-70409.24673,0.078,0.864,0.45,192,0,0,0,0,0,0,0,0,0,1709549657,0, 2024-03-04 16:24:16.888
27,-100394.3801,-23775.97526,-11868.46338,-28839.04771,-32.00769806,-24944.16683,-31144.31723,-70428.80451,0.078,0.864,0.45,192,0,0,0,0,0,0,0,0,0,1709549657,0, 2024-03-04 16:24:16.888
28,-100430.7241,-23794.84013,-11880.77919,-28853.75516,-333.599786,-24954.6945,-31124.62534,-70462.46624,0.078,0.864,0.45,192,0,0,0,0,0,0,0,0,0,1709549657,0, 2024-03-04 16:24:16.889
29,-100438.9942,-23800.2269,-11868.26222,-28857.93493,195.7789297,-24935.67317,-31071.02586,-70397.75794,0.078,0.864,0.45,192,0,0,0,0,0,0,0,0,0,1709549657,0, 2024-03-04 16:24:16.889
30,-100413.4462,-23789.31925,-11857.06399,-28855.90093,777.3713204,-24926.66542,-31080.68181,-70395.07573,0.078,0.864,0.45,192,0,0,0,0,0,0,0,0,0,1709549657,0, 2024-03-04 16:24:16.889
31,-100391.8991,-23781.18322,-11862.8978,-28853.33048,644.892531,-24940.09881,-31112.01896,-70412.59949,0.078,0.864,0.45,192,0,0,0,0,0,0,0,0,0,1709549657,0, 2024-03-04 16:24:16.889
32,-100399.6552,-23778.65747,-11871.43616,-28842.8028,-20.92123281,-24946.3573,-31133.94602,-70390.42656,0.076,0.862,0.454,192,2,96,26,240,14,48,0,0,0,1709549657,0, 2024-03-04 16:24:16.889
33,-100431.5064,-23791.46502,-11875.30302,-28847.04964,-322.1109893,-24947.34078,-31117.18221,-70432.80547,0.076,0.862,0.454,192,0,0,0,0,0,0,0,0,0,1709549657,0, 2024-03-04 16:24:16.889
34,-100439.2848,-23795.60009,-11860.32735,-28848.21193,195.5330605,-24929.05705,-31074.33392,-70431.66553,0.076,0.862,0.454,192,0,0,0,0,0,0,0,0,0,1709549657,0, 2024-03-04 16:24:16.889
35,-100403.8126,-23775.05884,-11833.72877,-28833.83975,795.3868264,-24908.69461,-31061.90635,-70424.55768,0.076,0.862,0.454,192,0,0,0,0,0,0,0,0,0,1709549657,0, 2024-03-04 16:24:16.889
36,-100375.6047,-23757.35626,-11832.99116,-28822.2839,659.3764614,-24912.06973,-31094.56224,-70427.91044,0.076,0.862,0.454,192,0,0,0,0,0,0,0,0,0,1709549657,0, 2024-03-04 16:24:16.889
37,-100395.6765,-23767.50395,-11854.04651,-28827.64832,-9.521843138,-24932.94626,-31134.50481,-70437.25347,0.076,0.862,0.454,192,0,0,0,0,0,0,0,0,0,1709549657,0, 2024-03-04 16:24:16.889
38,-100431.6181,-23784.02189,-11863.34483,-28833.05744,-329.2188441,-24932.32041,-31126.23467,-70416.84633,0.076,0.862,0.454,192,0,0,0,0,0,0,0,0,0,1709549657,0, 2024-03-04 16:24:16.889
39,-100432.8251,-23783.01606,-11852.72775,-28833.68329,176.7352434,-24914.72959,-31082.60406,-70452.13973,0.076,0.862,0.454,192,0,0,0,0,0,0,0,0,0,1709549657,0, 2024-03-04 16:24:16.889
40,-100399.8787,-23763.6371,-11837.72973,-28825.61431,769.6376168,-24902.45848,-31070.75764,-70480.39233,0.076,0.862,0.454,192,0,0,0,0,0,0,0,0,0,1709549657,0, 2024-03-04 16:24:16.889
41,-100369.7709,-23743.40877,-11830.64423,-28808.7611,663.7574033,-24901.89968,-31091.65652,-70441.79087,0.076,0.862,0.454,192,0,0,0,0,0,0,0,0,0,1709549657,0, 2024-03-04 16:24:16.889
42,-100385.1936,-23751.09777,-11845.55284,-28811.66682,7.130206481,-24923.17854,-31127.53107,-70452.18443,0.07,0.858,0.454,192,2,48,26,208,14,48,0,0,0,1709549657,0, 2024-03-04 16:24:16.889
43,-100421.0458,-23766.07344,-11854.09121,-28814.88548,-305.168367,-24917.65766,-31113.56123,-70406.96685,0.07,0.858,0.454,192,0,0,0,0,0,0,0,0,0,1709549657,0, 2024-03-04 16:24:16.889
44,-100424.6891,-23763.45828,-11837.39446,-28811.62212,191.8003192,-24892.37784,-31067.13665,-70399.50137,0.07,0.858,0.454,192,0,0,0,0,0,0,0,0,0,1709549657,0, 2024-03-04 16:24:16.889
45,-100404.0137,-23758.92088,-11834.39932,-28818.05942,774.5550006,-24893.98717,-31064.78972,-70431.59848,0.07,0.858,0.454,192,0,0,0,0,0,0,0,0,0,1709549657,0, 2024-03-04 16:24:16.889
46,-100380.902,-23749.19787,-11831.91828,-28812.67265,651.1286677,-24901.76557,-31099.03259,-70418.32154,0.07,0.858,0.454,192,0,0,0,0,0,0,0,0,0,1709549657,0, 2024-03-04 16:24:16.889
47,-100396.7941,-23757.19979,-11848.2127,-28815.28781,-3.777444813,-24919.26699,-31131.55438,-70434.23598,0.07,0.858,0.454,192,0,0,0,0,0,0,0,0,0,1709549657,0, 2024-03-04 16:24:16.889
48,-100441.7435,-23783.44074,-11866.1835,-28835.47143,-320.9486986,-24935.13673,-31124.7818,-70475.54201,0.07,0.858,0.454,192,0,0,0,0,0,0,0,0,0,1709549657,0, 2024-03-04 16:24:16.889
49,-100450.2819,-23786.97232,-11854.5606,-28837.72896,180.1774121,-24911.17566,-31085.95682,-70419.41678,0.07,0.858,0.454,192,0,0,0,0,0,0,0,0,0,1709549657,0, 2024-03-04 16:24:16.889
50,-100423.0574,-23771.75078,-11838.98143,-28834.77853,774.8008698,-24898.83749,-31071.31643,-70390.38186,0.07,0.858,0.454,192,0,0,0,0,0,0,0,0,0,1709549657,0, 2024-03-04 16:24:16.889
51,-100399.9457,-23760.32904,-11847.00571,-28834.3762,657.8788946,-24913.12026,-31097.55738,-70385.64329,0.07,0.858,0.454,192,0,0,0,0,0,0,0,0,0,1709549657,0, 2024-03-04 16:24:16.889
52,-100414.8096,-23768.2192,-11867.92694,-28840.21,-5.789101814,-24936.58959,-31138.95281,-70405.98338,0.068,0.862,0.45,192,2,32,26,240,14,16,0,0,0,1709549657,0, 2024-03-04 16:24:16.889
53,-100450.2595,-23783.53015,-11875.57124,-28845.23914,-325.463751,-24935.472,-31121.4961,-70404.64227,0.068,0.862,0.45,192,0,0,0,0,0,0,0,0,0,1709549657,0, 2024-03-04 16:24:16.889
54,-100456.2721,-23785.96649,-11859.7462,-28846.31203,180.8703161,-24916.65184,-31069.6177,-70399.97076,0.068,0.862,0.45,192,0,0,0,0,0,0,0,0,0,1709549657,0, 2024-03-04 16:24:16.889
55,-100423.7727,-23766.76634,-11844.99405,-28840.18765,769.2352854,-24907.9123,-31062.75571,-70424.31181,0.068,0.862,0.45,192,0,0,0,0,0,0,0,0,0,1709549657,0, 2024-03-04 16:24:16.889
56,-100397.3306,-23752.23771,-11847.00571,-28833.45977,663.0421475,-24918.86466,-31096.5292,-70417.65099,0.068,0.862,0.45,192,0,0,0,0,0,0,0,0,0,1709549657,0, 2024-03-04 16:24:16.889
57,-100406.7183,-23754.11525,-11858.82978,-28826.17311,14.39452343,-24927.87241,-31130.34739,-70370.64527,0.068,0.862,0.45,192,0,0,0,0,0,0,0,0,0,1709549657,0, 2024-03-04 16:24:16.889
58,-100439.2624,-23766.69929,-11869.67038,-28832.36454,-303.9166694,-24931.69456,-31130.50385,-70410.47608,0.068,0.862,0.45,192,0,0,0,0,0,0,0,0,0,1709549657,0, 2024-03-04 16:24:16.889
59,-100451.5559,-23773.76244,-11870.49739,-28845.79794,185.430072,-24926.37484,-31096.88683,-70449.59163,0.068,0.862,0.45,192,0,0,0,0,0,0,0,0,0,1709549657,0, 2024-03-04 16:24:17.369
60,-100415.1449,-23753.46705,-11848.95031,-28835.89611,788.7483583,-24909.56633,-31080.41359,-70423.35068,0.068,0.862,0.45,192,0,0,0,0,0,0,0,0,0,1709549657,0, 2024-03-04 16:24:17.369
61,-100381.282,-23733.79752,-11843.13885,-28826.7766,686.26561,-24920.0493,-31097.64678,-70459.56051,0.068,0.862,0.45,192,0,0,0,0,0,0,0,0,0,1709549657,0, 2024-03-04 16:24:17.369
62,-100402.7844,-23747.32032,-11870.40798,-28836.74548,25.21276775,-24947.63135,-31152.00623,-70464.03086,0.068,0.862,0.45,192,2,32,26,240,14,16,0,0,0,1709549657,0, 2024-03-04 16:24:17.369
63,-100439.0613,-23764.46411,-11877.49349,-28839.45004,-293.187832,-24943.29511,-31136.56117,-70412.13011,0.068,0.862,0.45,192,0,0,0,0,0,0,0,0,0,1709549657,0, 2024-03-04 16:24:17.369
64,-100444.001,-23765.96168,-11864.28361,-28839.29358,208.698238,-24923.13384,-31082.87228,-70406.63158,0.068,0.862,0.45,192,0,0,0,0,0,0,0,0,0,1709549657,0, 2024-03-04 16:24:17.369
65,-100410.1605,-23747.25327,-11848.48092,-28828.76591,814.2069953,-24903.50901,-31073.86453,-70392.72879,0.068,0.862,0.45,192,0,0,0,0,0,0,0,0,0,1709549657,0, 2024-03-04 16:24:17.369
66,-100380.4327,-23732.05408,-11848.36916,-28822.32861,707.8797469,-24914.52842,-31109.87319,-70426.90461,0.068,0.862,0.45,192,0,0,0,0,0,0,0,0,0,1709549657,0, 2024-03-04 16:24:17.369
67,-100399.0964,-23747.18621,-11875.75005,-28834.39855,58.96390187,-24943.94332,-31151.6039,-70449.59163,0.068,0.862,0.45,192,0,0,0,0,0,0,0,0,0,1709549657,0, 2024-03-04 16:24:17.369
68,-100431.1041,-23761.49133,-11879.77336,-28833.61624,-256.9556543,-24935.76258,-31133.23076,-70402.87648,0.068,0.862,0.45,192,0,0,0,0,0,0,0,0,0,1709549657,0, 2024-03-04 16:24:17.369
69,-100440.0001,-23764.86644,-11873.76074,-28838.82419,218.2871364,-24920.56339,-31095.12104,-70446.75296,0.068,0.862,0.45,192,0,0,0,0,0,0,0,0,0,1709549657,0, 2024-03-04 16:24:17.369
70,-100406.696,-23741.59828,-11855.16409,-28824.54143,820.5995942,-24897.027,-31076.54674,-70420.55671,0.068,0.862,0.45,192,0,0,0,0,0,0,0,0,0,1709549657,0, 2024-03-04 16:24:17.369
71,-100383.5172,-23731.00355,-11859.54504,-28821.09926,716.3734098,-24908.35934,-31099.85961,-70431.10674,0.068,0.862,0.45,192,0,0,0,0,0,0,0,0,0,1709549657,0, 2024-03-04 16:24:17.369
72,-100403.5444,-23746.51566,-11884.37782,-28836.3655,51.43136399,-24940.76937,-31147.8488,-70450.77627,0.066,0.856,0.446,192,2,16,26,192,13,240,0,0,0,1709549657,0, 2024-03-04 16:24:17.369
73,-100444.8727,-23771.34845,-11897.65476,-28851.43058,-274.7476428,-24947.51959,-31144.92072,-70437.25347,0.066,0.856,0.446,192,0,0,0,0,0,0,0,0,0,1709549657,0, 2024-03-04 16:24:17.369
74,-100454.6851,-23776.82463,-11889.76459,-28858.29256,203.624392,-24933.10272,-31095.99276,-70467.07069,0.066,0.856,0.446,192,0,0,0,0,0,0,0,0,0,1709549657,0, 2024-03-04 16:24:17.369
75,-100418.9224,-23755.92575,-11869.69273,-28845.93205,802.6734951,-24911.39918,-31078.46899,-70412.97947,0.066,0.856,0.446,192,0,0,0,0,0,0,0,0,0,1709549657,0, 2024-03-04 16:24:17.369
76,-100390.0663,-23742.40294,-11870.65385,-28841.95344,708.0809126,-24921.21159,-31118.3445,-70394.98632,0.066,0.856,0.446,192,0,0,0,0,0,0,0,0,0,1709549657,0, 2024-03-04 16:24:17.369
77,-100404.4608,-23753.28824,-11892.29034,-28852.41405,56.50520998,-24949.95593,-31159.89639,-70447.71408,0.066,0.856,0.446,192,0,0,0,0,0,0,0,0,0,1709549657,0, 2024-03-04 16:24:17.369
78,-100437.3178,-23768.2192,-11894.12318,-28853.53164,-283.7106924,-24949.24068,-31140.24921,-70432.00081,0.066,0.856,0.446,192,0,0,0,0,0,0,0,0,0,1709549657,0, 2024-03-04 16:24:17.369
79,-100444.4257,-23770.32027,-11874.05132,-28850.89414,195.4436535,-24928.92294,-31092.93057,-70410.47608,0.066,0.856,0.446,192,0,0,0,0,0,0,0,0,0,1709549657,0, 2024-03-04 16:24:17.369
80,-100409.5346,-23750.36016,-11855.857,-28844.68035,806.8756231,-24916.2048,-31080.95003,-70447.49057,0.066,0.856,0.446,192,0,0,0,0,0,0,0,0,0,1709549657,0, 2024-03-04 16:24:17.369
81,-100382.2208,-23737.32909,-11859.52268,-28841.43935,706.1586626,-24931.38163,-31119.57385,-70463.04738,0.066,0.856,0.446,192,0,0,0,0,0,0,0,0,0,1709549657,0, 2024-03-04 16:24:17.369
82,-100388.4346,-23737.79848,-11864.50712,-28831.60458,62.56253273,-24938.28832,-31147.98291,-70400.32839,0.072,0.86,0.45,192,2,64,26,224,14,16,0,0,0,1709549657,0, 2024-03-04 16:24:17.369
83,-100420.487,-23754.20466,-11867.63637,-28835.6726,-282.4813464,-24939.98706,-31123.64186,-70405.37988,0.072,0.86,0.45,192,0,0,0,0,0,0,0,0,0,1709549657,0, 2024-03-04 16:24:17.369
84,-100433.0487,-23763.12301,-11861.24377,-28843.29454,193.9460866,-24930.50992,-31077.44081,-70437.87932,0.072,0.86,0.45,192,0,0,0,0,0,0,0,0,0,1709549657,0, 2024-03-04 16:24:17.369
85,-100403.7455,-23749.48844,-11841.03779,-28840.27706,807.0991405,-24922.37388,-31081.7994,-70475.38554,0.072,0.86,0.45,192,0,0,0,0,0,0,0,0,0,1709549657,0, 2024-03-04 16:24:17.369
86,-100373.6601,-23733.81987,-11840.59076,-28833.90681,734.3665641,-24930.9793,-31119.12681,-70486.53906,0.072,0.86,0.45,192,0,0,0,0,0,0,0,0,0,1709549657,0, 2024-03-04 16:24:17.369
87,-100389.1498,-23742.73822,-11861.6014,-28839.6065,74.18543985,-24953.97925,-31147.42412,-70493.62457,0.072,0.86,0.45,192,0,0,0,0,0,0,0,0,0,1709549657,0, 2024-03-04 16:24:17.369
88,-100430.7911,-23763.6371,-11874.54306,-28849.57538,-277.6310179,-24958.11432,-31135.08596,-70459.4264,0.072,0.86,0.45,192,0,0,0,0,0,0,0,0,0,1709549657,0, 2024-03-04 16:24:17.369
89,-100437.5861,-23763.48064,-11855.83465,-28847.13904,203.3561711,-24934.98027,-31085.93447,-70443.28844,0.072,0.86,0.45,192,0,0,0,0,0,0,0,0,0,1709549657,0, 2024-03-04 16:24:17.369
90,-100407.0312,-23745.80041,-11835.49456,-28836.47726,817.8279779,-24913.45554,-31072.29991,-70433.40897,0.072,0.86,0.45,192,0,0,0,0,0,0,0,0,0,1709549657,0, 2024-03-04 16:24:17.369
91,-100389.3063,-23738.37963,-11843.83176,-28836.34315,722.7660087,-24925.63724,-31113.18125,-70460.61104,0.072,0.86,0.45,192,0,0,0,0,0,0,0,0,0,1709549657,0, 2024-03-04 16:24:17.369
92,-100407.1653,-23747.23092,-11867.09992,-28837.63955,63.76952693,-24943.00454,-31148.29584,-70482.96279,0.07,0.864,0.45,192,2,48,27,0,14,16,0,0,0,1709549657,0, 2024-03-04 16:24:17.369
93,-100443.6881,-23760.84313,-11877.91817,-28840.72409,-282.5036982,-24937.41661,-31139.10927,-70466.75777,0.07,0.864,0.45,192,0,0,0,0,0,0,0,0,0,1709549657,0, 2024-03-04 16:24:17.369
94,-100450.5724,-23757.2445,-11857.1981,-28837.28192,196.9635721,-24910.50511,-31086.73913,-70415.41581,0.07,0.864,0.45,192,0,0,0,0,0,0,0,0,0,1709549657,0, 2024-03-04 16:24:17.369
95,-100419.7941,-23736.0774,-11840.88133,-28825.59196,807.9708586,-24887.46046,-31067.89661,-70391.16417,0.07,0.864,0.45,192,0,0,0,0,0,0,0,0,0,1709549657,0, 2024-03-04 16:24:17.369
96,-100399.3869,-23730.10948,-11850.49258,-28828.20711,738.1216571,-24902.23496,-31104.2629,-70417.80745,0.07,0.864,0.45,192,0,0,0,0,0,0,0,0,0,1709549657,0, 2024-03-04 16:24:17.369
97,-100409.5793,-23735.67507,-11870.89972,-28830.82227,82.38853006,-24922.23977,-31136.67293,-70398.62965,0.07,0.864,0.45,192,0,0,0,0,0,0,0,0,0,1709549657,0, 2024-03-04 16:24:17.369
98,-100450.3489,-23758.87618,-11890.43515,-28845.08268,-275.8652301,-24932.94626,-31133.96837,-70416.4887,0.07,0.864,0.45,192,0,0,0,0,0,0,0,0,0,1709549657,0, 2024-03-04 16:24:17.369
99,-100468.9679,-23773.40481,-11888.37879,-28862.65115,173.4271852,-24933.57211,-31104.48642,-70486.20379,0.07,0.864,0.45,192,0,0,0,0,0,0,0,0,0,1709549657,0, 2024-03-04 16:24:17.369
100,-100441.1847,-23760.03847,-11876.01827,-28859.34309,784.3897682,-24922.46329,-31087.83437,-70475.00556,0.07,0.864,0.45,192,0,0,0,0,0,0,0,0,0,1709549657,0, 2024-03-04 16:24:17.369
101,-100413.8932,-23748.21439,-11872.71021,-28854.60452,710.2266801,-24933.54975,-31130.77207,-70438.77339,0.07,0.864,0.45,192,0,0,0,0,0,0,0,0,0,1709549657,0, 2024-03-04 16:24:17.369
102,-100422.901,-23753.62352,-11885.89774,-28853.55399,69.42451828,-24951.78878,-31160.00815,-70415.05819,0.074,0.862,0.456,192,2,80,26,240,14,64,0,0,0,1709549657,0, 2024-03-04 16:24:17.369
103,-100456.898,-23770.1191,-11892.96089,-28860.34892,-283.6436371,-24955.83444,-31144.18312,-70428.51394,0.074,0.862,0.456,192,0,0,0,0,0,0,0,0,0,1709549657,0, 2024-03-04 16:24:17.369
104,-100468.0738,-23775.8188,-11880.60038,-28864.39459,179.1715836,-24940.05411,-31090.80715,-70419.34972,0.074,0.862,0.456,192,0,0,0,0,0,0,0,0,0,1709549657,0, 2024-03-04 16:24:17.369
105,-100440.9612,-23761.96072,-11865.58001,-28860.81831,795.7444544,-24926.71012,-31090.53893,-70425.40704,0.074,0.862,0.456,192,0,0,0,0,0,0,0,0,0,1709549657,0, 2024-03-04 16:24:17.369
106,-100412.7756,-23747.40973,-11866.63054,-28857.59966,723.9506512,-24939.33886,-31126.18996,-70459.06877,0.074,0.862,0.456,192,0,0,0,0,0,0,0,0,0,1709549657,0, 2024-03-04 16:24:17.369
107,-100411.5686,-23741.28535,-11870.69856,-28847.63078,88.691722,-24947.74311,-31145.41246,-70442.7967,0.074,0.862,0.456,192,0,0,0,0,0,0,0,0,0,1709549657,0, 2024-03-04 16:24:17.369
108,-100441.2965,-23752.34947,-11867.01052,-28846.42379,-270.3443492,-24942.80338,-31125.29589,-70421.04845,0.074,0.862,0.456,192,0,0,0,0,0,0,0,0,0,1709549657,0, 2024-03-04 16:24:17.369
109,-100457.3227,-23763.10066,-11855.9464,-28855.588,190.4815662,-24931.5381,-31082.53701,-70441.4556,0.074,0.862,0.456,192,0,0,0,0,0,0,0,0,0,1709549657,0, 2024-03-04 16:24:17.369
110,-100433.9204,-23755.65752,-11847.65391,-28859.92424,811.4577307,-24929.95112,-31076.0103,-70498.43019,0.074,0.862,0.456,192,0,0,0,0,0,0,0,0,0,1709549657,0, 2024-03-04 16:24:17.369
111,-100411.5686,-23745.53218,-11854.6053,-28858.44902,737.5852153,-24941.8199,-31110.63315,-70507.39324,0.074,0.862,0.456,192,0,0,0,0,0,0,0,0,0,1709549657,0, 2024-03-04 16:24:17.369
112,-100420.0623,-23747.76736,-11868.37397,-28853.48694,82.36617832,-24952.25816,-31143.44551,-70478.78301,0.066,0.87,0.454,192,2,16,27,48,14,48,0,0,0,1709549657,0, 2024-03-04 16:24:17.369
113,-100453.4782,-23763.39123,-11873.69369,-28853.48694,-290.5950297,-24948.79364,-31122.32311,-70467.33892,0.066,0.87,0.454,192,0,0,0,0,0,0,0,0,0,1709549657,0, 2024-03-04 16:24:17.369
114,-100470.2643,-23772.5778,-11866.89876,-28858.98547,168.0627666,-24933.34859,-31080.65946,-70483.43217,0.066,0.87,0.454,192,0,0,0,0,0,0,0,0,0,1709549657,0, 2024-03-04 16:24:17.369
115,-100442.1682,-23757.46802,-11849.71027,-28852.10113,791.0282363,-24916.98711,-31079.60893,-70470.22229,0.066,0.87,0.454,192,0,0,0,0,0,0,0,0,0,1709549657,0, 2024-03-04 16:24:17.369
116,-100413.4015,-23741.59828,-11853.84534,-28841.48405,728.6221658,-24917.32239,-31109.3144,-70431.10674,0.066,0.87,0.454,192,0,0,0,0,0,0,0,0,0,1709549657,0, 2024-03-04 16:24:17.369
117,-100424.3762,-23745.46513,-11872.10672,-28842.17696,87.30591384,-24936.05315,-31127.66518,-70460.70045,0.066,0.87,0.454,192,0,0,0,0,0,0,0,0,0,1709549657,0, 2024-03-04 16:24:17.369
118,-100456.7862,-23756.641,-11877.717,-28840.65704,-287.8010616,-24928.69943,-31126.6817,-70410.49843,0.066,0.87,0.454,192,0,0,0,0,0,0,0,0,0,1709549657,0, 2024-03-04 16:24:17.369
119,-100469.5491,-23763.01125,-11871.54792,-28848.94953,159.3902897,-24915.73541,-31091.25419,-70426.70344,0.066,0.87,0.454,192,0,0,0,0,0,0,0,0,0,1709549657,0, 2024-03-04 16:24:17.369
120,-100450.3266,-23759.05499,-11864.21655,-28857.68907,784.0097885,-24917.07652,-31082.80523,-70418.27684,0.066,0.87,0.454,192,0,0,0,0,0,0,0,0,0,1709549657,0, 2024-03-04 16:24:17.369
121,-100421.9398,-23745.26396,-11868.70925,-28856.92911,717.2674796,-24932.74509,-31113.22595,-70448.29523,0.066,0.87,0.454,192,0,0,0,0,0,0,0,0,0,1709549657,0, 2024-03-04 16:24:17.369
122,-100435.9544,-23757.33391,-11894.01143,-28869.22257,74.85599218,-24964.57398,-31152.16269,-70492.50698,0.068,0.87,0.448,192,2,32,27,48,14,0,0,0,0,1709549657,0, 2024-03-04 16:24:17.369
123,-100468.7891,-23773.53892,-11899.53231,-28873.98349,-294.5065849,-24962.74113,-31135.89062,-70450.99979,0.068,0.87,0.448,192,0,0,0,0,0,0,0,0,0,1709549657,0, 2024-03-04 16:24:17.369
124,-100482.2001,-23780.06563,-11893.45263,-28878.20797,153.3106152,-24945.39618,-31091.79063,-70397.93675,0.068,0.87,0.448,192,0,0,0,0,0,0,0,0,0,1709549657,0, 2024-03-04 16:24:17.369
125,-100450.6842,-23759.21145,-11870.47504,-28870.51897,787.9660473,-24932.70039,-31074.89271,-70398.11556,0.068,0.87,0.448,192,0,0,0,0,0,0,0,0,0,1709549657,0, 2024-03-04 16:24:17.369
126,-100425.5832,-23747.6556,-11878.29815,-28873.93878,720.8884622,-24955.32035,-31121.07141,-70466.98129,0.068,0.87,0.448,192,0,0,0,0,0,0,0,0,0,1709549657,0, 2024-03-04 16:24:17.369
127,-100434.4792,-23755.25519,-11895.41959,-28883.97472,74.63247474,-24989.8985,-31162.51155,-70556.88,0.068,0.87,0.448,192,0,0,0,0,0,0,0,0,0,1709549657,0, 2024-03-04 16:24:17.369
128,-100464.0282,-23765.20172,-11900.38167,-28883.12535,-307.180024,-24983.97529,-31149.81576,-70532.98599,0.068,0.87,0.448,192,0,0,0,0,0,0,0,0,0,1709549657,0, 2024-03-04 16:24:17.369
129,-100468.9232,-23763.21241,-11880.13099,-28877.82799,156.1939903,-24954.29217,-31100.44075,-70433.74424,0.068,0.87,0.448,192,0,0,0,0,0,0,0,0,0,1709549657,0, 2024-03-04 16:24:17.369
130,-100440.6483,-23750.65073,-11860.55086,-28874.74345,794.9397916,-24943.83156,-31083.54283,-70442.57318,0.068,0.87,0.448,192,0,0,0,0,0,0,0,0,0,1709549657,0, 2024-03-04 16:24:17.369
131,-100414.5861,-23741.2183,-11866.58583,-28874.8105,736.0429449,-24958.67311,-31117.42808,-70494.98802,0.068,0.87,0.448,192,0,0,0,0,0,0,0,0,0,1709549657,0, 2024-03-04 16:24:17.369
132,-100420.8223,-23741.03948,-11879.05811,-28864.08166,87.12709989,-24961.06475,-31149.1005,-70458.53233,0.072,0.864,0.448,192,2,64,27,0,14,0,0,0,0,1709549657,0, 2024-03-04 16:24:17.369
133,-100463.6929,-23763.32417,-11895.6431,-28871.12246,-284.6271139,-24961.06475,-31136.78469,-70448.83167,0.072,0.864,0.448,192,0,0,0,0,0,0,0,0,0,1709549657,0, 2024-03-04 16:24:17.369
134,-100475.584,-23769.20268,-11884.08725,-28874.47523,158.3844612,-24942.66927,-31088.8402,-70448.31758,0.072,0.864,0.448,192,0,0,0,0,0,0,0,0,0,1709549657,0, 2024-03-04 16:24:17.369
135,-100450.2819,-23759.01029,-11866.96581,-28871.5695,802.8970126,-24929.0347,-31080.12302,-70457.12417,0.072,0.864,0.448,192,0,0,0,0,0,0,0,0,0,1709549657,0, 2024-03-04 16:24:17.369
136,-100422.901,-23744.48165,-11862.04843,-28862.74056,749.856323,-24933.23683,-31100.08312,-70456.65478,0.072,0.864,0.448,192,0,0,0,0,0,0,0,0,0,1709549657,0, 2024-03-04 16:24:17.369
137,-100433.2498,-23747.29797,-11874.74422,-28860.30422,109.0318095,-24948.43602,-31130.43679,-70447.64703,0.072,0.864,0.448,192,0,0,0,0,0,0,0,0,0,1709549657,0, 2024-03-04 16:24:17.369
