Sample Index, EXG Channel 0, EXG Channel 1, EXG Channel 2, EXG Channel 3, EXG Channel 4, EXG Channel 5, EXG Channel 6, EXG Channel 7, Accel Channel 0, Accel Channel 1, Accel Channel 2, Other, Other.1, Other.2, Other.3, Other.4, Other.5, Other.6, Analog Channel 0, Analog Channel 1, Analog Channel 2, Timestamp, Other.7, Timestamp (Formatted)
0,-99477.57864,-28961.37881,-13756.96227,-29525.78271,-8304.008341,-27045.96842,-34520.34706,-72358.16239,0.094,0.896,0.374,192,2,240,28,0,11,176,0,0,0,1709549373,0, 2024-03-04 16:19:33.110
1,-99503.84194,-28978.85787,-13770.37332,-29535.9751,-9196.982884,-27045.25316,-34482.19263,-72339.1187,0.094,0.896,0.374,192,0,0,0,0,0,0,0,0,0,1709549373,0, 2024-03-04 16:19:33.110
2,-99531.91573,-29009.07743,-13771.04387,-29565.47941,-7783.01153,-27033.18322,-34382.32504,-72344.2149,0.094,0.896,0.374,192,0,0,0,0,0,0,0,0,0,1709549373,0, 2024-03-04 16:19:33.110
3,-99527.0654,-29012.98899,-13760.94088,-29573.01194,-5994.626104,-27025.13659,-34352.23959,-72338.09052,0.094,0.896,0.374,192,0,0,0,0,0,0,0,0,0,1709549373,0, 2024-03-04 16:19:33.110
4,-99499.5504,-28990.81606,-13757.78928,-29557.52218,-6346.017879,-27042.19097,-34429.62133,-72398.6861,0.094,0.896,0.374,192,0,0,0,0,0,0,0,0,0,1709549373,0, 2024-03-04 16:19:33.110
5,-99489.89445,-28978.90258,-13766.64058,-29546.23455,-8293.212449,-27067.15787,-34517.6425,-72413.14768,0.094,0.896,0.374,192,0,0,0,0,0,0,0,0,0,1709549373,0, 2024-03-04 16:19:33.110
6,-99511.77681,-28993.87824,-13778.71052,-29557.43278,-9212.986733,-27064.69918,-34494.08376,-72330.7815,0.094,0.896,0.374,192,0,0,0,0,0,0,0,0,0,1709549373,0, 2024-03-04 16:19:33.110
7,-99543.80686,-29025.61772,-13788.70175,-29591.96622,-7820.584812,-27054.17151,-34395.69138,-72326.51232,0.094,0.896,0.374,192,0,0,0,0,0,0,0,0,0,1709549373,0, 2024-03-04 16:19:33.110
8,-99534.68734,-29022.68964,-13776.60945,-29596.1013,-6027.50552,-27041.38631,-34356.55348,-72329.70862,0.094,0.896,0.374,192,0,0,0,0,0,0,0,0,0,1709549373,0, 2024-03-04 16:19:33.110
9,-99506.5465,-28995.26405,-13767.02056,-29570.35209,-6344.810885,-27044.26969,-34433.68935,-72307.37922,0.094,0.896,0.374,192,0,0,0,0,0,0,0,0,0,1709549373,0, 2024-03-04 16:19:33.110
10,-99492.86723,-28974.85691,-13770.55213,-29546.45807,-8283.578847,-27055.87024,-34513.35097,-72318.5551,0.092,0.896,0.374,192,2,224,28,0,11,176,0,0,0,1709549373,0, 2024-03-04 16:19:33.110
11,-99520.6281,-28991.41955,-13791.78629,-29563.80302,-9213.880803,-27068.65544,-34490.7757,-72355.1896,0.092,0.896,0.374,192,0,0,0,0,0,0,0,0,0,1709549373,0, 2024-03-04 16:19:33.110
12,-99552.45698,-29018.64398,-13799.09531,-29595.47545,-7844.724696,-27062.55341,-34394.81966,-72371.19345,0.092,0.896,0.374,192,0,0,0,0,0,0,0,0,0,1709549373,0, 2024-03-04 16:19:33.110
13,-99542.95749,-29014.48655,-13787.13713,-29597.66592,-6051.421887,-27049.16472,-34362.09671,-72361.87278,0.092,0.896,0.374,192,0,0,0,0,0,0,0,0,0,1709549373,0, 2024-03-04 16:19:33.110
14,-99513.6767,-28987.23978,-13779.53753,-29573.99542,-6345.928472,-27055.22204,-34443.70293,-72348.50643,0.092,0.896,0.374,192,0,0,0,0,0,0,0,0,0,1709549373,0, 2024-03-04 16:19:33.110
15,-99500.17625,-28969.40308,-13782.53267,-29552.0013,-8282.930646,-27072.54464,-34526.87377,-72325.90882,0.092,0.896,0.374,192,0,0,0,0,0,0,0,0,0,1709549373,0, 2024-03-04 16:19:33.110
16,-99519.17523,-28983.7082,-13793.84265,-29565.01002,-9229.459969,-27083.5417,-34503.65031,-72361.78337,0.092,0.896,0.374,192,0,0,0,0,0,0,0,0,0,1709549373,0, 2024-03-04 16:19:33.110
17,-99540.07411,-29005.97054,-13788.21001,-29587.40647,-7874.318406,-27067.35904,-34405.97318,-72374.63562,0.092,0.896,0.374,192,0,0,0,0,0,0,0,0,0,1709549373,0, 2024-03-04 16:19:33.110
18,-99525.50078,-29001.16491,-13769.90393,-29588.92639,-6054.171151,-27053.9927,-34365.1589,-72400.0272,0.092,0.896,0.374,192,0,0,0,0,0,0,0,0,0,1709549373,0, 2024-03-04 16:19:33.110
19,-99494.29774,-28974.56634,-13761.67849,-29566.35112,-6305.561221,-27062.50871,-34444.01585,-72438.44985,0.092,0.896,0.374,192,0,0,0,0,0,0,0,0,0,1709549373,0, 2024-03-04 16:19:33.110
20,-99476.41635,-28951.14171,-13759.28685,-29537.42797,-8219.116416,-27067.98489,-34523.00692,-72422.46835,0.092,0.884,0.37,192,2,224,27,160,11,144,0,0,0,1709549373,0, 2024-03-04 16:19:33.110
21,-99494.92359,-28960.99883,-13765.29947,-29540.04312,-9204.135442,-27061.05585,-34492.22857,-72372.75808,0.092,0.884,0.37,192,0,0,0,0,0,0,0,0,0,1709549373,0, 2024-03-04 16:19:33.110
22,-99524.11497,-28990.41372,-13767.91463,-29564.7418,-7875.234827,-27043.86735,-34389.67876,-72344.48312,0.092,0.884,0.37,192,0,0,0,0,0,0,0,0,0,1709549373,0, 2024-03-04 16:19:33.110
23,-99522.86327,-28996.78397,-13761.05264,-29573.34722,-6048.091477,-27033.83142,-34357.80518,-72363.14683,0.092,0.884,0.37,192,0,0,0,0,0,0,0,0,0,1709549373,0, 2024-03-04 16:19:33.110
24,-99493.56013,-28971.25828,-13754.70474,-29550.48139,-6284.617637,-27039.37465,-34434.22579,-72387.91256,0.092,0.884,0.37,192,0,0,0,0,0,0,0,0,0,1709549373,0, 2024-03-04 16:19:33.110
25,-99478.62917,-28951.96872,-13758.97393,-29526.02858,-8217.328276,-27050.25995,-34516.88254,-72400.586,0.092,0.884,0.37,192,0,0,0,0,0,0,0,0,0,1709549373,0, 2024-03-04 16:19:33.110
26,-99504.28897,-28968.3749,-13769.18867,-29535.50572,-9215.624239,-27051.51165,-34487.82527,-72389.87951,0.092,0.884,0.37,192,0,0,0,0,0,0,0,0,0,1709549373,0, 2024-03-04 16:19:33.110
27,-99539.47062,-29001.96958,-13776.5424,-29569.54742,-7907.019008,-27041.45337,-34390.03639,-72366.99133,0.092,0.884,0.37,192,0,0,0,0,0,0,0,0,0,1709549373,0, 2024-03-04 16:19:33.110
28,-99541.37052,-29011.02203,-13770.61919,-29586.5124,-6073.3713,-27040.604,-34350.40675,-72384.13511,0.092,0.884,0.37,192,0,0,0,0,0,0,0,0,0,1709549373,0, 2024-03-04 16:19:33.110
29,-99516.67184,-28991.37485,-13764.96419,-29569.838,-6280.750785,-27049.87997,-34431.49888,-72356.21778,0.092,0.884,0.37,192,0,0,0,0,0,0,0,0,0,1709549373,0, 2024-03-04 16:19:33.110
30,-99500.1092,-28971.95118,-13768.60753,-29547.82153,-8188.986264,-27062.12873,-34508.45593,-72342.85144,0.096,0.89,0.376,192,3,0,27,208,11,192,0,0,0,1709549373,0, 2024-03-04 16:19:33.110
31,-99524.42789,-28989.96669,-13782.42091,-29561.90313,-9204.895402,-27068.85661,-34483.31022,-72365.27024,0.096,0.89,0.376,192,0,0,0,0,0,0,0,0,0,1709549373,0, 2024-03-04 16:19:33.110
32,-99554.80391,-29023.20373,-13792.50154,-29597.33064,-7920.295944,-27063.60395,-34391.62336,-72358.78824,0.096,0.89,0.376,192,0,0,0,0,0,0,0,0,0,1709549373,0, 2024-03-04 16:19:33.110
33,-99546.44436,-29020.54388,-13781.14686,-29601.37631,-6087.989341,-27048.85179,-34359.14628,-72350.11576,0.096,0.89,0.376,192,0,0,0,0,0,0,0,0,0,1709549373,0, 2024-03-04 16:19:33.110
34,-99523.06444,-28998.30389,-13778.5317,-29585.35011,-6273.777041,-27061.54758,-34441.46776,-72381.67642,0.096,0.89,0.376,192,0,0,0,0,0,0,0,0,0,1709549373,0, 2024-03-04 16:19:33.110
35,-99506.5912,-28977.56147,-13782.3762,-29563.46775,-8179.754994,-27075.18215,-34526.78436,-72382.57049,0.096,0.89,0.376,192,0,0,0,0,0,0,0,0,0,1709549373,0, 2024-03-04 16:19:33.110
36,-99529.23352,-28990.27961,-13797.21776,-29575.96237,-9221.189823,-27081.03831,-34504.29851,-72366.58899,0.096,0.89,0.376,192,0,0,0,0,0,0,0,0,0,1709549373,0, 2024-03-04 16:19:33.110
37,-99557.95551,-29017.39228,-13802.53748,-29605.60079,-7943.742924,-27069.4154,-34406.97901,-72330.91561,0.096,0.89,0.376,192,0,0,0,0,0,0,0,0,0,1709549373,0, 2024-03-04 16:19:33.110
38,-99553.48516,-29021.505,-13792.41214,-29614.69795,-6099.321675,-27060.07237,-34370.45626,-72332.39082,0.096,0.89,0.376,192,0,0,0,0,0,0,0,0,0,1709549373,0, 2024-03-04 16:19:33.110
39,-99524.85258,-28996.82867,-13783.87377,-29594.06729,-6274.492297,-27070.0636,-34439.36669,-72348.37232,0.096,0.89,0.376,192,0,0,0,0,0,0,0,0,0,1709549373,0, 2024-03-04 16:19:33.110
40,-99512.84969,-28979.32726,-13789.99815,-29575.53769,-8171.082517,-27091.36481,-34519.96708,-72368.51124,0.096,0.894,0.374,192,3,0,27,240,11,176,0,0,0,1709549373,0, 2024-03-04 16:19:33.111
41,-99533.54741,-28992.87242,-13798.11183,-29586.98178,-9214.640762,-27100.68549,-34493.81554,-72408.90085,0.096,0.894,0.374,192,0,0,0,0,0,0,0,0,0,1709549373,0, 2024-03-04 16:19:33.111
42,-99560.63772,-29019.89568,-13795.85431,-29613.17803,-7958.092744,-27089.55432,-34390.86341,-72429.4868,0.096,0.894,0.374,192,0,0,0,0,0,0,0,0,0,1709549373,0, 2024-03-04 16:19:33.111
43,-99558.69312,-29024.79071,-13788.70175,-29622.02932,-6103.769672,-27082.60293,-34362.76726,-72423.13891,0.096,0.894,0.374,192,0,0,0,0,0,0,0,0,0,1709549373,0, 2024-03-04 16:19:33.111
44,-99520.96337,-28989.67612,-13770.95446,-29587.89821,-6234.370915,-27074.64571,-34436.2598,-72389.90186,0.096,0.894,0.374,192,0,0,0,0,0,0,0,0,0,1709549373,0, 2024-03-04 16:19:33.111
45,-99498.45517,-28961.44586,-13762.95254,-29552.04601,-8125.239089,-27074.15397,-34513.23921,-72356.64247,0.096,0.894,0.374,192,0,0,0,0,0,0,0,0,0,1709549373,0, 2024-03-04 16:19:33.111
46,-99518.05765,-28970.74419,-13769.81452,-29556.4493,-9196.692311,-27073.32695,-34486.97591,-72367.3713,0.096,0.894,0.374,192,0,0,0,0,0,0,0,0,0,1709549373,0, 2024-03-04 16:19:33.111
47,-99550.24416,-29000.80729,-13778.88933,-29586.73591,-7973.224875,-27062.59812,-34391.82453,-72382.45873,0.096,0.894,0.374,192,0,0,0,0,0,0,0,0,0,1709549373,0, 2024-03-04 16:19:33.111
48,-99548.45602,-29005.4788,-13773.3014,-29597.08477,-6109.201146,-27052.33867,-34359.70507,-72404.87753,0.096,0.894,0.374,192,0,0,0,0,0,0,0,0,0,1709549373,0, 2024-03-04 16:19:33.111
49,-99516.20245,-28976.55564,-13760.11387,-29569.61448,-6224.759665,-27050.95286,-34433.46583,-72400.07191,0.096,0.894,0.374,192,0,0,0,0,0,0,0,0,0,1709549373,0, 2024-03-04 16:19:33.111
50,-99500.31036,-28956.12615,-13764.00307,-29545.13932,-8112.342133,-27064.85564,-34513.1498,-72418.04271,0.092,0.896,0.374,192,2,224,28,0,11,176,0,0,0,1709549373,0, 2024-03-04 16:19:33.111
51,-99522.75151,-28968.2855,-13774.50839,-29550.19081,-9208.561088,-27064.3192,-34491.80388,-72411.18072,0.092,0.896,0.374,192,0,0,0,0,0,0,0,0,0,1709549373,0, 2024-03-04 16:19:33.111
52,-99554.96038,-28998.25919,-13777.77174,-29572.63196,-7987.217067,-27041.56513,-34391.77983,-72330.93796,0.092,0.896,0.374,192,0,0,0,0,0,0,0,0,0,1709549373,0, 2024-03-04 16:19:33.111
53,-99549.95359,-29000.80729,-13764.62892,-29577.75051,-6127.864853,-27023.68373,-34351.81491,-72313.01186,0.092,0.896,0.374,192,0,0,0,0,0,0,0,0,0,1709549373,0, 2024-03-04 16:19:33.111
54,-99525.09845,-28976.6674,-13755.68822,-29556.20343,-6215.72956,-27027.86351,-34418.55722,-72319.78444,0.092,0.896,0.374,192,0,0,0,0,0,0,0,0,0,1709549373,0, 2024-03-04 16:19:33.111
55,-99512.73793,-28959.05423,-13764.02542,-29541.42893,-8096.003007,-27052.1822,-34512.12162,-72355.30136,0.092,0.896,0.374,192,0,0,0,0,0,0,0,0,0,1709549373,0, 2024-03-04 16:19:33.111
56,-99542.80103,-28981.62949,-13787.49475,-29565.32294,-9214.372541,-27072.45524,-34503.85147,-72402.73176,0.092,0.896,0.374,192,0,0,0,0,0,0,0,0,0,1709549373,0, 2024-03-04 16:19:33.111
57,-99576.03807,-29011.62553,-13795.18375,-29597.42005,-8019.872966,-27063.08986,-34406.42022,-72386.75027,0.092,0.896,0.374,192,0,0,0,0,0,0,0,0,0,1709549373,0, 2024-03-04 16:19:33.111
58,-99566.04684,-29007.75868,-13780.61042,-29598.98467,-6142.81817,-27040.29108,-34360.68855,-72329.59686,0.092,0.896,0.374,192,0,0,0,0,0,0,0,0,0,1709549373,0, 2024-03-04 16:19:33.111
59,-99541.86225,-28989.25143,-13778.75522,-29585.81949,-6215.170767,-27052.58454,-34439.59021,-72329.50745,0.092,0.896,0.374,192,0,0,0,0,0,0,0,0,0,1709549373,0, 2024-03-04 16:19:33.111
60,-99528.3618,-28972.04059,-13785.39369,-29568.89922,-8077.182839,-27075.36096,-34517.50839,-72333.53076,0.084,0.896,0.376,192,2,160,28,0,11,192,0,0,0,1709549373,0, 2024-03-04 16:19:33.111
61,-99542.86808,-28978.43319,-13788.54529,-29573.50368,-9212.204422,-27079.94307,-34499.33642,-72335.43066,0.084,0.896,0.376,192,0,0,0,0,0,0,0,0,0,1709549373,0, 2024-03-04 16:19:33.111
62,-99574.29464,-29007.02107,-13795.67549,-29607.36657,-8049.176103,-27078.37845,-34401.704,-72384.69391,0.084,0.896,0.376,192,0,0,0,0,0,0,0,0,0,1709549373,0, 2024-03-04 16:19:33.111
63,-99578.40736,-29018.64398,-13794.62496,-29628.22075,-6169.059118,-27080.97125,-34362.6108,-72424.3012,0.084,0.896,0.376,192,0,0,0,0,0,0,0,0,0,1709549373,0, 2024-03-04 16:19:33.111
64,-99552.0323,-28995.21935,-13785.10312,-29604.12557,-6205.738331,-27077.84201,-34428.72726,-72341.95737,0.084,0.896,0.376,192,0,0,0,0,0,0,0,0,0,1709549373,0, 2024-03-04 16:19:33.111
65,-99535.67082,-28973.76167,-13785.68426,-29577.70581,-8051.903016,-27090.94013,-34507.94184,-72323.85246,0.084,0.896,0.376,192,0,0,0,0,0,0,0,0,0,1709549373,0, 2024-03-04 16:19:33.111
66,-99550.1324,-28981.65184,-13793.52972,-29581.75148,-9202.414358,-27097.08686,-34489.45695,-72358.78824,0.084,0.896,0.376,192,0,0,0,0,0,0,0,0,0,1709549373,0, 2024-03-04 16:19:33.111
67,-99577.6474,-29008.33982,-13795.47433,-29608.68533,-8048.282033,-27085.88863,-34394.23852,-72371.30521,0.084,0.896,0.376,192,0,0,0,0,0,0,0,0,0,1709549373,0, 2024-03-04 16:19:33.111
68,-99573.78055,-29011.40201,-13784.8796,-29616.21787,-6164.029975,-27074.601,-34356.26291,-72399.91544,0.084,0.896,0.376,192,0,0,0,0,0,0,0,0,0,1709549373,0, 2024-03-04 16:19:33.111
69,-99545.14796,-28988.8491,-13777.21295,-29596.59303,-6190.315627,-27082.78174,-34433.42113,-72429.01742,0.084,0.896,0.376,192,0,0,0,0,0,0,0,0,0,1709549373,0, 2024-03-04 16:19:33.111
70,-99516.76125,-28957.95899,-13767.13231,-29559.01975,-8021.906975,-27082.33471,-34504.61143,-72375.37323,0.086,0.89,0.37,192,2,176,27,208,11,144,0,0,0,1709549373,0, 2024-03-04 16:19:33.111
71,-99533.97209,-28963.07754,-13770.26156,-29554.30353,-9176.218113,-27075.13745,-34479.93511,-72362.25276,0.086,0.89,0.37,192,0,0,0,0,0,0,0,0,0,1709549373,0, 2024-03-04 16:19:33.111
72,-99567.56676,-28989.4079,-13772.63084,-29575.91767,-8034.379248,-27059.37947,-34378.92757,-72387.42082,0.086,0.89,0.37,192,0,0,0,0,0,0,0,0,0,1709549373,0, 2024-03-04 16:19:33.111
73,-99569.75723,-28997.00749,-13769.5016,-29586.87003,-6144.516903,-27046.10253,-34346.76341,-72396.02624,0.086,0.89,0.37,192,0,0,0,0,0,0,0,0,0,1709549373,0, 2024-03-04 16:19:33.111
74,-99535.31319,-28966.18443,-13755.28589,-29556.00227,-6133.20692,-27037.31829,-34405.5038,-72361.76102,0.086,0.89,0.37,192,0,0,0,0,0,0,0,0,0,1709549373,0, 2024-03-04 16:19:33.111
75,-99518.7729,-28943.74328,-13761.79025,-29533.49406,-7988.960503,-27054.23856,-34493.03323,-72388.4043,0.086,0.89,0.37,192,0,0,0,0,0,0,0,0,0,1709549373,0, 2024-03-04 16:19:33.111
76,-99538.6436,-28952.48281,-13766.37235,-29534.634,-9176.642797,-27051.69047,-34481.07505,-72366.05255,0.086,0.89,0.37,192,0,0,0,0,0,0,0,0,0,1709549373,0, 2024-03-04 16:19:33.111
77,-99570.33838,-28981.13775,-13770.61919,-29560.40556,-8060.642548,-27034.92666,-34381.1851,-72343.29848,0.086,0.89,0.37,192,0,0,0,0,0,0,0,0,0,1709549373,0, 2024-03-04 16:19:33.111
78,-99572.90883,-28991.82188,-13768.07109,-29577.527,-6152.29531,-27029.20461,-34340.10259,-72365.87374,0.086,0.89,0.37,192,0,0,0,0,0,0,0,0,0,1709549373,0, 2024-03-04 16:19:33.111
79,-99546.75729,-28970.74419,-13760.22563,-29561.79137,-6143.689888,-27039.93345,-34411.27055,-72390.93004,0.086,0.89,0.37,192,0,0,0,0,0,0,0,0,0,1709549373,0, 2024-03-04 16:19:33.111
80,-99533.79327,-28952.61692,-13765.63475,-29540.69132,-7985.0713,-27056.07141,-34495.08959,-72368.19832,0.09,0.894,0.37,192,2,208,27,240,11,144,0,0,0,1709549373,0, 2024-03-04 16:19:33.111
81,-99556.36854,-28965.7821,-13778.37524,-29546.97216,-9195.597076,-27058.50775,-34479.62218,-72348.1041,0.09,0.894,0.37,192,0,0,0,0,0,0,0,0,0,1709549373,0, 2024-03-04 16:19:33.111
82,-99583.32474,-28990.59254,-13781.43743,-29575.7165,-8101.434481,-27047.26482,-34380.26868,-72368.35478,0.09,0.894,0.37,192,0,0,0,0,0,0,0,0,0,1709549373,0, 2024-03-04 16:19:33.111
83,-99579.27907,-28993.2524,-13776.56475,-29589.1499,-6189.063929,-27035.5078,-34334.22409,-72352.95443,0.09,0.894,0.37,192,0,0,0,0,0,0,0,0,0,1709549373,0, 2024-03-04 16:19:33.111
84,-99550.84766,-28965.26801,-13771.4909,-29566.52994,-6155.938644,-27030.00927,-34405.19087,-72303.11004,0.09,0.894,0.37,192,0,0,0,0,0,0,0,0,0,1709549373,0, 2024-03-04 16:19:33.111
85,-99540.18587,-28950.98525,-13780.83393,-29553.76709,-7984.467803,-27057.77014,-34499.51524,-72353.2003,0.09,0.894,0.37,192,0,0,0,0,0,0,0,0,0,1709549373,0, 2024-03-04 16:19:33.111
86,-99562.93995,-28966.11738,-13796.01077,-29567.3793,-9198.949838,-27074.26573,-34486.81944,-72387.42082,0.09,0.894,0.37,192,0,0,0,0,0,0,0,0,0,1709549373,0, 2024-03-04 16:19:33.111
87,-99594.3665,-28995.8899,-13805.75613,-29600.6387,-8134.291546,-27070.44358,-34390.97516,-72376.312,0.09,0.894,0.37,192,0,0,0,0,0,0,0,0,0,1709549373,0, 2024-03-04 16:19:33.111
88,-99597.20517,-29001.25432,-13796.81543,-29612.8204,-6213.941421,-27060.38529,-34347.52337,-72357.60359,0.09,0.894,0.37,192,0,0,0,0,0,0,0,0,0,1709549373,0, 2024-03-04 16:19:33.111
89,-99567.81263,-28969.69366,-13784.79019,-29583.51726,-6148.58492,-27055.06558,-34408.0966,-72333.66487,0.09,0.894,0.37,192,0,0,0,0,0,0,0,0,0,1709549373,0, 2024-03-04 16:19:33.111
90,-99546.53377,-28944.30208,-13785.25958,-29558.79623,-7968.776878,-27073.75164,-34490.59689,-72368.06421,0.088,0.896,0.372,192,2,192,28,0,11,160,0,0,0,1709549374,0, 2024-03-04 16:19:33.591
91,-99564.92925,-28954.76269,-13798.98355,-29568.65335,-9206.057692,-27087.56502,-34493.41321,-72429.3974,0.088,0.896,0.372,192,0,0,0,0,0,0,0,0,0,1709549374,0, 2024-03-04 16:19:33.591
92,-99594.38885,-28983.6635,-13805.37615,-29598.76115,-8148.551959,-27081.91002,-34401.79341,-72443.34488,0.088,0.896,0.372,192,0,0,0,0,0,0,0,0,0,1709549374,0, 2024-03-04 16:19:33.591
93,-99590.16437,-28988.44677,-13786.75715,-29598.89526,-6224.782017,-27055.78083,-34351.14436,-72329.68626,0.088,0.896,0.372,192,0,0,0,0,0,0,0,0,0,1709549374,0, 2024-03-04 16:19:33.591
94,-99553.50751,-28958.92012,-13762.61726,-29565.45705,-6115.437283,-27045.07435,-34408.23071,-72281.67472,0.088,0.896,0.372,192,0,0,0,0,0,0,0,0,0,1709549374,0, 2024-03-04 16:19:33.591
95,-99536.16256,-28941.01637,-13765.12066,-29546.14515,-7916.630258,-27069.66127,-34498.50941,-72341.35387,0.088,0.896,0.372,192,0,0,0,0,0,0,0,0,0,1709549374,0, 2024-03-04 16:19:33.591
96,-99558.89428,-28956.23791,-13782.73383,-29558.14803,-9181.895457,-27083.5417,-34493.61437,-72389.20896,0.088,0.896,0.372,192,0,0,0,0,0,0,0,0,0,1709549374,0, 2024-03-04 16:19:33.591
97,-99585.31405,-28980.37779,-13782.57737,-29581.21503,-8133.755104,-27067.94018,-34400.60877,-72370.34409,0.088,0.896,0.372,192,0,0,0,0,0,0,0,0,0,1709549374,0, 2024-03-04 16:19:33.591
98,-99577.26742,-28977.98615,-13761.99141,-29577.70581,-6200.798595,-27038.72645,-34349.1774,-72322.01962,0.088,0.896,0.372,192,0,0,0,0,0,0,0,0,0,1709549374,0, 2024-03-04 16:19:33.591
99,-99549.03716,-28952.63928,-13756.13526,-29555.08584,-6083.518992,-27039.75463,-34409.70593,-72359.61525,0.088,0.896,0.372,192,0,0,0,0,0,0,0,0,0,1709549374,0, 2024-03-04 16:19:33.591
100,-99535.31319,-28936.56837,-13767.91463,-29541.92067,-7895.619618,-27065.66031,-34511.22755,-72421.59664,0.084,0.888,0.372,192,2,160,27,192,11,160,0,0,0,1709549374,0, 2024-03-04 16:19:33.591
101,-99549.61831,-28942.44688,-13774.35193,-29539.75255,-9169.490238,-27060.02767,-34497.54828,-72359.61525,0.084,0.888,0.372,192,0,0,0,0,0,0,0,0,0,1709549374,0, 2024-03-04 16:19:33.591
102,-99580.30725,-28969.33603,-13778.82228,-29560.45026,-8150.764781,-27040.26872,-34397.07719,-72323.36072,0.084,0.888,0.372,192,0,0,0,0,0,0,0,0,0,1709549374,0, 2024-03-04 16:19:33.591
103,-99580.82134,-28974.92397,-13770.48508,-29566.57464,-6218.121197,-27018.81105,-34346.24932,-72305.52403,0.084,0.888,0.372,192,0,0,0,0,0,0,0,0,0,1709549374,0, 2024-03-04 16:19:33.591
104,-99555.2733,-28954.36036,-13765.56769,-29549.3638,-6080.009768,-27021.91794,-34414.06452,-72306.37339,0.084,0.888,0.372,192,0,0,0,0,0,0,0,0,0,1709549374,0, 2024-03-04 16:19:33.591
105,-99538.19657,-28937.39539,-13772.31792,-29534.16461,-7870.630368,-27047.98008,-34503.53855,-72347.72412,0.084,0.888,0.372,192,0,0,0,0,0,0,0,0,0,1709549374,0, 2024-03-04 16:19:33.591
106,-99558.26843,-28947.56543,-13782.04093,-29542.01007,-9163.254102,-27055.71378,-34494.88842,-72377.38489,0.084,0.888,0.372,192,0,0,0,0,0,0,0,0,0,1709549374,0, 2024-03-04 16:19:33.591
107,-99589.2256,-28975.54981,-13790.84751,-29574.01777,-8173.451802,-27048.78474,-34405.61556,-72382.68225,0.084,0.888,0.372,192,0,0,0,0,0,0,0,0,0,1709549374,0, 2024-03-04 16:19:33.591
108,-99591.8184,-28986.81509,-13784.81254,-29587.92056,-6244.205683,-27036.02189,-34353.84892,-72345.24308,0.084,0.888,0.372,192,0,0,0,0,0,0,0,0,0,1709549374,0, 2024-03-04 16:19:33.591
109,-99565.48805,-28967.83846,-13774.50839,-29571.11205,-6088.637541,-27040.80517,-34411.35996,-72336.77177,0.084,0.888,0.372,192,0,0,0,0,0,0,0,0,0,1709549374,0, 2024-03-04 16:19:33.591
110,-99548.2325,-28948.19128,-13780.87864,-29552.42599,-7869.24456,-27059.84885,-34504.45497,-72338.20228,0.084,0.886,0.378,192,2,160,27,176,11,208,0,0,0,1709549374,0, 2024-03-04 16:19:33.591
111,-99563.29758,-28956.50613,-13791.40631,-29558.19274,-9179.839096,-27065.90617,-34489.45695,-72338.09052,0.084,0.886,0.378,192,0,0,0,0,0,0,0,0,0,1709549374,0, 2024-03-04 16:19:33.591
112,-99596.44521,-28986.65863,-13800.65993,-29588.92639,-8197.032892,-27058.5301,-34399.1112,-72336.01181,0.084,0.886,0.378,192,0,0,0,0,0,0,0,0,0,1709549374,0, 2024-03-04 16:19:33.591
113,-99599.28389,-28996.18047,-13795.40727,-29605.64549,-6272.391233,-27052.62924,-34352.9325,-72366.14196,0.084,0.886,0.378,192,0,0,0,0,0,0,0,0,0,1709549374,0, 2024-03-04 16:19:33.591
114,-99566.47153,-28971.01241,-13784.63373,-29587.29471,-6096.058321,-27059.93826,-34415.45032,-72403.37997,0.084,0.886,0.378,192,0,0,0,0,0,0,0,0,0,1709549374,0, 2024-03-04 16:19:33.591
115,-99544.74563,-28948.79478,-13787.80768,-29565.12178,-7862.270816,-27082.51352,-34507.31599,-72479.75588,0.084,0.886,0.378,192,0,0,0,0,0,0,0,0,0,1709549374,0, 2024-03-04 16:19:33.591
116,-99561.68825,-28956.8414,-13792.23332,-29562.28311,-9184.287093,-27082.73704,-34498.08472,-72443.25548,0.084,0.886,0.378,192,0,0,0,0,0,0,0,0,0,1709549374,0, 2024-03-04 16:19:33.591
117,-99586.76691,-28978.54495,-13787.78533,-29571.26851,-8209.438111,-27045.38727,-34396.25018,-72292.22474,0.084,0.886,0.378,192,0,0,0,0,0,0,0,0,0,1709549374,0, 2024-03-04 16:19:33.591
118,-99587.34805,-28986.63628,-13778.71052,-29583.29375,-6269.351395,-27033.11617,-34349.87031,-72320.76792,0.084,0.886,0.378,192,0,0,0,0,0,0,0,0,0,1709549374,0, 2024-03-04 16:19:33.591
119,-99555.72034,-28962.92108,-13760.82912,-29563.42305,-6071.158477,-27038.94997,-34410.71175,-72351.21099,0.084,0.886,0.378,192,0,0,0,0,0,0,0,0,0,1709549374,0, 2024-03-04 16:19:33.591
120,-99535.82728,-28939.22823,-13755.55411,-29534.72341,-7814.862766,-27047.82361,-34495.89425,-72342.40441,0.084,0.886,0.378,192,0,0,0,0,0,0,0,0,0,1709549374,0, 2024-03-04 16:19:33.591
121,-99552.92637,-28946.60431,-13763.46663,-29535.37161,-9129.860595,-27049.36588,-34480.29274,-72331.56381,0.09,0.886,0.384,192,2,208,27,176,12,0,0,0,0,1709549374,0, 2024-03-04 16:19:33.591
122,-99586.6775,-28979.19315,-13774.93307,-29565.54646,-8194.842421,-27039.55347,-34393.00917,-72311.69311,0.09,0.886,0.384,192,0,0,0,0,0,0,0,0,0,1709549374,0, 2024-03-04 16:19:33.591
123,-99590.11967,-28992.26892,-13766.37235,-29579.4716,-6250.441819,-27028.39995,-34335.16286,-72338.17993,0.09,0.886,0.384,192,0,0,0,0,0,0,0,0,0,1709549374,0, 2024-03-04 16:19:33.591
124,-99567.03032,-28974.36517,-13754.48123,-29562.05959,-6029.763046,-27034.63608,-34394.12676,-72376.82609,0.09,0.886,0.384,192,0,0,0,0,0,0,0,0,0,1709549374,0, 2024-03-04 16:19:33.591
125,-99550.44532,-28956.21556,-13764.71833,-29545.34048,-7776.551876,-27057.77014,-34492.76501,-72387.1079,0.09,0.886,0.384,192,0,0,0,0,0,0,0,0,0,1709549374,0, 2024-03-04 16:19:33.591
126,-99560.81653,-28960.88707,-13775.35776,-29545.5193,-9137.147264,-27058.15012,-34485.70186,-72343.45494,0.09,0.886,0.384,192,0,0,0,0,0,0,0,0,0,1709549374,0, 2024-03-04 16:19:33.591
127,-99591.23726,-28988.46912,-13777.52588,-29568.98863,-8215.07075,-27042.01216,-34387.24242,-72345.75717,0.09,0.886,0.384,192,0,0,0,0,0,0,0,0,0,1709549374,0, 2024-03-04 16:19:33.591
128,-99597.96513,-29001.83547,-13772.31792,-29586.73591,-6274.872276,-27033.25028,-34332.81593,-72392.87465,0.09,0.886,0.384,192,0,0,0,0,0,0,0,0,0,1709549374,0, 2024-03-04 16:19:33.591
129,-99575.07695,-28986.16689,-13769.65806,-29577.92933,-6031.752352,-27043.53208,-34397.8148,-72400.07191,0.09,0.886,0.384,192,0,0,0,0,0,0,0,0,0,1709549374,0, 2024-03-04 16:19:33.591
130,-99553.77573,-28962.63051,-13772.7426,-29554.01296,-7776.306006,-27053.74683,-34491.69212,-72341.64445,0.09,0.886,0.384,192,0,0,0,0,0,0,0,0,0,1709549374,0, 2024-03-04 16:19:33.591
131,-99566.62799,-28965.11155,-13780.36455,-29554.57175,-9147.496122,-27056.13846,-34489.4346,-72330.0886,0.092,0.892,0.378,192,2,224,27,224,11,208,0,0,0,1709549374,0, 2024-03-04 16:19:33.591
132,-99601.4073,-28992.38068,-13790.55694,-29582.39968,-8236.707239,-27045.38727,-34395.15494,-72326.62407,0.092,0.892,0.378,192,0,0,0,0,0,0,0,0,0,1709549374,0, 2024-03-04 16:19:33.591
133,-99608.58221,-29005.14352,-13789.23819,-29601.01868,-6288.596247,-27036.31247,-34345.04233,-72337.62113,0.092,0.892,0.378,192,0,0,0,0,0,0,0,0,0,1709549374,0, 2024-03-04 16:19:33.591
134,-99578.2956,-28979.61783,-13783.00205,-29584.85837,-6037.36264,-27043.97911,-34400.49701,-72353.96026,0.092,0.892,0.378,192,0,0,0,0,0,0,0,0,0,1709549374,0, 2024-03-04 16:19:33.591
135,-99552.90402,-28952.2593,-13787.60651,-29561.5455,-7773.199114,-27064.14039,-34498.71057,-72359.54819,0.092,0.892,0.378,192,0,0,0,0,0,0,0,0,0,1709549374,0, 2024-03-04 16:19:33.591
136,-99571.07598,-28963.74809,-13803.56566,-29571.80495,-9149.597186,-27081.61945,-34502.64448,-72394.34986,0.092,0.892,0.378,192,0,0,0,0,0,0,0,0,0,1709549374,0, 2024-03-04 16:19:33.591
137,-99604.49184,-28993.49826,-13807.38781,-29599.25289,-8273.095879,-27073.66223,-34408.87891,-72406.3751,0.092,0.892,0.378,192,0,0,0,0,0,0,0,0,0,1709549374,0, 2024-03-04 16:19:33.591
138,-99606.81642,-29002.72954,-13797.17306,-29610.49582,-6307.148195,-27057.05488,-34354.72063,-72367.23719,0.092,0.892,0.378,192,0,0,0,0,0,0,0,0,0,1709549374,0, 2024-03-04 16:19:33.591
139,-99575.05459,-28979.46137,-13785.50545,-29588.83698,-6028.287831,-27057.72544,-34410.6447,-72361.13517,0.092,0.892,0.378,192,0,0,0,0,0,0,0,0,0,1709549374,0, 2024-03-04 16:19:33.591
140,-99554.04396,-28960.79766,-13789.93109,-29572.65432,-7737.995116,-27084.61458,-34507.4501,-72425.75406,0.092,0.892,0.378,192,0,0,0,0,0,0,0,0,0,1709549374,0, 2024-03-04 16:19:33.591
141,-99574.65226,-28973.20288,-13806.06905,-29583.85254,-9132.788674,-27101.28899,-34510.06526,-72464.71315,0.096,0.894,0.376,192,3,0,27,240,11,192,0,0,0,1709549374,0, 2024-03-04 16:19:33.591
142,-99604.11186,-28998.75092,-13808.25952,-29606.22664,-8274.213466,-27086.38037,-34413.93041,-72441.95908,0.096,0.894,0.376,192,0,0,0,0,0,0,0,0,0,1709549374,0, 2024-03-04 16:19:33.591
143,-99602.18961,-29002.81894,-13789.50641,-29608.77473,-6307.014085,-27057.18899,-34339.85672,-72392.44996,0.096,0.894,0.376,192,0,0,0,0,0,0,0,0,0,1709549374,0, 2024-03-04 16:19:33.591
144,-99573.57938,-28979.30491,-13772.45203,-29583.62902,-5993.03913,-27046.9966,-34389.23173,-72327.20522,0.096,0.894,0.376,192,0,0,0,0,0,0,0,0,0,1709549374,0, 2024-03-04 16:19:33.591
145,-99552.50168,-28957.4896,-13770.59683,-29557.54454,-7703.014636,-27060.16178,-34482.88554,-72309.99438,0.096,0.894,0.376,192,0,0,0,0,0,0,0,0,0,1709549374,0, 2024-03-04 16:19:33.591
146,-99569.33255,-28968.88899,-13783.76201,-29565.92644,-9140.231805,-27075.09274,-34479.93511,-72354.98844,0.096,0.894,0.376,192,0,0,0,0,0,0,0,0,0,1709549374,0, 2024-03-04 16:19:33.591
147,-99602.74841,-29001.12021,-13792.79212,-29595.20723,-8304.678894,-27067.24728,-34393.3668,-72387.1079,0.096,0.894,0.376,192,0,0,0,0,0,0,0,0,0,1709549374,0, 2024-03-04 16:19:33.591
148,-99605.98941,-29010.97733,-13779.67164,-29607.6348,-6339.312355,-27050.01408,-34335.78871,-72378.1672,0.096,0.894,0.376,192,0,0,0,0,0,0,0,0,0,1709549374,0, 2024-03-04 16:19:33.591
149,-99578.02738,-28989.72082,-13769.99334,-29590.53571,-5987.406491,-27050.66229,-34389.87993,-72372.08752,0.096,0.894,0.376,192,0,0,0,0,0,0,0,0,0,1709549374,0, 2024-03-04 16:19:33.591
150,-99553.39575,-28964.19513,-13770.35097,-29562.43957,-7688.19543,-27061.94992,-34481.61149,-72371.8193,0.096,0.894,0.376,192,0,0,0,0,0,0,0,0,0,1709549374,0, 2024-03-04 16:19:33.591
151,-99567.61146,-28969.64895,-13779.38107,-29562.21605,-9135.56029,-27069.4154,-34485.92537,-72398.12731,0.09,0.892,0.376,192,2,208,27,224,11,192,0,0,0,1709549374,0, 2024-03-04 16:19:33.591
152,-99607.95636,-29004.31651,-13792.00981,-29594.62608,-8317.844071,-27064.45331,-34393.09858,-72404.83283,0.09,0.892,0.376,192,0,0,0,0,0,0,0,0,0,1709549374,0, 2024-03-04 16:19:33.591
153,-99611.37618,-29013.61483,-13784.25375,-29602.96328,-6343.827408,-27040.69341,-34328.72556,-72337.50937,0.09,0.892,0.376,192,0,0,0,0,0,0,0,0,0,1709549374,0, 2024-03-04 16:19:33.591
154,-99581.73777,-28987.39624,-13771.4462,-29576.09648,-5984.746633,-27029.13756,-34392.1151,-72301.63482,0.09,0.892,0.376,192,0,0,0,0,0,0,0,0,0,1709549374,0, 2024-03-04 16:19:33.591
155,-99566.38212,-28969.35838,-13781.66095,-29561.21022,-7671.521028,-27055.60202,-34495.64838,-72351.72508,0.09,0.892,0.376,192,0,0,0,0,0,0,0,0,0,1709549374,0, 2024-03-04 16:19:33.591
156,-99580.8437,-28977.89675,-13795.36257,-29570.55325,-9106.145395,-27071.91879,-34497.28006,-72362.02924,0.09,0.892,0.376,192,0,0,0,0,0,0,0,0,0,1709549374,0, 2024-03-04 16:19:33.591
157,-99612.71728,-29005.67997,-13805.37615,-29599.40935,-8305.483556,-27064.43096,-34392.22686,-72346.56183,0.09,0.892,0.376,192,0,0,0,0,0,0,0,0,0,1709549374,0, 2024-03-04 16:19:33.591
158,-99618.7299,-29017.34758,-13801.79987,-29618.76596,-6345.01205,-27055.44556,-34336.81689,-72367.66188,0.09,0.892,0.376,192,0,0,0,0,0,0,0,0,0,1709549374,0, 2024-03-04 16:19:33.591
159,-99591.93016,-28998.30389,-13797.30717,-29608.46181,-5978.979883,-27065.63795,-34404.16269,-72400.40718,0.09,0.892,0.376,192,0,0,0,0,0,0,0,0,0,1709549374,0, 2024-03-04 16:19:33.591
160,-99568.17026,-28971.97354,-13797.46363,-29584.03135,-7663.563807,-27082.06649,-34493.81554,-72392.91935,0.09,0.892,0.376,192,0,0,0,0,0,0,0,0,0,1709549374,0, 2024-03-04 16:19:33.591
161,-99581.82717,-28979.12609,-13809.9359,-29587.25,-9136.32025,-27094.18113,-34499.51524,-72385.09624,0.092,0.89,0.374,192,2,224,27,208,11,176,0,0,0,1709549374,0, 2024-03-04 16:19:33.591
162,-99613.36548,-29005.00941,-13815.27797,-29612.59688,-8354.85856,-27086.35802,-34414.22098,-72397.65792,0.092,0.89,0.374,192,0,0,0,0,0,0,0,0,0,1709549374,0, 2024-03-04 16:19:33.591
163,-99613.70076,-29012.72077,-13802.33631,-29623.7057,-6375.142202,-27072.58935,-34349.95971,-72440.39445,0.092,0.89,0.374,192,0,0,0,0,0,0,0,0,0,1709549374,0, 2024-03-04 16:19:33.591
164,-99581.38014,-28989.07262,-13785.61721,-29600.54929,-5982.243238,-27070.17536,-34390.75165,-72440.19329,0.092,0.89,0.374,192,0,0,0,0,0,0,0,0,0,1709549374,0, 2024-03-04 16:19:33.591
165,-99557.10614,-28959.97065,-13778.75522,-29564.56298,-7630.125598,-27071.02472,-34487.19942,-72360.17404,0.092,0.89,0.374,192,0,0,0,0,0,0,0,0,0,1709549374,0, 2024-03-04 16:19:33.591
166,-99565.01866,-28958.83071,-13779.96222,-29556.02462,-9107.151223,-27068.92366,-34489.45695,-72345.93598,0.092,0.89,0.374,192,0,0,0,0,0,0,0,0,0,1709549374,0, 2024-03-04 16:19:33.591
167,-99595.5735,-28988.71499,-13786.8689,-29587.02649,-8347.951871,-27064.58742,-34396.45134,-72384.35863,0.092,0.89,0.374,192,0,0,0,0,0,0,0,0,0,1709549374,0, 2024-03-04 16:19:33.591
168,-99599.64151,-29002.77424,-13778.41995,-29606.89719,-6379.724309,-27057.99366,-34339.00736,-72413.97469,0.092,0.89,0.374,192,0,0,0,0,0,0,0,0,0,1709549374,0, 2024-03-04 16:19:33.591
169,-99571.63478,-28981.58479,-13764.83008,-29587.94291,-5948.715621,-27057.54662,-34382.03447,-72424.81529,0.092,0.89,0.374,192,0,0,0,0,0,0,0,0,0,1709549374,0, 2024-03-04 16:19:33.591
170,-99548.836,-28957.55666,-13761.05264,-29559.13151,-7590.294789,-27069.32599,-34470.12269,-72409.05731,0.092,0.89,0.374,192,0,0,0,0,0,0,0,0,0,1709549374,0, 2024-03-04 16:19:33.591
171,-99558.67077,-28959.68008,-13768.07109,-29555.21995,-9078.853915,-27070.48828,-34477.09644,-72381.92229,0.094,0.892,0.372,192,2,240,27,224,11,160,0,0,0,1709549374,0, 2024-03-04 16:19:33.591
172,-99591.34902,-28989.72082,-13776.69886,-29583.56197,-8347.54954,-27063.20161,-34388.60588,-72390.03597,0.094,0.892,0.372,192,0,0,0,0,0,0,0,0,0,1709549374,0, 2024-03-04 16:19:33.591
173,-99595.64055,-29000.78493,-13766.32765,-29595.09547,-6365.218027,-27044.69437,-34322.80234,-72382.1011,0.094,0.892,0.372,192,0,0,0,0,0,0,0,0,0,1709549374,0, 2024-03-04 16:19:33.591
174,-99571.59007,-28982.03182,-13756.0235,-29580.79035,-5913.153996,-27049.47764,-34377.13943,-72386.72792,0.094,0.892,0.372,192,0,0,0,0,0,0,0,0,0,1709549374,0, 2024-03-04 16:19:33.591
175,-99548.54543,-28958.42838,-13761.00794,-29560.78554,-7558.756478,-27072.16466,-34476.87292,-72428.27981,0.094,0.892,0.372,192,0,0,0,0,0,0,0,0,0,1709549374,0, 2024-03-04 16:19:33.591
176,-99558.06727,-28959.07658,-13772.60849,-29557.25396,-9080.373833,-27075.53978,-34482.23734,-72420.07672,0.094,0.892,0.372,192,0,0,0,0,0,0,0,0,0,1709549374,0, 2024-03-04 16:19:33.591
177,-99587.37041,-28981.20481,-13772.11675,-29571.71554,-8362.279339,-27047.22012,-34385.87897,-72308.60857,0.094,0.892,0.372,192,0,0,0,0,0,0,0,0,0,1709549374,0, 2024-03-04 16:19:33.592
178,-99596.62403,-28992.40303,-13764.83008,-29585.32775,-6366.335614,-27028.53406,-34324.1658,-72278.54547,0.094,0.892,0.372,192,0,0,0,0,0,0,0,0,0,1709549374,0, 2024-03-04 16:19:33.592
179,-99576.55216,-28977.2262,-13762.21493,-29578.30931,-5906.716693,-27038.32412,-34380.60395,-72336.99528,0.094,0.892,0.372,192,0,0,0,0,0,0,0,0,0,1709549374,0, 2024-03-04 16:19:33.592
180,-99557.46377,-28958.13781,-13772.22851,-29563.84773,-7551.514512,-27064.67683,-34475.80003,-72366.87957,0.094,0.892,0.372,192,0,0,0,0,0,0,0,0,0,1709549374,0, 2024-03-04 16:19:33.592
181,-99569.77958,-28961.06588,-13782.53267,-29565.92644,-9075.411746,-27073.03638,-34483.24317,-72358.36355,0.09,0.89,0.374,192,2,208,27,208,11,176,0,0,0,1709549374,0, 2024-03-04 16:19:33.592
182,-99613.32078,-28997.29806,-13800.92815,-29604.70672,-8376.942083,-27075.40567,-34401.39108,-72378.99421,0.09,0.89,0.374,192,0,0,0,0,0,0,0,0,0,1709549374,0, 2024-03-04 16:19:33.592
183,-99624.54136,-29011.08909,-13803.67742,-29630.36652,-6413.833071,-27073.34931,-34345.62347,-72432.30312,0.09,0.89,0.374,192,0,0,0,0,0,0,0,0,0,1709549374,0, 2024-03-04 16:19:33.592
184,-99598.41217,-28990.54783,-13800.27995,-29620.30823,-5936.377458,-27080.16659,-34400.02762,-72454.81133,0.09,0.89,0.374,192,0,0,0,0,0,0,0,0,0,1709549374,0, 2024-03-04 16:19:33.592
185,-99568.63964,-28960.46239,-13795.18375,-29586.11007,-7552.565044,-27084.99456,-34495.04489,-72401.39066,0.09,0.89,0.374,192,0,0,0,0,0,0,0,0,0,1709549374,0, 2024-03-04 16:19:33.592
186,-99570.22662,-28953.91333,-13791.83099,-29567.91575,-9078.563342,-27073.8634,-34487.75822,-72332.0779,0.09,0.89,0.374,192,0,0,0,0,0,0,0,0,0,1709549374,0, 2024-03-04 16:19:33.592
187,-99598.59098,-28979.61783,-13793.35091,-29592.56972,-8412.39195,-27068.27546,-34397.68069,-72369.38296,0.09,0.89,0.374,192,0,0,0,0,0,0,0,0,0,1709549374,0, 2024-03-04 16:19:33.592
188,-99604.67066,-28994.50409,-13786.31011,-29613.62506,-6437.168293,-27063.53689,-34334.93934,-72421.19431,0.09,0.89,0.374,192,0,0,0,0,0,0,0,0,0,1709549374,0, 2024-03-04 16:19:33.592
189,-99576.9992,-28973.15818,-13773.03317,-29591.31802,-5928.71081,-27058.01601,-34383.7332,-72400.60835,0.09,0.89,0.374,192,0,0,0,0,0,0,0,0,0,1709549374,0, 2024-03-04 16:19:33.592
190,-99550.06534,-28942.29042,-13762.79608,-29552.71656,-7531.129722,-27062.06167,-34470.39091,-72367.90775,0.09,0.89,0.374,192,0,0,0,0,0,0,0,0,0,1709549374,0, 2024-03-04 16:19:33.592
191,-99564.59398,-28948.61596,-13774.6425,-29551.28605,-9075.523505,-27072.54464,-34478.16932,-72391.15356,0.09,0.89,0.376,192,2,208,27,208,11,192,0,0,0,1709549374,0, 2024-03-04 16:19:33.592
192,-99599.23918,-28980.84718,-13785.66191,-29583.45021,-8417.376389,-27071.62822,-34396.16077,-72435.07474,0.09,0.89,0.376,192,0,0,0,0,0,0,0,0,0,1709549374,0, 2024-03-04 16:19:33.592
193,-99605.16239,-28992.53714,-13776.36358,-29598.47058,-6433.010868,-27053.97034,-34332.59241,-72425.70936,0.09,0.89,0.376,192,0,0,0,0,0,0,0,0,0,1709549374,0, 2024-03-04 16:19:33.592
194,-99580.1955,-28971.14652,-13763.13135,-29577.99638,-5906.403769,-27045.58844,-34371.14917,-72395.5345,0.09,0.89,0.376,192,0,0,0,0,0,0,0,0,0,1709549374,0, 2024-03-04 16:19:33.592
195,-99557.01674,-28945.53142,-13756.62699,-29547.35214,-7498.540878,-27052.20456,-34457.91864,-72366.14196,0.09,0.89,0.376,192,0,0,0,0,0,0,0,0,0,1709549374,0, 2024-03-04 16:19:33.592
196,-99564.03518,-28945.62083,-13758.39278,-29539.97607,-9057.150371,-27052.45042,-34465.58529,-72346.87476,0.09,0.89,0.376,192,0,0,0,0,0,0,0,0,0,1709549374,0, 2024-03-04 16:19:33.592
197,-99595.77466,-28974.16401,-13765.6124,-29566.37348,-8439.795189,-27044.62731,-34376.6924,-72373.69685,0.09,0.89,0.376,192,0,0,0,0,0,0,0,0,0,1709549374,0, 2024-03-04 16:19:33.592
198,-99603.73188,-28988.04444,-13762.37139,-29587.71939,-6462.515171,-27037.69827,-34313.34756,-72429.66562,0.09,0.89,0.376,192,0,0,0,0,0,0,0,0,0,1709549374,0, 2024-03-04 16:19:33.592
199,-99580.66488,-28973.49345,-13756.69405,-29575.58239,-5899.742949,-27040.38048,-34363.28135,-72410.68899,0.09,0.89,0.376,192,0,0,0,0,0,0,0,0,0,1709549374,0, 2024-03-04 16:19:33.592
200,-99553.9769,-28946.31373,-13750.01088,-29544.06643,-7473.998663,-27047.71185,-34451.95072,-72355.1449,0.09,0.89,0.376,192,0,0,0,0,0,0,0,0,0,1709549374,0, 2024-03-04 16:19:33.592
201,-99562.17999,-28945.03968,-13758.6163,-29540.49016,-9050.668365,-27053.90329,-34462.27723,-72350.78631,0.094,0.894,0.368,192,2,240,27,240,11,128,0,0,0,1709549374,0, 2024-03-04 16:19:33.592
202,-99594.23239,-28971.70531,-13768.45107,-29565.3453,-8446.746581,-27042.23568,-34376.24536,-72336.30238,0.094,0.894,0.368,192,0,0,0,0,0,0,0,0,0,1709549374,0, 2024-03-04 16:19:33.592
203,-99605.69884,-28988.8491,-13765.38888,-29583.56197,-6478.586075,-27025.49422,-34311.67117,-72300.83016,0.094,0.894,0.368,192,0,0,0,0,0,0,0,0,0,1709549374,0, 2024-03-04 16:19:33.592
204,-99585.4258,-28975.99685,-13762.55021,-29577.43759,-5912.282278,-27033.5632,-34363.70604,-72334.626,0.094,0.894,0.368,192,0,0,0,0,0,0,0,0,0,1709549374,0, 2024-03-04 16:19:33.592
205,-99562.76114,-28953.35453,-13769.5016,-29560.38321,-7485.576866,-27059.24536,-34468.44631,-72380.87176,0.094,0.894,0.368,192,0,0,0,0,0,0,0,0,0,1709549374,0, 2024-03-04 16:19:33.592
206,-99571.32185,-28955.99204,-13785.63956,-29568.54159,-9070.069679,-27081.28418,-34488.02644,-72413.59471,0.094,0.894,0.368,192,0,0,0,0,0,0,0,0,0,1709549374,0, 2024-03-04 16:19:33.592
207,-99600.91556,-28979.68489,-13793.77559,-29593.26262,-8465.253826,-27070.28712,-34396.42899,-72363.07977,0.094,0.894,0.368,192,0,0,0,0,0,0,0,0,0,1709549374,0, 2024-03-04 16:19:33.592
208,-99607.55403,-28987.73151,-13783.91847,-29603.835,-6489.851354,-27045.02965,-34325.70807,-72315.13528,0.094,0.894,0.368,192,0,0,0,0,0,0,0,0,0,1709549374,0, 2024-03-04 16:19:33.592
209,-99580.79899,-28965.31272,-13773.88254,-29587.18295,-5901.776958,-27043.30856,-34369.53984,-72324.3442,0.094,0.894,0.368,192,0,0,0,0,0,0,0,0,0,1709549374,0, 2024-03-04 16:19:33.592
210,-99554.40158,-28937.44009,-13776.76592,-29560.07028,-7462.509866,-27060.31824,-34461.83019,-72354.25083,0.094,0.894,0.368,192,0,0,0,0,0,0,0,0,0,1709549374,0, 2024-03-04 16:19:34.071
211,-99569.73488,-28944.59265,-13796.43545,-29565.25589,-9066.359289,-27078.26669,-34482.95259,-72417.43921,0.098,0.896,0.372,192,3,16,28,0,11,160,0,0,0,1709549374,0, 2024-03-04 16:19:34.071
212,-99605.16239,-28974.99102,-13809.8912,-29595.18487,-8511.767806,-27073.19284,-34402.59807,-72450.27393,0.098,0.896,0.372,192,0,0,0,0,0,0,0,0,0,1709549374,0, 2024-03-04 16:19:34.071
213,-99613.5443,-28988.58088,-13797.86596,-29609.40058,-6537.259404,-27054.86441,-34332.07832,-72416.0087,0.098,0.896,0.372,192,0,0,0,0,0,0,0,0,0,1709549374,0, 2024-03-04 16:19:34.071
214,-99588.13037,-28969.69366,-13782.73383,-29591.27332,-5919.367781,-27050.2376,-34372.53498,-72392.47231,0.098,0.896,0.372,192,0,0,0,0,0,0,0,0,0,1709549374,0, 2024-03-04 16:19:34.071
215,-99563.20817,-28944.43619,-13779.60459,-29563.19953,-7438.973479,-27061.36877,-34465.0712,-72369.38296,0.098,0.896,0.372,192,0,0,0,0,0,0,0,0,0,1709549374,0, 2024-03-04 16:19:34.071
216,-99570.80776,-28945.2185,-13784.32081,-29554.41529,-9051.025993,-27062.19579,-34477.31995,-72337.08469,0.098,0.896,0.372,192,0,0,0,0,0,0,0,0,0,1709549374,0, 2024-03-04 16:19:34.071
217,-99604.87182,-28976.91327,-13793.88735,-29582.55614,-8513.421835,-27055.91495,-34393.72443,-72353.66969,0.098,0.896,0.372,192,0,0,0,0,0,0,0,0,0,1709549374,0, 2024-03-04 16:19:34.071
218,-99609.6998,-28988.46912,-13780.90099,-29595.78837,-6535.985355,-27037.49711,-34308.40782,-72355.54723,0.098,0.896,0.372,192,0,0,0,0,0,0,0,0,0,1709549374,0, 2024-03-04 16:19:34.071
219,-99585.93989,-28970.67713,-13769.61336,-29579.04691,-5879.805193,-27034.45727,-34353.46894,-72365.71728,0.098,0.896,0.372,192,0,0,0,0,0,0,0,0,0,1709549374,0, 2024-03-04 16:19:34.071
220,-99564.41516,-28947.36426,-13767.69111,-29551.64368,-7396.505165,-27049.03061,-34446.36279,-72380.49178,0.098,0.896,0.372,192,0,0,0,0,0,0,0,0,0,1709549374,0, 2024-03-04 16:19:34.071
221,-99575.7475,-28948.16893,-13775.06718,-29546.12279,-9021.186414,-27055.49026,-34461.94195,-72374.47916,0.098,0.894,0.372,192,3,16,27,240,11,160,0,0,0,1709549374,0, 2024-03-04 16:19:34.071
222,-99609.7445,-28976.84622,-13780.63277,-29570.15092,-8503.408254,-27044.26969,-34375.68657,-72363.37034,0.098,0.894,0.372,192,0,0,0,0,0,0,0,0,0,1709549374,0, 2024-03-04 16:19:34.071
223,-99618.43933,-28992.91712,-13773.68138,-29589.1052,-6528.2293,-27029.42813,-34305.32328,-72392.9864,0.098,0.894,0.372,192,0,0,0,0,0,0,0,0,0,1709549374,0, 2024-03-04 16:19:34.071
224,-99595.41703,-28974.49928,-13766.41706,-29577.63875,-5862.571998,-27029.85281,-34350.51851,-72417.77449,0.098,0.894,0.372,192,0,0,0,0,0,0,0,0,0,1709549374,0, 2024-03-04 16:19:34.071
225,-99566.94091,-28943.09508,-13753.63186,-29542.03243,-7370.241865,-27030.90334,-34438.2491,-72337.37526,0.098,0.894,0.372,192,0,0,0,0,0,0,0,0,0,1709549374,0, 2024-03-04 16:19:34.071
226,-99579.92728,-28947.1184,-13765.25477,-29540.93719,-9016.246678,-27041.09574,-34455.28113,-72310.77669,0.098,0.894,0.372,192,0,0,0,0,0,0,0,0,0,1709549374,0, 2024-03-04 16:19:34.071
227,-99618.97577,-28981.18245,-13782.84559,-29575.04595,-8524.620059,-27041.14044,-34374.56898,-72314.35297,0.098,0.894,0.372,192,0,0,0,0,0,0,0,0,0,1709549374,0, 2024-03-04 16:19:34.072
228,-99630.46457,-28999.06385,-13781.95152,-29602.29273,-6558.851189,-27036.58069,-34302.26109,-72349.3558,0.098,0.894,0.372,192,0,0,0,0,0,0,0,0,0,1709549374,0, 2024-03-04 16:19:34.072
229,-99602.48019,-28981.0707,-13776.16242,-29595.47545,-5875.066623,-27042.83917,-34343.07538,-72362.7892,0.098,0.894,0.372,192,0,0,0,0,0,0,0,0,0,1709549374,0, 2024-03-04 16:19:34.072
230,-99576.4404,-28955.81322,-13780.67747,-29575.56004,-7373.594627,-27065.81677,-34446.18397,-72365.27024,0.098,0.894,0.372,192,0,0,0,0,0,0,0,0,0,1709549374,0, 2024-03-04 16:19:34.072
231,-99587.54922,-28952.97455,-13791.22749,-29572.58726,-9036.162083,-27078.55726,-34456.71164,-72387.97961,0.092,0.89,0.378,192,2,224,27,208,11,208,0,0,0,1709549374,0, 2024-03-04 16:19:34.072
232,-99622.08267,-28978.07556,-13800.99521,-29598.18001,-8562.193342,-27070.89061,-34374.56898,-72405.43633,0.092,0.89,0.378,192,0,0,0,0,0,0,0,0,0,1709549374,0, 2024-03-04 16:19:34.072
233,-99629.68226,-28988.8491,-13793.10504,-29615.07793,-6590.992998,-27054.75265,-34308.7878,-72394.77454,0.092,0.89,0.378,192,0,0,0,0,0,0,0,0,0,1709549374,0, 2024-03-04 16:19:34.072
234,-99606.05646,-28969.51484,-13785.79602,-29601.53277,-5884.923742,-27054.52914,-34355.6147,-72364.59969,0.092,0.89,0.378,192,0,0,0,0,0,0,0,0,0,1709549374,0, 2024-03-04 16:19:34.072
235,-99578.9438,-28940.56933,-13778.93404,-29572.02847,-7366.620882,-27068.78955,-34440.0596,-72378.83775,0.092,0.89,0.378,192,0,0,0,0,0,0,0,0,0,1709549374,0, 2024-03-04 16:19:34.072
236,-99593.53949,-28944.30208,-13790.98163,-29571.33556,-9023.846271,-27084.41342,-34457.62807,-72432.6384,0.092,0.89,0.378,192,0,0,0,0,0,0,0,0,0,1709549374,0, 2024-03-04 16:19:34.072
237,-99624.76487,-28966.56441,-13795.8096,-29586.71356,-8560.852237,-27060.4747,-34373.02671,-72361.4928,0.092,0.89,0.378,192,0,0,0,0,0,0,0,0,0,1709549374,0, 2024-03-04 16:19:34.072
238,-99630.30811,-28978.29908,-13789.50641,-29598.55999,-6594.524574,-27036.60304,-34302.26109,-72326.53467,0.092,0.89,0.378,192,0,0,0,0,0,0,0,0,0,1709549374,0, 2024-03-04 16:19:34.072
239,-99596.44521,-28950.85114,-13769.92628,-29573.63779,-5875.424251,-27025.13659,-34335.43108,-72332.10025,0.092,0.89,0.378,192,0,0,0,0,0,0,0,0,0,1709549374,0, 2024-03-04 16:19:34.072
240,-99573.2441,-28924.6996,-13765.88062,-29543.95468,-7350.393516,-27035.79838,-34427.98965,-72323.71835,0.092,0.89,0.378,192,0,0,0,0,0,0,0,0,0,1709549374,0, 2024-03-04 16:19:34.072
241,-99585.96225,-28928.32058,-13774.39663,-29540.49016,-9020.426455,-27048.11419,-34448.19563,-72338.64931,0.09,0.894,0.38,192,2,208,27,240,11,224,0,0,0,1709549374,0, 2024-03-04 16:19:34.072
242,-99619.19929,-28955.43324,-13784.25375,-29566.23936,-8579.404185,-27042.39214,-34361.3591,-72369.07004,0.09,0.894,0.38,192,0,0,0,0,0,0,0,0,0,1709549374,0, 2024-03-04 16:19:34.072
243,-99633.05737,-28972.88996,-13780.63277,-29585.05953,-6598.83846,-27025.33776,-34287.17366,-72360.17404,0.09,0.894,0.38,192,0,0,0,0,0,0,0,0,0,1709549374,0, 2024-03-04 16:19:34.072
244,-99607.107,-28953.22042,-13766.9535,-29567.53577,-5846.188169,-27017.13467,-34321.70711,-72338.38109,0.09,0.894,0.38,192,0,0,0,0,0,0,0,0,0,1709549374,0, 2024-03-04 16:19:34.072
245,-99583.30239,-28929.72874,-13765.14301,-29542.83709,-7298.828041,-27034.45727,-34419.6301,-72381.13998,0.09,0.894,0.38,192,0,0,0,0,0,0,0,0,0,1709549374,0, 2024-03-04 16:19:34.072
246,-99595.95348,-28934.3779,-13780.31984,-29543.86527,-8990.229248,-27050.03644,-34440.81955,-72427.4975,0.09,0.894,0.38,192,0,0,0,0,0,0,0,0,0,1709549374,0, 2024-03-04 16:19:34.072
247,-99627.55884,-28963.90456,-13788.18766,-29568.69806,-8585.148583,-27039.44171,-34359.34745,-72385.81149,0.09,0.894,0.38,192,0,0,0,0,0,0,0,0,0,1709549374,0, 2024-03-04 16:19:34.072
248,-99636.27602,-28977.67323,-13775.2907,-29579.11397,-6624.542966,-27009.98211,-34278.32237,-72299.15378,0.09,0.894,0.38,192,0,0,0,0,0,0,0,0,0,1709549374,0, 2024-03-04 16:19:34.072
249,-99617.41115,-28961.95995,-13765.41123,-29569.41331,-5844.288271,-27009.60213,-34314.15222,-72323.29366,0.09,0.894,0.38,192,0,0,0,0,0,0,0,0,0,1709549374,0, 2024-03-04 16:19:34.072
250,-99595.39468,-28938.20005,-13768.96516,-29548.64854,-7278.934989,-27028.93639,-34409.48241,-72335.74359,0.09,0.894,0.38,192,0,0,0,0,0,0,0,0,0,1709549374,0, 2024-03-04 16:19:34.072
251,-99606.01176,-28943.56447,-13785.84072,-29554.41529,-8994.051396,-27050.2376,-34434.69518,-72364.7338,0.09,0.894,0.38,192,0,0,0,0,0,0,0,0,0,1709549374,0, 2024-03-04 16:19:34.072
252,-99637.12539,-28971.05711,-13796.3684,-29584.88072,-8618.877365,-27050.1929,-34355.21237,-72375.73086,0.09,0.894,0.368,192,2,208,27,240,11,128,0,0,0,1709549374,0, 2024-03-04 16:19:34.072
253,-99646.02138,-28983.88701,-13791.71923,-29600.41518,-6655.991871,-27030.03163,-34282.63626,-72313.23538,0.09,0.894,0.368,192,0,0,0,0,0,0,0,0,0,1709549374,0, 2024-03-04 16:19:34.072
254,-99622.03796,-28965.60329,-13784.38786,-29588.65816,-5857.185228,-27030.88099,-34321.68476,-72292.31415,0.09,0.894,0.368,192,0,0,0,0,0,0,0,0,0,1709549374,0, 2024-03-04 16:19:34.072
255,-99595.86407,-28938.33416,-13789.66287,-29567.69223,-7286.579285,-27053.90329,-34420.68063,-72342.44911,0.09,0.894,0.368,192,0,0,0,0,0,0,0,0,0,1709549374,0, 2024-03-04 16:19:34.072
0,-99603.15074,-28938.2671,-13800.65993,-29568.13926,-9009.161175,-27070.6671,-34441.64657,-72383.41986,0.09,0.894,0.368,192,0,0,0,0,0,0,0,0,0,1709549374,0, 2024-03-04 16:19:34.072
1,-99638.46649,-28968.66548,-13811.16525,-29598.47058,-8648.091095,-27070.53299,-34364.5107,-72381.76583,0.09,0.894,0.368,192,0,0,0,0,0,0,0,0,0,1709549374,0, 2024-03-04 16:19:34.072
2,-99652.36928,-28985.63045,-13806.24787,-29620.35294,-6679.528258,-27059.62533,-34292.18045,-72387.71139,0.09,0.894,0.368,192,0,0,0,0,0,0,0,0,0,1709549374,0, 2024-03-04 16:19:34.072
3,-99624.78723,-28962.5411,-13793.48502,-29603.16445,-5856.514675,-27053.74683,-34327.85384,-72386.32558,0.09,0.894,0.368,192,0,0,0,0,0,0,0,0,0,1709549374,0, 2024-03-04 16:19:34.072
4,-99588.10801,-28924.18551,-13783.0244,-29567.04403,-7265.859218,-27059.67004,-34421.70881,-72386.39264,0.09,0.894,0.368,192,0,0,0,0,0,0,0,0,0,1709549374,0, 2024-03-04 16:19:34.072
5,-99589.85145,-28916.07182,-13788.34412,-29554.28118,-8986.02712,-27063.38043,-34448.24033,-72380.22356,0.09,0.894,0.368,192,0,0,0,0,0,0,0,0,0,1709549374,0, 2024-03-04 16:19:34.072
6,-99621.97091,-28942.24571,-13794.4685,-29575.33652,-8636.669354,-27054.14916,-34365.8518,-72362.36451,0.098,0.89,0.37,192,3,16,27,208,11,144,0,0,0,1709549374,0, 2024-03-04 16:19:34.072
7,-99629.19052,-28953.42159,-13780.23044,-29585.08189,-6656.774182,-27029.45048,-34286.59252,-72327.69696,0.098,0.89,0.37,192,0,0,0,0,0,0,0,0,0,1709549374,0, 2024-03-04 16:19:34.072
8,-99606.68231,-28934.44496,-13771.55796,-29570.24033,-5817.980268,-27025.15894,-34328.54674,-72344.97486,0.098,0.89,0.37,192,0,0,0,0,0,0,0,0,0,1709549374,0, 2024-03-04 16:19:34.072
9,-99578.09443,-28904.80654,-13769.92628,-29542.52416,-7215.187814,-27038.52529,-34413.7963,-72368.42184,0.098,0.89,0.37,192,0,0,0,0,0,0,0,0,0,1709549374,0, 2024-03-04 16:19:34.072
10,-99584.50938,-28904.98536,-13782.59972,-29540.04312,-8942.396515,-27050.8411,-34440.61839,-72389.7454,0.098,0.89,0.37,192,0,0,0,0,0,0,0,0,0,1709549374,0, 2024-03-04 16:19:34.072
11,-99621.74739,-28936.59072,-13797.44128,-29568.65335,-8621.894851,-27046.3484,-34365.60593,-72387.26436,0.098,0.89,0.37,192,0,0,0,0,0,0,0,0,0,1709549374,0, 2024-03-04 16:19:34.072
12,-99630.48692,-28950.26999,-13788.81351,-29585.73009,-6669.939359,-27028.33289,-34285.74315,-72390.14773,0.098,0.89,0.37,192,0,0,0,0,0,0,0,0,0,1709549374,0, 2024-03-04 16:19:34.072
13,-99611.71146,-28937.21657,-13781.83976,-29579.22573,-5814.001657,-27030.83629,-34323.85288,-72412.54418,0.098,0.89,0.37,192,0,0,0,0,0,0,0,0,0,1709549374,0, 2024-03-04 16:19:34.072
14,-99591.68429,-28912.58495,-13780.61042,-29553.18595,-7193.797194,-27041.43101,-34419.0266,-72389.49953,0.098,0.89,0.37,192,0,0,0,0,0,0,0,0,0,1709549374,0, 2024-03-04 16:19:34.072
15,-99594.76883,-28905.09712,-13783.73966,-29537.02563,-8936.585061,-27038.74881,-34437.24328,-72354.40729,0.098,0.89,0.37,192,0,0,0,0,0,0,0,0,0,1709549374,0, 2024-03-04 16:19:34.072
16,-99627.17886,-28929.32641,-13792.90388,-29556.94104,-8634.590642,-27026.20948,-34351.59139,-72339.38692,0.096,0.896,0.376,192,3,0,28,0,11,192,0,0,0,1709549374,0, 2024-03-04 16:19:34.072
17,-99640.27699,-28946.20197,-13787.29359,-29576.69998,-6672.554514,-27009.42332,-34274.63433,-72345.17602,0.096,0.896,0.376,192,0,0,0,0,0,0,0,0,0,1709549374,0, 2024-03-04 16:19:34.072
18,-99613.16432,-28925.75013,-13776.27418,-29561.72431,-5797.327256,-27000.99671,-34303.6022,-72344.17019,0.096,0.896,0.376,192,0,0,0,0,0,0,0,0,0,1709549374,0, 2024-03-04 16:19:34.072
19,-99590.81257,-28904.67243,-13783.20322,-29544.35701,-7166.550418,-27023.95195,-34409.43771,-72356.01662,0.096,0.896,0.376,192,0,0,0,0,0,0,0,0,0,1709549374,0, 2024-03-04 16:19:34.072
20,-99604.22362,-28907.77932,-13802.49277,-29545.25108,-8923.799863,-27041.16279,-34446.38514,-72323.38307,0.096,0.896,0.376,192,0,0,0,0,0,0,0,0,0,1709549374,0, 2024-03-04 16:19:34.072
21,-99634.19731,-28931.06984,-13813.10985,-29569.65918,-8654.729564,-27034.72549,-34363.88485,-72317.59397,0.096,0.896,0.376,192,0,0,0,0,0,0,0,0,0,1709549374,0, 2024-03-04 16:19:34.072
22,-99645.90962,-28946.64901,-13814.42861,-29595.4978,-6717.034485,-27028.4223,-34291.97929,-72366.27607,0.096,0.896,0.376,192,0,0,0,0,0,0,0,0,0,1709549374,0, 2024-03-04 16:19:34.072
23,-99624.92134,-28931.7851,-13810.22648,-29589.97692,-5830.251375,-27032.28915,-34332.95004,-72369.56178,0.096,0.896,0.376,192,0,0,0,0,0,0,0,0,0,1709549374,0, 2024-03-04 16:19:34.072
24,-99599.61916,-28907.19818,-13813.93687,-29570.64266,-7183.35893,-27053.00922,-34438.2491,-72371.34992,0.096,0.896,0.376,192,0,0,0,0,0,0,0,0,0,1709549374,0, 2024-03-04 16:19:34.072
25,-99606.68231,-28909.3216,-13828.95724,-29571.04499,-8940.966003,-27073.2599,-34476.44824,-72374.21094,0.096,0.896,0.376,192,0,0,0,0,0,0,0,0,0,1709549374,0, 2024-03-04 16:19:34.072
26,-99633.54911,-28935.56254,-13834.41106,-29592.50266,-8671.627482,-27065.50384,-34400.65347,-72350.27222,0.094,0.892,0.378,192,2,240,27,224,11,208,0,0,0,1709549374,0, 2024-03-04 16:19:34.072
27,-99637.863,-28946.44784,-13819.61421,-29605.46668,-6724.164691,-27044.38144,-34312.22997,-72343.76786,0.094,0.892,0.378,192,0,0,0,0,0,0,0,0,0,1709549374,0, 2024-03-04 16:19:34.072
28,-99615.15362,-28930.77927,-13807.76779,-29596.34716,-5809.263087,-27046.97425,-34343.18713,-72371.1264,0.094,0.892,0.378,192,0,0,0,0,0,0,0,0,0,1709549374,0, 2024-03-04 16:19:34.072
29,-99582.52008,-28898.25748,-13798.38005,-29562.46192,-7151.46299,-27055.02088,-34435.63395,-72351.61333,0.094,0.892,0.378,192,0,0,0,0,0,0,0,0,0,1709549374,0, 2024-03-04 16:19:34.072
30,-99584.04,-28893.60832,-13802.47042,-29553.74474,-8919.843605,-27068.72249,-34471.97789,-72372.19928,0.094,0.892,0.378,192,0,0,0,0,0,0,0,0,0,1709549374,0, 2024-03-04 16:19:34.072
31,-99611.91262,-28917.81526,-13809.62298,-29574.9789,-8676.880142,-27063.04515,-34386.46011,-72377.80957,0.094,0.892,0.378,192,0,0,0,0,0,0,0,0,0,1709549374,0, 2024-03-04 16:19:34.072
32,-99625.97187,-28936.50132,-13805.73378,-29595.76602,-6740.190892,-27050.99756,-34310.95592,-72398.0379,0.094,0.892,0.378,192,0,0,0,0,0,0,0,0,0,1709549374,0, 2024-03-04 16:19:34.072
33,-99605.29651,-28922.30796,-13798.71533,-29588.21113,-5796.276724,-27053.54566,-34341.60016,-72466.94833,0.094,0.892,0.378,192,0,0,0,0,0,0,0,0,0,1709549374,0, 2024-03-04 16:19:34.072
34,-99577.46858,-28894.25652,-13794.91553,-29558.77388,-7111.810996,-27061.70405,-34433.82346,-72459.14757,0.094,0.892,0.378,192,0,0,0,0,0,0,0,0,0,1709549374,0, 2024-03-04 16:19:34.072
35,-99581.26838,-28888.78034,-13796.77073,-29539.48433,-8889.400529,-27053.97034,-34458.14216,-72365.49376,0.094,0.892,0.378,192,0,0,0,0,0,0,0,0,0,1709549374,0, 2024-03-04 16:19:34.072
36,-99615.28773,-28917.97172,-13803.29744,-29562.99836,-8690.17943,-27044.42615,-34376.13361,-72335.60948,0.098,0.886,0.38,192,3,16,27,176,11,224,0,0,0,1709549374,0, 2024-03-04 16:19:34.072
37,-99631.82803,-28938.37886,-13796.72602,-29583.20434,-6743.901282,-27023.52727,-34295.15324,-72321.21495,0.098,0.886,0.38,192,0,0,0,0,0,0,0,0,0,1709549374,0, 2024-03-04 16:19:34.072
38,-99610.54917,-28922.59853,-13786.15365,-29567.13343,-5781.74809,-27010.65266,-34318.89079,-72306.52986,0.098,0.886,0.38,192,0,0,0,0,0,0,0,0,0,1709549374,0, 2024-03-04 16:19:34.072
39,-99588.51035,-28901.27497,-13790.57929,-29545.96633,-7088.922809,-27027.75175,-34422.11114,-72328.81455,0.098,0.886,0.38,192,0,0,0,0,0,0,0,0,0,1709549374,0, 2024-03-04 16:19:34.072
40,-99592.75718,-28900.85028,-13800.83874,-29542.65827,-8876.548276,-27042.12392,-34450.49786,-72351.21099,0.098,0.886,0.38,192,0,0,0,0,0,0,0,0,0,1709549374,0, 2024-03-04 16:19:34.072
41,-99629.07876,-28932.50035,-13817.17787,-29572.36374,-8693.576895,-27038.50294,-34377.20649,-72361.96218,0.098,0.886,0.38,192,0,0,0,0,0,0,0,0,0,1709549374,0, 2024-03-04 16:19:34.072
42,-99649.64237,-28955.61206,-13820.44122,-29596.99537,-6770.253989,-27022.6332,-34297.83545,-72367.21484,0.098,0.886,0.38,192,0,0,0,0,0,0,0,0,0,1709549374,0, 2024-03-04 16:19:34.072
43,-99633.95144,-28944.92792,-13815.6803,-29589.55223,-5786.777233,-27018.8781,-34329.3514,-72369.2265,0.098,0.886,0.38,192,0,0,0,0,0,0,0,0,0,1709549374,0, 2024-03-04 16:19:34.072
44,-99612.13614,-28921.90563,-13817.98253,-29566.26172,-7076.383481,-27033.47379,-34423.67577,-72373.69685,0.098,0.886,0.38,192,0,0,0,0,0,0,0,0,0,1709549374,0, 2024-03-04 16:19:34.072
45,-99618.0817,-28916.80943,-13825.35861,-29554.03531,-8876.794145,-27036.78185,-34449.93907,-72330.11095,0.098,0.886,0.38,192,0,0,0,0,0,0,0,0,0,1709549374,0, 2024-03-04 16:19:34.072
46,-99648.90476,-28943.58682,-13834.79104,-29579.76217,-8705.468023,-27033.25028,-34370.47861,-72329.21688,0.094,0.882,0.384,192,2,240,27,144,12,0,0,0,0,1709549374,0, 2024-03-04 16:19:34.072
47,-99667.50141,-28967.79376,-13834.03109,-29611.92633,-6790.907,-27029.62929,-34292.7169,-72357.33537,0.094,0.882,0.384,192,0,0,0,0,0,0,0,0,0,1709549374,0, 2024-03-04 16:19:34.072
48,-99648.03304,-28954.2039,-13826.18562,-29608.50651,-5791.22523,-27034.36786,-34326.98212,-72390.50536,0.094,0.882,0.384,192,0,0,0,0,0,0,0,0,0,1709549374,0, 2024-03-04 16:19:34.072
49,-99620.47334,-28926.93477,-13824.75511,-29585.70773,-7068.18039,-27055.73613,-34428.48139,-72402.59765,0.094,0.882,0.384,192,0,0,0,0,0,0,0,0,0,1709549374,0, 2024-03-04 16:19:34.072
50,-99617.3441,-28915.71419,-13826.27503,-29569.21215,-8876.838848,-27060.60881,-34448.4415,-72345.62306,0.094,0.882,0.384,192,0,0,0,0,0,0,0,0,0,1709549374,0, 2024-03-04 16:19:34.072
51,-99648.16715,-28940.18935,-13835.97569,-29594.06729,-8722.187128,-27059.04419,-34373.89843,-72351.05453,0.094,0.882,0.384,192,0,0,0,0,0,0,0,0,0,1709549374,0, 2024-03-04 16:19:34.072
52,-99661.13116,-28957.66842,-13831.86297,-29618.72126,-6810.732998,-27052.45042,-34299.89181,-72401.97181,0.094,0.882,0.384,192,0,0,0,0,0,0,0,0,0,1709549374,0, 2024-03-04 16:19:34.072
53,-99635.80664,-28939.65291,-13820.53063,-29605.75725,-5794.510936,-27045.76725,-34328.90437,-72390.72888,0.094,0.882,0.384,192,0,0,0,0,0,0,0,0,0,1709549374,0, 2024-03-04 16:19:34.072
54,-99598.90391,-28904.15834,-13805.59967,-29566.6417,-7048.108524,-27046.48251,-34420.54652,-72355.36842,0.094,0.882,0.384,192,0,0,0,0,0,0,0,0,0,1709549374,0, 2024-03-04 16:19:34.072
55,-99595.81937,-28891.86488,-13803.27508,-29546.68159,-8858.689232,-27049.45529,-34449.40262,-72367.2819,0.094,0.882,0.384,192,0,0,0,0,0,0,0,0,0,1709549374,0, 2024-03-04 16:19:34.072
56,-99630.53162,-28920.45276,-13816.8873,-29574.39775,-8736.805169,-27054.21621,-34385.78956,-72428.72684,0.09,0.886,0.384,192,2,208,27,176,12,0,0,0,0,1709549374,0, 2024-03-04 16:19:34.072
57,-99641.48398,-28936.2778,-13810.04766,-29591.49684,-6818.869033,-27036.24541,-34304.31745,-72429.10682,0.09,0.886,0.384,192,0,0,0,0,0,0,0,0,0,1709549374,0, 2024-03-04 16:19:34.072
58,-99612.9408,-28913.12139,-13789.417,-29567.35695,-5776.093099,-27016.10649,-34322.37766,-72359.61525,0.09,0.886,0.384,192,0,0,0,0,0,0,0,0,0,1709549374,0, 2024-03-04 16:19:34.072
59,-99585.02347,-28884.51116,-13780.56571,-29535.68453,-7010.26702,-27023.57197,-34418.22194,-72335.36361,0.09,0.886,0.384,192,0,0,0,0,0,0,0,0,0,1709549374,0, 2024-03-04 16:19:34.072
60,-99588.6221,-28882.96889,-13791.18279,-29531.41535,-8828.246156,-27040.04521,-34451.23547,-72378.12249,0.09,0.886,0.384,192,0,0,0,0,0,0,0,0,0,1709549374,0, 2024-03-04 16:19:34.072
61,-99626.79888,-28915.71419,-13804.52678,-29558.14803,-8716.554489,-27037.83238,-34383.59909,-72395.33334,0.09,0.886,0.384,192,0,0,0,0,0,0,0,0,0,1709549374,0, 2024-03-04 16:19:34.072
62,-99640.54521,-28932.07567,-13794.53555,-29574.53186,-6813.996352,-27015.99473,-34295.42146,-72381.00587,0.09,0.886,0.384,192,0,0,0,0,0,0,0,0,0,1709549374,0, 2024-03-04 16:19:34.072
63,-99623.51318,-28922.82205,-13789.77463,-29571.31321,-5754.478962,-27016.75469,-34323.98699,-72396.8309,0.09,0.886,0.384,192,0,0,0,0,0,0,0,0,0,1709549374,0, 2024-03-04 16:19:34.072
64,-99599.26153,-28897.98926,-13789.17113,-29544.82639,-6978.460488,-27027.41647,-34420.07714,-72388.60546,0.09,0.886,0.384,192,0,0,0,0,0,0,0,0,0,1709549374,0, 2024-03-04 16:19:34.072
65,-99601.54141,-28891.77548,-13797.15071,-29531.50475,-8816.667952,-27032.46797,-34461.24905,-72382.41403,0.09,0.886,0.384,192,0,0,0,0,0,0,0,0,0,1709549374,0, 2024-03-04 16:19:34.072
66,-99632.54328,-28915.33421,-13809.8912,-29548.49208,-8745.65646,-27015.30183,-34384.62727,-72332.32377,0.094,0.89,0.382,192,2,240,27,208,11,240,0,0,0,1709549374,0, 2024-03-04 16:19:34.072
67,-99649.4859,-28933.88616,-13805.08558,-29565.81468,-6842.316013,-26990.5808,-34295.15324,-72299.66787,0.094,0.89,0.382,192,0,0,0,0,0,0,0,0,0,1709549374,0, 2024-03-04 16:19:34.072
68,-99632.67739,-28920.09514,-13797.77656,-29556.35989,-5753.316671,-26981.72951,-34320.23189,-72299.15378,0.094,0.89,0.382,192,0,0,0,0,0,0,0,0,0,1709549374,0, 2024-03-04 16:19:34.072
69,-99605.07299,-28891.88723,-13797.26247,-29531.46005,-6963.395412,-26993.7771,-34414.71272,-72300.94192,0.094,0.89,0.382,192,0,0,0,0,0,0,0,0,0,1709549374,0, 2024-03-04 16:19:34.072
70,-99606.10117,-28888.22155,-13805.97965,-29528.82254,-8810.565926,-27011.68084,-34450.3861,-72332.1226,0.094,0.89,0.382,192,0,0,0,0,0,0,0,0,0,1709549374,0, 2024-03-04 16:19:34.072
71,-99642.98155,-28920.9445,-13827.90671,-29567.26755,-8756.899387,-27023.23669,-34386.12484,-72365.09143,0.094,0.89,0.382,192,0,0,0,0,0,0,0,0,0,1709549374,0, 2024-03-04 16:19:34.072
72,-99669.58012,-28949.48768,-13835.64041,-29606.20428,-6868.042871,-27022.47674,-34305.32328,-72370.12057,0.094,0.89,0.382,192,0,0,0,0,0,0,0,0,0,1709549374,0, 2024-03-04 16:19:34.072
73,-99650.26821,-28936.21074,-13829.69485,-29603.65619,-5779.870543,-27022.14146,-34327.71973,-72371.41697,0.094,0.89,0.382,192,0,0,0,0,0,0,0,0,0,1709549374,0, 2024-03-04 16:19:34.072
74,-99621.76974,-28908.49458,-13823.70458,-29582.51143,-6978.661654,-27043.06269,-34421.03826,-72398.99902,0.094,0.89,0.382,192,0,0,0,0,0,0,0,0,0,1709549374,0, 2024-03-04 16:19:34.072
75,-99624.96604,-28903.73366,-13832.06413,-29576.65528,-8822.255888,-27061.45818,-34466.09938,-72384.20217,0.094,0.89,0.382,192,0,0,0,0,0,0,0,0,0,1709549375,0, 2024-03-04 16:19:34.553
76,-99648.92711,-28921.83857,-13835.84158,-29593.79907,-8769.23755,-27052.96451,-34393.3221,-72354.00496,0.096,0.894,0.38,192,3,0,27,240,11,224,0,0,0,1709549375,0, 2024-03-04 16:19:34.553
77,-99657.06315,-28932.03097,-13827.7726,-29611.12167,-6866.411193,-27037.09478,-34307.71492,-72367.41601,0.096,0.894,0.38,192,0,0,0,0,0,0,0,0,0,1709549375,0, 2024-03-04 16:19:34.553
78,-99637.2148,-28917.68115,-13818.27311,-29604.63966,-5760.402174,-27041.22985,-34339.63321,-72417.17099,0.096,0.894,0.38,192,0,0,0,0,0,0,0,0,0,1709549375,0, 2024-03-04 16:19:34.553
79,-99605.27415,-28885.51699,-13809.51122,-29572.60961,-6948.687965,-27052.51748,-34425.93329,-72408.63263,0.096,0.894,0.38,192,0,0,0,0,0,0,0,0,0,1709549375,0, 2024-03-04 16:19:34.553
80,-99603.84364,-28875.70457,-13811.05349,-29557.0975,-8797.736025,-27061.36877,-34465.47353,-72388.89603,0.096,0.894,0.38,192,0,0,0,0,0,0,0,0,0,1709549375,0, 2024-03-04 16:19:34.553
81,-99627.60355,-28896.51405,-13817.26728,-29572.83313,-8763.98489,-27051.66811,-34391.91394,-72371.03699,0.096,0.894,0.38,192,0,0,0,0,0,0,0,0,0,1709549375,0, 2024-03-04 16:19:34.553
82,-99640.09817,-28917.32352,-13813.55689,-29593.91082,-6877.3859,-27036.156,-34306.66438,-72374.56857,0.096,0.894,0.38,192,0,0,0,0,0,0,0,0,0,1709549375,0, 2024-03-04 16:19:34.553
83,-99616.76295,-28902.90664,-13797.32952,-29579.60571,-5720.616069,-27024.13076,-34323.94228,-72356.03897,0.096,0.894,0.38,192,0,0,0,0,0,0,0,0,0,1709549375,0, 2024-03-04 16:19:34.553
84,-99590.54435,-28877.11273,-13796.03312,-29554.30353,-6888.852345,-27040.71576,-34421.75352,-72420.5014,0.096,0.894,0.38,192,0,0,0,0,0,0,0,0,0,1709549375,0, 2024-03-04 16:19:34.553
85,-99593.98652,-28873.33529,-13804.52678,-29545.98868,-8761.302681,-27057.43486,-34465.42883,-72483.2651,0.096,0.894,0.38,192,0,0,0,0,0,0,0,0,0,1709549375,0, 2024-03-04 16:19:34.553
86,-99625.10015,-28896.93873,-13810.31588,-29559.06445,-8771.02569,-27041.11809,-34388.80705,-72416.67925,0.09,0.886,0.376,192,2,208,27,176,11,192,0,0,0,1709549375,0, 2024-03-04 16:19:34.553
87,-99646.06609,-28919.29047,-13810.44999,-29578.73399,-6891.914534,-27017.35819,-34307.33494,-72353.17795,0.09,0.886,0.376,192,0,0,0,0,0,0,0,0,0,1709549375,0, 2024-03-04 16:19:34.553
88,-99623.64729,-28902.2808,-13792.70271,-29561.94783,-5714.312877,-26999.74501,-34310.46418,-72328.21105,0.09,0.886,0.376,192,0,0,0,0,0,0,0,0,0,1709549375,0, 2024-03-04 16:19:34.553
89,-99600.53558,-28876.37512,-13792.90388,-29535.17044,-6852.754277,-27010.69737,-34404.9003,-72347.00887,0.09,0.886,0.376,192,0,0,0,0,0,0,0,0,0,1709549375,0, 2024-03-04 16:19:34.553
90,-99607.35287,-28872.46357,-13808.66186,-29528.71079,-8737.229852,-27025.85185,-34457.02457,-72383.88924,0.09,0.886,0.376,192,0,0,0,0,0,0,0,0,0,1709549375,0, 2024-03-04 16:19:34.553
91,-99637.84065,-28895.70938,-13820.06124,-29548.53678,-8781.53101,-27015.41358,-34386.19189,-72376.17789,0.09,0.886,0.376,192,0,0,0,0,0,0,0,0,0,1709549375,0, 2024-03-04 16:19:34.553
92,-99658.76188,-28921.61505,-13821.11178,-29575.31417,-6907.069016,-26998.80624,-34296.44964,-72353.08854,0.09,0.886,0.376,192,0,0,0,0,0,0,0,0,0,1709549375,0, 2024-03-04 16:19:34.553
93,-99646.33431,-28915.2001,-13814.51801,-29570.44149,-5720.3702,-26988.56914,-34311.87234,-72318.71156,0.09,0.886,0.376,192,0,0,0,0,0,0,0,0,0,1709549375,0, 2024-03-04 16:19:34.553
94,-99624.04962,-28896.02231,-13818.58603,-29554.32589,-6850.563806,-27010.22798,-34407.18018,-72328.65808,0.09,0.886,0.376,192,0,0,0,0,0,0,0,0,0,1709549375,0, 2024-03-04 16:19:34.553
95,-99632.25271,-28900.33619,-13840.20017,-29561.94783,-8764.722498,-27043.12975,-34462.50075,-72378.72599,0.09,0.886,0.376,192,0,0,0,0,0,0,0,0,0,1709549375,0, 2024-03-04 16:19:34.553
96,-99662.67343,-28928.11941,-13851.84543,-29591.67565,-8826.368609,-27048.9859,-34394.79731,-72385.65503,0.096,0.888,0.37,192,3,0,27,192,11,144,0,0,0,1709549375,0, 2024-03-04 16:19:34.553
97,-99679.03491,-28949.8006,-13847.12921,-29618.72126,-6947.011584,-27037.27359,-34301.41172,-72361.26928,0.096,0.888,0.37,192,0,0,0,0,0,0,0,0,0,1709549375,0, 2024-03-04 16:19:34.553
98,-99662.71814,-28939.22823,-13838.68025,-29617.51427,-5737.916319,-27038.1006,-34321.46124,-72348.95347,0.096,0.888,0.37,192,0,0,0,0,0,0,0,0,0,1709549375,0, 2024-03-04 16:19:34.553
99,-99633.23619,-28907.30994,-13833.58405,-29590.4016,-6852.039021,-27051.51165,-34416.14323,-72346.18185,0.096,0.888,0.37,192,0,0,0,0,0,0,0,0,0,1709549375,0, 2024-03-04 16:19:34.553
100,-99635.15844,-28901.09615,-13846.32454,-29586.62416,-8776.680681,-27077.66319,-34471.30733,-72385.05153,0.096,0.888,0.37,192,0,0,0,0,0,0,0,0,0,1709549375,0, 2024-03-04 16:19:34.553
101,-99661.28762,-28920.83274,-13855.10878,-29606.78543,-8859.426839,-27074.82452,-34411.2929,-72401.21185,0.096,0.888,0.37,192,0,0,0,0,0,0,0,0,0,1709549375,0, 2024-03-04 16:19:34.553
102,-99672.48585,-28934.57907,-13844.35759,-29625.13621,-6983.154354,-27057.03253,-34308.67604,-72428.57038,0.096,0.888,0.37,192,0,0,0,0,0,0,0,0,0,1709549375,0, 2024-03-04 16:19:34.553
103,-99651.07288,-28919.89397,-13826.54325,-29613.11097,-5751.997918,-27048.62828,-34324.88106,-72413.08062,0.096,0.888,0.37,192,0,0,0,0,0,0,0,0,0,1709549375,0, 2024-03-04 16:19:34.553
104,-99612.65023,-28883.28181,-13810.56175,-29575.33652,-6841.019611,-27050.72934,-34414.73507,-72395.15452,0.096,0.888,0.37,192,0,0,0,0,0,0,0,0,0,1709549375,0, 2024-03-04 16:19:34.553
105,-99604.42479,-28868.64142,-13807.9019,-29551.42016,-8729.630259,-27051.46695,-34459.19269,-72380.53648,0.096,0.888,0.37,192,0,0,0,0,0,0,0,0,0,1709549375,0, 2024-03-04 16:19:34.553
106,-99632.07389,-28890.99316,-13812.72987,-29568.29573,-8821.853557,-27046.70603,-34390.52813,-72407.64915,0.094,0.888,0.38,192,2,240,27,192,11,224,0,0,0,1709549375,0, 2024-03-04 16:19:34.553
107,-99652.19046,-28913.18845,-13812.46165,-29593.08381,-6954.924101,-27035.91013,-34303.98217,-72421.35077,0.094,0.888,0.38,192,0,0,0,0,0,0,0,0,0,1709549375,0, 2024-03-04 16:19:34.553
108,-99632.74445,-28897.09519,-13795.45197,-29576.72233,-5709.686066,-27020.21921,-34312.29702,-72381.69877,0.094,0.888,0.38,192,0,0,0,0,0,0,0,0,0,1709549375,0, 2024-03-04 16:19:34.553
109,-99601.42965,-28862.5841,-13780.09633,-29535.12574,-6774.858448,-27012.93254,-34396.09371,-72318.08571,0.094,0.888,0.38,192,0,0,0,0,0,0,0,0,0,1709549375,0, 2024-03-04 16:19:34.553
110,-99600.93791,-28853.28577,-13788.05355,-29522.60876,-8684.859715,-27025.80715,-34444.37348,-72343.16437,0.094,0.888,0.38,192,0,0,0,0,0,0,0,0,0,1709549375,0, 2024-03-04 16:19:34.553
111,-99633.63852,-28879.77259,-13803.29744,-29549.92259,-8824.513414,-27031.50684,-34386.34835,-72418.84737,0.094,0.888,0.38,192,0,0,0,0,0,0,0,0,0,1709549375,0, 2024-03-04 16:19:34.553
112,-99653.62098,-28903.24192,-13804.41502,-29578.08579,-6972.604331,-27019.72747,-34298.88598,-72464.33317,0.094,0.888,0.38,192,0,0,0,0,0,0,0,0,0,1709549375,0, 2024-03-04 16:19:34.553
113,-99632.1633,-28889.5403,-13786.80185,-29564.71945,-5699.046636,-27002.44957,-34304.04923,-72407.35858,0.094,0.888,0.38,192,0,0,0,0,0,0,0,0,0,1709549375,0, 2024-03-04 16:19:34.553
114,-99600.28971,-28855.07391,-13775.60363,-29522.89933,-6755.457134,-26994.17943,-34381.31921,-72322.62311,0.094,0.888,0.38,192,0,0,0,0,0,0,0,0,0,1709549375,0, 2024-03-04 16:19:34.553
115,-99603.93305,-28847.65313,-13785.70661,-29506.87313,-8682.959817,-26999.81207,-34426.26857,-72292.00122,0.094,0.888,0.38,192,0,0,0,0,0,0,0,0,0,1709549375,0, 2024-03-04 16:19:34.553
116,-99639.96406,-28876.62099,-13803.4986,-29535.21514,-8827.799121,-27003.79068,-34365.82945,-72324.25479,0.094,0.892,0.382,192,2,240,27,224,11,240,0,0,0,1709549375,0, 2024-03-04 16:19:34.553
117,-99664.39452,-28903.64425,-13813.22161,-29567.69223,-6988.876401,-26995.63229,-34282.12217,-72352.14977,0.094,0.892,0.382,192,0,0,0,0,0,0,0,0,0,1709549375,0, 2024-03-04 16:19:34.553
118,-99650.93877,-28899.44212,-13809.53357,-29570.24033,-5710.043694,-26999.49914,-34298.70716,-72382.0117,0.094,0.892,0.382,192,0,0,0,0,0,0,0,0,0,1709549375,0, 2024-03-04 16:19:34.553
119,-99623.69199,-28874.87756,-13811.36642,-29551.53192,-6763.190837,-27020.10745,-34397.41247,-72405.1681,0.094,0.892,0.382,192,0,0,0,0,0,0,0,0,0,1709549375,0, 2024-03-04 16:19:34.553
120,-99625.7707,-28871.14482,-13826.09622,-29550.92842,-8700.014198,-27044.51556,-34452.91185,-72436.90758,0.094,0.892,0.382,192,0,0,0,0,0,0,0,0,0,1709549375,0, 2024-03-04 16:19:34.553
121,-99654.67151,-28891.88723,-13833.6064,-29571.872,-8860.58913,-27038.90527,-34387.55535,-72383.21869,0.094,0.892,0.382,192,0,0,0,0,0,0,0,0,0,1709549375,0, 2024-03-04 16:19:34.553
122,-99670.80947,-28910.0145,-13830.3654,-29592.05563,-7014.245631,-27014.56422,-34296.71786,-72304.29468,0.094,0.892,0.382,192,0,0,0,0,0,0,0,0,0,1709549375,0, 2024-03-04 16:19:34.553
123,-99650.91642,-28898.03396,-13821.02237,-29590.46866,-5706.422711,-27013.02195,-34303.08811,-72320.38794,0.094,0.892,0.382,192,0,0,0,0,0,0,0,0,0,1709549375,0, 2024-03-04 16:19:34.553
124,-99625.70365,-28875.34694,-13820.35182,-29573.30252,-6733.842997,-27037.89944,-34405.19087,-72368.42184,0.094,0.892,0.382,192,0,0,0,0,0,0,0,0,0,1709549375,0, 2024-03-04 16:19:34.553
125,-99625.45778,-28869.98253,-13832.28765,-29568.31808,-8677.908323,-27064.00628,-34456.10815,-72427.5869,0.094,0.892,0.382,192,0,0,0,0,0,0,0,0,0,1709549375,0, 2024-03-04 16:19:34.553
126,-99652.48104,-28889.62971,-13839.23904,-29584.6572,-8869.887456,-27056.31728,-34390.32696,-72415.53931,0.096,0.89,0.378,192,3,0,27,208,11,208,0,0,0,1709549375,0, 2024-03-04 16:19:34.553
127,-99673.87166,-28912.67436,-13833.47229,-29604.90788,-7039.748971,-27038.36883,-34297.43311,-72364.35382,0.096,0.89,0.378,192,0,0,0,0,0,0,0,0,0,1709549375,0, 2024-03-04 16:19:34.553
128,-99655.90085,-28900.98439,-13820.57534,-29596.41422,-5715.944554,-27028.15408,-34306.37381,-72355.97192,0.096,0.89,0.378,192,0,0,0,0,0,0,0,0,0,1709549375,0, 2024-03-04 16:19:34.553
129,-99625.25661,-28873.04471,-13813.42278,-29570.01681,-6728.791503,-27041.07339,-34398.4183,-72387.06319,0.096,0.89,0.378,192,0,0,0,0,0,0,0,0,0,1709549375,0, 2024-03-04 16:19:34.553
130,-99624.92134,-28866.38389,-13820.1283,-29558.32685,-8667.24654,-27057.56897,-34452.46481,-72411.44894,0.096,0.89,0.378,192,0,0,0,0,0,0,0,0,0,1709549375,0, 2024-03-04 16:19:34.553
131,-99649.82118,-28883.66179,-13826.31973,-29570.79912,-8876.950607,-27048.09183,-34390.46107,-72416.99218,0.096,0.89,0.378,192,0,0,0,0,0,0,0,0,0,1709549375,0, 2024-03-04 16:19:34.553
132,-99666.78615,-28904.62773,-13817.71431,-29591.74271,-7054.299957,-27029.60694,-34294.92972,-72403.31291,0.096,0.89,0.378,192,0,0,0,0,0,0,0,0,0,1709549375,0, 2024-03-04 16:19:34.553
133,-99646.55783,-28893.56362,-13797.6648,-29582.1091,-5705.171013,-27019.54866,-34301.23291,-72411.15837,0.096,0.89,0.378,192,0,0,0,0,0,0,0,0,0,1709549375,0, 2024-03-04 16:19:34.553
134,-99616.7853,-28865.91451,-13789.95345,-29551.37545,-6686.72552,-27028.93639,-34389.11997,-72435.20885,0.096,0.89,0.378,192,0,0,0,0,0,0,0,0,0,1709549375,0, 2024-03-04 16:19:34.553
135,-99608.67162,-28850.60356,-13790.53459,-29528.91195,-8620.710209,-27034.63608,-34434.3599,-72427.67631,0.096,0.89,0.378,192,0,0,0,0,0,0,0,0,0,1709549375,0, 2024-03-04 16:19:34.553
136,-99633.3703,-28868.08263,-13797.79891,-29538.92553,-8855.783505,-27017.44759,-34375.46305,-72340.59392,0.096,0.89,0.378,192,0,0,0,0,0,0,0,0,0,1709549375,0, 2024-03-04 16:19:34.553
137,-99651.22934,-28887.5957,-13794.75907,-29563.13247,-7060.156114,-26998.98505,-34284.82673,-72346.71829,0.1,0.892,0.38,192,3,32,27,224,11,224,0,0,0,1709549375,0, 2024-03-04 16:19:34.553
138,-99640.05347,-28883.23711,-13788.54529,-29565.52411,-5705.439234,-26997.30867,-34288.06773,-72380.55883,0.1,0.892,0.38,192,0,0,0,0,0,0,0,0,0,1709549375,0, 2024-03-04 16:19:34.553
139,-99614.30426,-28858.20316,-13785.97483,-29536.64566,-6674.43206,-27001.60021,-34378.81582,-72335.52007,0.1,0.892,0.38,192,0,0,0,0,0,0,0,0,0,1709549375,0, 2024-03-04 16:19:34.553
140,-99613.18667,-28848.81542,-13795.7649,-29521.35706,-8626.387552,-27010.47385,-34432.50471,-72304.5182,0.1,0.892,0.38,192,0,0,0,0,0,0,0,0,0,1709549375,0, 2024-03-04 16:19:34.553
141,-99640.34404,-28867.54618,-13807.56662,-29539.57373,-8878.202305,-27004.7518,-34370.92565,-72310.59787,0.1,0.892,0.38,192,0,0,0,0,0,0,0,0,0,1709549375,0, 2024-03-04 16:19:34.553
142,-99662.76284,-28892.15546,-13812.17108,-29573.05665,-7089.235734,-26999.16387,-34290.2135,-72361.82807,0.1,0.892,0.38,192,0,0,0,0,0,0,0,0,0,1709549375,0, 2024-03-04 16:19:34.553
143,-99646.91545,-28884.86879,-13807.83484,-29574.17423,-5722.985354,-26997.97922,-34301.12115,-72386.25853,0.1,0.892,0.38,192,0,0,0,0,0,0,0,0,0,1709549375,0, 2024-03-04 16:19:34.553
144,-99615.4442,-28854.15749,-13802.2469,-29545.40754,-6659.724612,-27007.63518,-34387.42124,-72371.57343,0.1,0.892,0.38,192,0,0,0,0,0,0,0,0,0,1709549375,0, 2024-03-04 16:19:34.553
145,-99616.7406,-28849.03894,-13814.49566,-29539.30551,-8624.398246,-27031.68565,-34444.97698,-72379.01656,0.1,0.892,0.38,192,0,0,0,0,0,0,0,0,0,1709549375,0, 2024-03-04 16:19:34.553
146,-99650.42468,-28875.74928,-13832.46646,-29564.89826,-8922.458759,-27033.36203,-34389.23173,-72364.15265,0.1,0.892,0.38,192,0,0,0,0,0,0,0,0,0,1709549375,0, 2024-03-04 16:19:34.553
147,-99668.08256,-28895.99996,-13831.17006,-29590.22279,-7136.487321,-27015.50299,-34299.22125,-72361.80572,0.1,0.89,0.38,192,3,32,27,208,11,224,0,0,0,1709549375,0, 2024-03-04 16:19:34.553
148,-99644.65793,-28882.4101,-13816.66378,-29585.9536,-5733.893005,-27007.14344,-34300.13767,-72356.32954,0.1,0.89,0.38,192,0,0,0,0,0,0,0,0,0,1709549375,0, 2024-03-04 16:19:34.553
149,-99616.7853,-28856.16915,-13815.97088,-29565.18883,-6662.116249,-27024.73426,-34395.3114,-72379.44125,0.1,0.89,0.38,192,0,0,0,0,0,0,0,0,0,1709549375,0, 2024-03-04 16:19:34.553
150,-99618.61814,-28848.81542,-13827.79495,-29556.27049,-8620.889022,-27044.53791,-34458.92447,-72393.09816,0.1,0.89,0.38,192,0,0,0,0,0,0,0,0,0,1709549375,0, 2024-03-04 16:19:34.553
151,-99645.41789,-28868.57437,-13834.47812,-29571.15675,-8937.367372,-27040.84987,-34389.25408,-72373.29452,0.1,0.89,0.38,192,0,0,0,0,0,0,0,0,0,1709549375,0, 2024-03-04 16:19:34.553
152,-99666.94262,-28892.28957,-13832.06413,-29594.51432,-7156.71565,-27023.86254,-34291.04051,-72353.53558,0.1,0.89,0.38,192,0,0,0,0,0,0,0,0,0,1709549375,0, 2024-03-04 16:19:34.553
153,-99653.35276,-28884.10883,-13822.54229,-29592.50266,-5740.62088,-27019.72747,-34295.3097,-72394.41692,0.1,0.89,0.38,192,0,0,0,0,0,0,0,0,0,1709549375,0, 2024-03-04 16:19:34.553
154,-99624.29549,-28857.33144,-13815.30032,-29566.90992,-6639.540987,-27034.34551,-34383.50968,-72433.95715,0.1,0.89,0.38,192,0,0,0,0,0,0,0,0,0,1709549375,0, 2024-03-04 16:19:34.553
155,-99625.6813,-28853.79986,-13826.4762,-29558.43861,-8603.544069,-27054.6856,-34444.68641,-72436.70642,0.1,0.89,0.38,192,0,0,0,0,0,0,0,0,0,1709549375,0, 2024-03-04 16:19:34.553
156,-99653.48687,-28876.73275,-13834.41106,-29572.83313,-8941.43539,-27045.83431,-34383.84496,-72399.44606,0.1,0.89,0.38,192,0,0,0,0,0,0,0,0,0,1709549375,0, 2024-03-04 16:19:34.553
157,-99669.49072,-28896.49169,-13824.37513,-29591.49684,-7179.626188,-27023.79549,-34283.91031,-72388.58311,0.092,0.888,0.378,192,2,224,27,192,11,208,0,0,0,1709549375,0, 2024-03-04 16:19:34.553
158,-99653.9339,-28888.71329,-13810.15942,-29584.92542,-5732.686011,-27010.22798,-34282.12217,-72366.05255,0.092,0.888,0.378,192,0,0,0,0,0,0,0,0,0,1709549375,0, 2024-03-04 16:19:34.553
159,-99621.74739,-28859.07487,-13798.78238,-29551.88954,-6602.995885,-27012.75373,-34368.75753,-72325.97587,0.092,0.888,0.378,192,0,0,0,0,0,0,0,0,0,1709549375,0, 2024-03-04 16:19:34.553
160,-99612.09144,-28845.46266,-13797.64245,-29531.66122,-8571.737536,-27022.56614,-34420.52417,-72300.65135,0.092,0.888,0.378,192,0,0,0,0,0,0,0,0,0,1709549375,0, 2024-03-04 16:19:34.553
161,-99641.03694,-28867.56854,-13803.11862,-29548.87206,-8920.648267,-27020.48743,-34348.79742,-72314.84471,0.092,0.888,0.378,192,0,0,0,0,0,0,0,0,0,1709549375,0, 2024-03-04 16:19:34.553
162,-99662.31581,-28892.31192,-13803.05157,-29576.16354,-7171.870133,-27010.42915,-34254.74128,-72357.24596,0.092,0.888,0.378,192,0,0,0,0,0,0,0,0,0,1709549375,0, 2024-03-04 16:19:34.554
163,-99646.42371,-28886.18754,-13791.9651,-29577.54935,-5724.706438,-27009.95976,-34259.5022,-72391.48884,0.092,0.888,0.378,192,0,0,0,0,0,0,0,0,0,1709549375,0, 2024-03-04 16:19:34.554
164,-99615.24303,-28856.07974,-13783.96318,-29546.23455,-6576.933751,-27012.86549,-34350.67497,-72350.16046,0.092,0.888,0.378,192,0,0,0,0,0,0,0,0,0,1709549375,0, 2024-03-04 16:19:34.554
165,-99607.01759,-28842.31107,-13788.36647,-29528.68843,-8550.861007,-27024.98013,-34412.34343,-72356.48601,0.092,0.888,0.378,192,0,0,0,0,0,0,0,0,0,1709549375,0, 2024-03-04 16:19:34.554
166,-99631.89508,-28862.0253,-13798.38005,-29547.66507,-8932.382933,-27024.91308,-34355.32413,-72373.96507,0.092,0.888,0.378,192,0,0,0,0,0,0,0,0,0,1709549375,0, 2024-03-04 16:19:34.554
167,-99653.91155,-28886.09813,-13801.24108,-29578.71164,-7194.288933,-27016.26295,-34263.2573,-72388.56076,0.09,0.892,0.382,192,2,208,27,224,11,240,0,0,0,1709549375,0, 2024-03-04 16:19:34.554
168,-99638.06416,-28879.61613,-13796.21193,-29580.45507,-5730.786113,-27011.32321,-34264.95603,-72389.16426,0.09,0.892,0.382,192,0,0,0,0,0,0,0,0,0,1709549375,0, 2024-03-04 16:19:34.554
169,-99611.93497,-28855.38684,-13800.88345,-29560.71848,-6583.348701,-27028.24349,-34364.89068,-72416.0087,0.09,0.892,0.382,192,0,0,0,0,0,0,0,0,0,1709549375,0, 2024-03-04 16:19:34.554
170,-99606.19057,-28841.55111,-13805.4432,-29540.49016,-8551.598615,-27034.34551,-34415.62914,-72365.73963,0.09,0.892,0.382,192,0,0,0,0,0,0,0,0,0,1709549375,0, 2024-03-04 16:19:34.554
171,-99640.4558,-28868.66377,-13821.51411,-29563.91478,-8958.623881,-27037.25124,-34361.9179,-72343.43259,0.09,0.892,0.382,192,0,0,0,0,0,0,0,0,0,1709549375,0, 2024-03-04 16:19:34.554
172,-99668.37313,-28898.92803,-13825.58213,-29595.85543,-7233.493892,-27027.86351,-34266.87828,-72339.96807,0.09,0.892,0.382,192,0,0,0,0,0,0,0,0,0,1709549375,0, 2024-03-04 16:19:34.554
173,-99655.29736,-28893.09423,-13815.32268,-29595.05076,-5750.433296,-27019.61571,-34257.37879,-72358.76588,0.09,0.892,0.382,192,0,0,0,0,0,0,0,0,0,1709549375,0, 2024-03-04 16:19:34.554
174,-99619.60162,-28860.14776,-13804.37032,-29561.88077,-6573.357472,-27023.2814,-34343.74593,-72371.57343,0.09,0.892,0.382,192,0,0,0,0,0,0,0,0,0,1709549375,0, 2024-03-04 16:19:34.554
175,-99612.65023,-28846.53555,-13810.71822,-29542.56887,-8546.234196,-27035.95484,-34406.06259,-72371.97576,0.09,0.892,0.382,192,0,0,0,0,0,0,0,0,0,1709549375,0, 2024-03-04 16:19:34.554
176,-99642.4451,-28867.97087,-13824.24102,-29559.0421,-8972.236094,-27033.74201,-34356.32996,-72374.88149,0.09,0.892,0.382,192,0,0,0,0,0,0,0,0,0,1709549375,0, 2024-03-04 16:19:34.554
177,-99662.94165,-28890.43437,-13827.45967,-29584.85837,-7261.612387,-27018.81105,-34263.12319,-72402.4859,0.092,0.886,0.384,192,2,224,27,176,12,0,0,0,0,1709549375,0, 2024-03-04 16:19:34.554
178,-99646.49077,-28881.56073,-13817.87077,-29584.52309,-5773.924979,-27014.25129,-34261.46916,-72409.19142,0.092,0.886,0.384,192,0,0,0,0,0,0,0,0,0,1709549375,0, 2024-03-04 16:19:34.554
179,-99612.73964,-28849.41892,-13803.4092,-29552.18012,-6574.74328,-27017.42524,-34343.74593,-72388.00197,0.092,0.886,0.384,192,0,0,0,0,0,0,0,0,0,1709549375,0, 2024-03-04 16:19:34.554
180,-99603.08368,-28835.00205,-13803.52095,-29531.50475,-8548.581129,-27025.94126,-34398.06067,-72351.12159,0.092,0.886,0.384,192,0,0,0,0,0,0,0,0,0,1709549375,0, 2024-03-04 16:19:34.554
181,-99633.59381,-28860.61714,-13817.22257,-29552.89537,-8978.919265,-27026.09772,-34342.67304,-72336.54825,0.092,0.886,0.384,192,0,0,0,0,0,0,0,0,0,1709549375,0, 2024-03-04 16:19:34.554
182,-99661.33233,-28892.06605,-13824.48689,-29587.71939,-7276.141021,-27019.63806,-34254.13778,-72374.99325,0.092,0.886,0.384,192,0,0,0,0,0,0,0,0,0,1709549375,0, 2024-03-04 16:19:34.554
183,-99644.68028,-28886.03108,-13810.07002,-29584.45604,-5760.402174,-27007.85869,-34244.7277,-72368.15362,0.092,0.886,0.384,192,0,0,0,0,0,0,0,0,0,1709549375,0, 2024-03-04 16:19:34.554
184,-99609.34217,-28851.94467,-13797.6648,-29553.09654,-6530.822102,-27011.97142,-34323.91993,-72367.9301,0.092,0.886,0.384,192,0,0,0,0,0,0,0,0,0,1709549375,0, 2024-03-04 16:19:34.554
185,-99602.32372,-28837.75131,-13806.38198,-29538.00911,-8509.197355,-27028.15408,-34389.03056,-72372.98159,0.092,0.886,0.384,192,0,0,0,0,0,0,0,0,0,1709549375,0, 2024-03-04 16:19:34.554
186,-99627.58119,-28858.31491,-13815.90382,-29557.58924,-8977.82403,-27030.34455,-34336.28045,-72390.08068,0.092,0.886,0.384,192,0,0,0,0,0,0,0,0,0,1709549375,0, 2024-03-04 16:19:34.554
187,-99649.41885,-28884.22059,-13813.31102,-29584.63485,-7280.857239,-27017.08996,-34240.8832,-72381.81053,0.098,0.886,0.38,192,3,16,27,176,11,224,0,0,0,1709549375,0, 2024-03-04 16:19:34.554
188,-99633.32559,-28875.4587,-13798.93885,-29577.97403,-5760.424526,-27002.96366,-34234.17768,-72364.6891,0.098,0.886,0.38,192,0,0,0,0,0,0,0,0,0,1709549375,0, 2024-03-04 16:19:34.554
189,-99599.68622,-28843.62982,-13791.45101,-29549.92259,-6513.052465,-27009.93741,-34321.86357,-72363.63856,0.098,0.886,0.38,192,0,0,0,0,0,0,0,0,0,1709549375,0, 2024-03-04 16:19:34.554
190,-99590.25378,-28827.73773,-13798.46946,-29530.61068,-8476.139125,-27019.39219,-34387.28713,-72336.43649,0.098,0.886,0.38,192,0,0,0,0,0,0,0,0,0,1709549375,0, 2024-03-04 16:19:34.554
191,-99616.40532,-28846.6026,-13810.27118,-29545.69811,-8978.941617,-27015.52534,-34332.48065,-72324.14303,0.098,0.886,0.38,192,0,0,0,0,0,0,0,0,0,1709549375,0, 2024-03-04 16:19:34.554
192,-99638.19827,-28871.12246,-13812.34989,-29571.73789,-7323.28085,-26998.58272,-34234.82588,-72329.17217,0.098,0.886,0.38,192,0,0,0,0,0,0,0,0,0,1709549375,0, 2024-03-04 16:19:34.554
193,-99624.85428,-28869.11081,-13806.47138,-29575.91767,-5785.816107,-26995.09585,-34230.48964,-72366.94662,0.098,0.886,0.38,192,0,0,0,0,0,0,0,0,0,1709549375,0, 2024-03-04 16:19:34.554
194,-99598.65804,-28845.39561,-13803.96799,-29555.42112,-6509.766759,-27009.51272,-34316.18623,-72380.67059,0.098,0.886,0.38,192,0,0,0,0,0,0,0,0,0,1709549375,0, 2024-03-04 16:19:34.554
195,-99587.43746,-28829.9282,-13806.18081,-29534.96927,-8474.798021,-27018.02874,-34376.44653,-72335.2295,0.098,0.886,0.38,192,0,0,0,0,0,0,0,0,0,1709549375,0, 2024-03-04 16:19:35.034
196,-99617.05352,-28854.53747,-13821.24589,-29557.49983,-8993.626713,-27024.75661,-34330.91603,-72368.26537,0.098,0.886,0.38,192,0,0,0,0,0,0,0,0,0,1709549375,0, 2024-03-04 16:19:35.034
197,-99650.91642,-28889.38384,-13830.63362,-29595.25193,-7344.515007,-27023.9743,-34242.40312,-72415.4052,0.1,0.892,0.382,192,3,32,27,224,11,240,0,0,0,1709549375,0, 2024-03-04 16:19:35.034
198,-99638.5112,-28882.23128,-13819.39069,-29590.60277,-5796.120262,-27009.75859,-34236.3905,-72368.26537,0.1,0.892,0.382,192,0,0,0,0,0,0,0,0,0,1709549375,0, 2024-03-04 16:19:35.034
199,-99604.20127,-28848.14487,-13808.12541,-29555.73404,-6522.171977,-27009.98211,-34323.38349,-72347.88058,0.1,0.892,0.382,192,0,0,0,0,0,0,0,0,0,1709549375,0, 2024-03-04 16:19:35.034
200,-99594.65707,-28832.38689,-13809.77944,-29535.50572,-8492.902934,-27023.48256,-34385.74486,-72372.84748,0.1,0.892,0.382,192,0,0,0,0,0,0,0,0,0,1709549375,0, 2024-03-04 16:19:35.034
201,-99619.3334,-28848.99424,-13818.72014,-29548.7156,-9026.26026,-27021.29209,-34332.14537,-72376.71433,0.1,0.892,0.382,192,0,0,0,0,0,0,0,0,0,1709549375,0, 2024-03-04 16:19:35.034
202,-99635.82899,-28867.09915,-13810.89703,-29563.80302,-7368.721946,-26994.40294,-34230.26612,-72314.12945,0.1,0.892,0.382,192,0,0,0,0,0,0,0,0,0,1709549375,0, 2024-03-04 16:19:35.034
203,-99623.73669,-28864.72987,-13802.04574,-29564.89826,-5800.255334,-26988.63619,-34227.4051,-72347.38885,0.1,0.892,0.382,192,0,0,0,0,0,0,0,0,0,1709549375,0, 2024-03-04 16:19:35.034
204,-99595.10411,-28837.90777,-13796.88249,-29543.6194,-6501.764834,-27002.60603,-34316.54386,-72381.81053,0.1,0.892,0.382,192,0,0,0,0,0,0,0,0,0,1709549375,0, 2024-03-04 16:19:35.034
205,-99588.66681,-28824.31791,-13805.97965,-29530.25306,-8463.845666,-27018.92281,-34387.22007,-72380.58119,0.1,0.892,0.382,192,0,0,0,0,0,0,0,0,0,1709549375,0, 2024-03-04 16:19:35.034
206,-99616.20416,-28843.27219,-13818.25075,-29549.4532,-9024.874452,-27019.68277,-34337.06276,-72380.84941,0.1,0.892,0.382,192,0,0,0,0,0,0,0,0,0,1709549375,0, 2024-03-04 16:19:35.034
207,-99642.26629,-28871.12246,-13819.56951,-29581.03622,-7390.134918,-27008.99863,-34244.92887,-72367.84069,0.1,0.896,0.382,192,3,32,28,0,11,240,0,0,0,1709549375,0, 2024-03-04 16:19:35.034
208,-99627.69295,-28864.01461,-13804.12445,-29578.10814,-5804.926849,-26997.19691,-34231.92015,-72350.67455,0.1,0.896,0.382,192,0,0,0,0,0,0,0,0,0,1709549375,0, 2024-03-04 16:19:35.034
209,-99598.83685,-28834.95734,-13799.92232,-29552.71656,-6473.623988,-27005.10943,-34322.31061,-72349.9593,0.1,0.896,0.382,192,0,0,0,0,0,0,0,0,0,1709549375,0, 2024-03-04 16:19:35.034
210,-99593.49478,-28821.94863,-13812.30519,-29539.97607,-8428.328744,-27025.58363,-34397.65834,-72391.6006,0.1,0.896,0.382,192,0,0,0,0,0,0,0,0,0,1709549375,0, 2024-03-04 16:19:35.034
211,-99620.13806,-28840.56763,-13823.3693,-29555.62229,-9011.306943,-27024.46604,-34352.84309,-72381.89994,0.1,0.896,0.382,192,0,0,0,0,0,0,0,0,0,1709549375,0, 2024-03-04 16:19:35.034
212,-99643.13801,-28862.80762,-13824.55395,-29576.45411,-7405.602325,-27000.39321,-34257.49055,-72337.08469,0.1,0.896,0.382,192,0,0,0,0,0,0,0,0,0,1709549375,0, 2024-03-04 16:19:35.034
213,-99631.24688,-28857.97964,-13816.9767,-29577.34818,-5811.632372,-26990.98313,-34244.54889,-72351.45686,0.1,0.896,0.382,192,0,0,0,0,0,0,0,0,0,1709549375,0, 2024-03-04 16:19:35.034
214,-99598.8145,-28828.54239,-13810.15942,-29550.03435,-6446.936005,-26998.80624,-34335.11815,-72339.43162,0.1,0.896,0.382,192,0,0,0,0,0,0,0,0,0,1709549375,0, 2024-03-04 16:19:35.034
215,-99589.73969,-28811.91269,-13818.98836,-29531.75062,-8402.7807,-27012.41845,-34407.09077,-72348.90876,0.1,0.896,0.382,192,0,0,0,0,0,0,0,0,0,1709549375,0, 2024-03-04 16:19:35.034
216,-99618.34992,-28832.11867,-13835.86393,-29549.96729,-9002.81328,-27013.91602,-34366.20943,-72343.27612,0.1,0.896,0.382,192,0,0,0,0,0,0,0,0,0,1709549375,0, 2024-03-04 16:19:35.034
217,-99640.14287,-28856.50442,-13835.64041,-29575.7165,-7409.89386,-26998.15804,-34269.91812,-72317.45986,0.092,0.888,0.38,192,2,224,27,192,11,224,0,0,0,1709549375,0, 2024-03-04 16:19:35.034
218,-99629.12346,-28855.07391,-13829.18076,-29579.89628,-5805.105663,-26995.14055,-34260.46333,-72350.62985,0.092,0.888,0.38,192,0,0,0,0,0,0,0,0,0,1709549375,0, 2024-03-04 16:19:35.034
219,-99594.72413,-28826.32957,-13821.06707,-29556.06932,-6426.104179,-27009.11039,-34345.77994,-72398.06025,0.092,0.888,0.38,192,0,0,0,0,0,0,0,0,0,1709549375,0, 2024-03-04 16:19:35.034
220,-99587.83979,-28813.54437,-13828.39845,-29540.60191,-8380.943046,-27026.92473,-34419.36188,-72423.25067,0.092,0.888,0.38,192,0,0,0,0,0,0,0,0,0,1709549375,0, 2024-03-04 16:19:35.034
221,-99614.95246,-28836.45491,-13840.15546,-29558.93034,-8999.952257,-27028.84698,-34371.77502,-72391.01945,0.092,0.888,0.38,192,0,0,0,0,0,0,0,0,0,1709549375,0, 2024-03-04 16:19:35.034
222,-99635.94075,-28860.7289,-13829.58309,-29578.2199,-7425.048342,-27005.22119,-34263.45846,-72320.34323,0.092,0.888,0.38,192,0,0,0,0,0,0,0,0,0,1709549375,0, 2024-03-04 16:19:35.034
223,-99626.66477,-28859.14193,-13814.18274,-29576.16354,-5809.665419,-26993.73239,-34249.39921,-72315.24704,0.092,0.888,0.38,192,0,0,0,0,0,0,0,0,0,1709549375,0, 2024-03-04 16:19:35.034
224,-99600.24501,-28833.32566,-13810.91938,-29554.95173,-6416.515281,-27008.28338,-34338.51562,-72367.84069,0.092,0.888,0.38,192,0,0,0,0,0,0,0,0,0,1709549375,0, 2024-03-04 16:19:35.034
225,-99584.55409,-28813.70083,-13817.87077,-29538.03146,-8360.781772,-27026.12007,-34409.46006,-72376.71433,0.092,0.888,0.38,192,0,0,0,0,0,0,0,0,0,1709549375,0, 2024-03-04 16:19:35.034
226,-99610.3033,-28833.88446,-13829.44898,-29551.39781,-9002.075672,-27024.95778,-34368.91399,-72349.62402,0.092,0.888,0.38,192,0,0,0,0,0,0,0,0,0,1709549375,0, 2024-03-04 16:19:35.034
227,-99635.82899,-28860.28187,-13820.88826,-29570.12857,-7437.453561,-27002.82955,-34266.4983,-72323.27131,0.09,0.886,0.38,192,2,208,27,176,11,224,0,0,0,1709549375,0, 2024-03-04 16:19:35.034
228,-99623.60258,-28855.45389,-13808.46069,-29572.54256,-5804.725683,-26994.98409,-34246.35938,-72347.32179,0.09,0.886,0.38,192,0,0,0,0,0,0,0,0,0,1709549375,0, 2024-03-04 16:19:35.034
229,-99593.42773,-28830.50934,-13806.02435,-29554.63881,-6375.768051,-27011.16675,-34336.28045,-72373.65215,0.09,0.886,0.38,192,0,0,0,0,0,0,0,0,0,1709549375,0, 2024-03-04 16:19:35.034
230,-99583.88353,-28818.08177,-13810.00296,-29537.78559,-8324.393132,-27026.99179,-34406.24141,-72366.27607,0.09,0.886,0.38,192,0,0,0,0,0,0,0,0,0,1709549375,0, 2024-03-04 16:19:35.034
231,-99614.03604,-28844.21096,-13822.31877,-29557.36572,-9004.377902,-27031.99858,-34364.71186,-72364.42087,0.09,0.886,0.38,192,0,0,0,0,0,0,0,0,0,1709549375,0, 2024-03-04 16:19:35.034
232,-99647.36249,-28884.01942,-13836.48978,-29599.23054,-7474.132773,-27032.60208,-34277.74123,-72405.59279,0.09,0.886,0.38,192,0,0,0,0,0,0,0,0,0,1709549375,0, 2024-03-04 16:19:35.034
233,-99635.69488,-28881.96306,-13830.52186,-29604.86318,-5833.00064,-27027.86351,-34264.41959,-72438.96394,0.09,0.886,0.38,192,0,0,0,0,0,0,0,0,0,1709549375,0, 2024-03-04 16:19:35.034
234,-99599.82033,-28849.44127,-13815.5909,-29569.50272,-6374.337539,-27022.23087,-34338.71679,-72386.68321,0.09,0.886,0.38,192,0,0,0,0,0,0,0,0,0,1709549375,0, 2024-03-04 16:19:35.034
235,-99590.79022,-28834.3762,-13821.75998,-29546.52513,-8318.134644,-27028.75758,-34410.57764,-72333.39665,0.09,0.886,0.38,192,0,0,0,0,0,0,0,0,0,1709549375,0, 2024-03-04 16:19:35.034
236,-99625.83776,-28861.57827,-13848.15739,-29575.13536,-9026.506129,-27042.59331,-34380.31338,-72374.47916,0.09,0.886,0.38,192,0,0,0,0,0,0,0,0,0,1709549375,0, 2024-03-04 16:19:35.034
237,-99654.44799,-28888.66858,-13855.86874,-29604.25968,-7498.876154,-27026.79062,-34290.34761,-72366.43253,0.092,0.886,0.378,192,2,224,27,176,11,208,0,0,0,1709549375,0, 2024-03-04 16:19:35.034
238,-99637.63948,-28878.99028,-13840.49074,-29601.01868,-5827.636221,-27008.97628,-34268.24174,-72370.5676,0.092,0.886,0.378,192,0,0,0,0,0,0,0,0,0,1709549375,0, 2024-03-04 16:19:35.034
239,-99606.21293,-28851.85526,-13832.46646,-29577.527,-6343.805056,-27017.17937,-34352.28429,-72415.09228,0.092,0.886,0.378,192,0,0,0,0,0,0,0,0,0,1709549375,0, 2024-03-04 16:19:35.034
240,-99598.43452,-28838.93595,-13838.0097,-29558.63977,-8274.325225,-27031.12686,-34423.4299,-72400.6754,0.092,0.886,0.378,192,0,0,0,0,0,0,0,0,0,1709549375,0, 2024-03-04 16:19:35.034
241,-99617.41115,-28853.17401,-13842.56945,-29567.26755,-8979.075727,-27025.09189,-34374.8372,-72343.6561,0.092,0.886,0.378,192,0,0,0,0,0,0,0,0,0,1709549375,0, 2024-03-04 16:19:35.034
242,-99644.27795,-28882.72302,-13844.64816,-29599.74463,-7461.6605,-27017.69346,-34280.06581,-72372.84748,0.092,0.886,0.378,192,0,0,0,0,0,0,0,0,0,1709549375,0, 2024-03-04 16:19:35.034
243,-99637.2595,-28885.56169,-13833.85227,-29608.88649,-5792.096948,-27017.00056,-34263.79374,-72404.36344,0.092,0.886,0.378,192,0,0,0,0,0,0,0,0,0,1709549375,0, 2024-03-04 16:19:35.034
244,-99607.17405,-28858.06905,-13824.59865,-29583.27139,-6304.957724,-27024.5778,-34343.63417,-72385.56562,0.092,0.886,0.378,192,0,0,0,0,0,0,0,0,0,1709549375,0, 2024-03-04 16:19:35.034
245,-99596.55697,-28840.1653,-13826.20797,-29562.48427,-8238.763599,-27039.75463,-34413.32691,-72378.94951,0.092,0.886,0.378,192,0,0,0,0,0,0,0,0,0,1709549375,0, 2024-03-04 16:19:35.034
246,-99620.54039,-28856.34796,-13833.29348,-29575.40358,-8959.227378,-27043.1968,-34370.81389,-72389.00779,0.092,0.886,0.378,192,0,0,0,0,0,0,0,0,0,1709549375,0, 2024-03-04 16:19:35.034
247,-99639.98641,-28876.44218,-13826.36444,-29593.73201,-7459.470029,-27021.3815,-34265.38071,-72350.0487,0.092,0.888,0.38,192,2,224,27,192,11,224,0,0,0,1709549375,0, 2024-03-04 16:19:35.034
248,-99626.95535,-28870.11664,-13809.44417,-29591.67565,-5793.840384,-27007.61283,-34248.14752,-72354.80962,0.092,0.888,0.38,192,0,0,0,0,0,0,0,0,0,1709549375,0, 2024-03-04 16:19:35.034
249,-99600.69205,-28845.3062,-13805.64437,-29572.60961,-6284.349416,-27022.23087,-34333.88881,-72406.28569,0.092,0.888,0.38,192,0,0,0,0,0,0,0,0,0,1709549375,0, 2024-03-04 16:19:35.034
250,-99591.729,-28829.41411,-13811.88051,-29553.253,-8212.902631,-27039.53112,-34403.0004,-72400.6307,0.092,0.888,0.38,192,0,0,0,0,0,0,0,0,0,1709549375,0, 2024-03-04 16:19:35.034
251,-99617.05352,-28848.32368,-13821.84938,-29564.22771,-8959.942634,-27039.12879,-34362.47669,-72361.47044,0.092,0.888,0.38,192,0,0,0,0,0,0,0,0,0,1709549375,0, 2024-03-04 16:19:35.034
252,-99644.14384,-28879.05733,-13823.90575,-29595.52015,-7483.922837,-27032.93735,-34260.77625,-72389.52188,0.092,0.888,0.38,192,0,0,0,0,0,0,0,0,0,1709549375,0, 2024-03-04 16:19:35.034
253,-99636.96893,-28882.90183,-13819.54715,-29607.65715,-5793.952142,-27034.70314,-34244.48183,-72445.22243,0.092,0.888,0.38,192,0,0,0,0,0,0,0,0,0,1709549375,0, 2024-03-04 16:19:35.034
254,-99604.53655,-28855.90093,-13812.01462,-29585.12659,-6263.696404,-27043.57678,-34327.09388,-72461.24863,0.092,0.888,0.38,192,0,0,0,0,0,0,0,0,0,1709549375,0, 2024-03-04 16:19:35.034
255,-99596.78049,-28839.87473,-13818.92131,-29567.02168,-8198.038721,-27059.62533,-34402.88864,-72427.16222,0.092,0.888,0.38,192,0,0,0,0,0,0,0,0,0,1709549375,0, 2024-03-04 16:19:35.034
0,-99617.54526,-28850.15653,-13821.87174,-29568.09456,-8950.733715,-27042.66036,-34359.57096,-72347.21003,0.092,0.888,0.38,192,0,0,0,0,0,0,0,0,0,1709549375,0, 2024-03-04 16:19:35.034
1,-99648.34596,-28880.64431,-13830.38775,-29600.72811,-7492.640018,-27030.54572,-34270.61102,-72330.42387,0.092,0.892,0.376,192,2,224,27,224,11,192,0,0,0,1709549375,0, 2024-03-04 16:19:35.034
2,-99638.44414,-28877.87269,-13822.22936,-29604.01381,-5792.25341,-27016.91115,-34242.91721,-72350.92042,0.092,0.892,0.376,192,0,0,0,0,0,0,0,0,0,1709549375,0, 2024-03-04 16:19:35.034
3,-99609.0963,-28851.94467,-13820.7765,-29581.21503,-6231.107561,-27021.53796,-34325.64102,-72372.24399,0.092,0.892,0.376,192,0,0,0,0,0,0,0,0,0,1709549375,0, 2024-03-04 16:19:35.034
4,-99598.41217,-28837.93012,-13834.58988,-29566.39583,-8174.904665,-27037.83238,-34405.30263,-72364.04089,0.092,0.892,0.376,192,0,0,0,0,0,0,0,0,0,1709549375,0, 2024-03-04 16:19:35.034
5,-99628.67643,-28860.0807,-13854.59469,-29583.56197,-8979.276893,-27038.43588,-34372.98201,-72362.74449,0.092,0.892,0.376,192,0,0,0,0,0,0,0,0,0,1709549375,0, 2024-03-04 16:19:35.034
6,-99654.04566,-28885.51699,-13853.92414,-29606.22664,-7538.528149,-27015.88297,-34273.98613,-72360.44226,0.092,0.892,0.376,192,0,0,0,0,0,0,0,0,0,1709549375,0, 2024-03-04 16:19:35.034
7,-99642.60157,-28881.29251,-13841.58597,-29604.72907,-5838.052134,-26998.22509,-34249.80155,-72369.29355,0.092,0.892,0.376,192,0,0,0,0,0,0,0,0,0,1709549375,0, 2024-03-04 16:19:35.034
8,-99610.70563,-28853.39753,-13835.52865,-29579.60571,-6261.59534,-27003.18718,-34330.44664,-72383.17399,0.092,0.892,0.376,192,0,0,0,0,0,0,0,0,0,1709549375,0, 2024-03-04 16:19:35.034
9,-99603.24014,-28840.38882,-13846.01162,-29564.183,-8190.573238,-27024.64485,-34408.11895,-72404.40815,0.092,0.892,0.376,192,0,0,0,0,0,0,0,0,0,1709549375,0, 2024-03-04 16:19:35.034
10,-99638.08651,-28864.26048,-13864.273,-29585.3054,-9020.649972,-27039.17349,-34380.13457,-72432.6384,0.092,0.892,0.376,192,0,0,0,0,0,0,0,0,0,1709549375,0, 2024-03-04 16:19:35.034
11,-99663.00871,-28888.75799,-13859.69089,-29610.76404,-7585.332702,-27026.92473,-34272.48857,-72438.74042,0.092,0.892,0.376,192,0,0,0,0,0,0,0,0,0,1709549375,0, 2024-03-04 16:19:35.034
12,-99648.86006,-28884.75703,-13843.10589,-29609.89232,-5858.772201,-27012.01612,-34236.70342,-72417.79684,0.088,0.896,0.38,192,2,192,28,0,11,224,0,0,0,1709549375,0, 2024-03-04 16:19:35.034
13,-99614.1478,-28855.11862,-13832.48881,-29582.60084,-6257.437915,-27015.54769,-34310.95592,-72400.85422,0.088,0.896,0.38,192,0,0,0,0,0,0,0,0,0,1709549375,0, 2024-03-04 16:19:35.034
14,-99592.64542,-28831.11284,-13827.50438,-29553.23065,-8154.095191,-27021.18033,-34383.93436,-72336.14592,0.088,0.896,0.38,192,0,0,0,0,0,0,0,0,0,1709549375,0, 2024-03-04 16:19:35.034
15,-99610.19154,-28843.54041,-13831.17006,-29561.32198,-8967.229303,-27020.33097,-34349.51268,-72341.21976,0.088,0.896,0.38,192,0,0,0,0,0,0,0,0,0,1709549375,0, 2024-03-04 16:19:35.034
16,-99635.38195,-28874.29641,-13834.88045,-29594.08964,-7551.35805,-27015.77121,-34255.12126,-72380.0671,0.088,0.896,0.38,192,0,0,0,0,0,0,0,0,0,1709549375,0, 2024-03-04 16:19:35.034
17,-99621.65798,-28869.98253,-13817.93783,-29591.89917,-5817.644992,-26998.918,-34227.4051,-72370.5229,0.088,0.896,0.38,192,0,0,0,0,0,0,0,0,0,1709549375,0, 2024-03-04 16:19:35.034
18,-99592.57836,-28845.79794,-13809.8465,-29571.33556,-6198.2952,-27012.32904,-34306.53027,-72390.81828,0.088,0.896,0.38,192,0,0,0,0,0,0,0,0,0,1709549375,0, 2024-03-04 16:19:35.034
19,-99578.02738,-28829.07883,-13807.76779,-29551.04018,-8109.861089,-27030.27749,-34380.84982,-72373.47333,0.088,0.896,0.38,192,0,0,0,0,0,0,0,0,0,1709549375,0, 2024-03-04 16:19:35.034
20,-99601.89904,-28848.92718,-13819.5248,-29567.78164,-8956.276948,-27040.04521,-34351.18906,-72392.42761,0.088,0.896,0.38,192,0,0,0,0,0,0,0,0,0,1709549375,0, 2024-03-04 16:19:35.034
21,-99627.26827,-28878.09621,-13823.81634,-29601.55512,-7560.499914,-27036.82656,-34249.62273,-72429.95619,0.088,0.896,0.38,192,0,0,0,0,0,0,0,0,0,1709549375,0, 2024-03-04 16:19:35.034
22,-99617.05352,-28877.91739,-13814.40625,-29608.01478,-5816.34859,-27029.27167,-34222.01833,-72423.54124,0.098,0.894,0.372,192,3,16,27,240,11,160,0,0,0,1709549375,0, 2024-03-04 16:19:35.034
23,-99581.67071,-28849.32951,-13801.03991,-29577.72816,-6161.325414,-27024.82367,-34295.98025,-72349.06523,0.098,0.894,0.372,192,0,0,0,0,0,0,0,0,0,1709549375,0, 2024-03-04 16:19:35.034
24,-99571.14304,-28836.54432,-13808.61715,-29561.85842,-8078.345129,-27044.26969,-34383.1297,-72359.54819,0.098,0.894,0.372,192,0,0,0,0,0,0,0,0,0,1709549375,0, 2024-03-04 16:19:35.034
25,-99597.85337,-28856.795,-13826.99029,-29581.21503,-8958.132143,-27054.75265,-34355.32413,-72388.22548,0.098,0.894,0.372,192,0,0,0,0,0,0,0,0,0,1709549375,0, 2024-03-04 16:19:35.034
26,-99623.20025,-28882.4548,-13836.42272,-29610.49582,-7599.011969,-27043.68854,-34259.52456,-72403.69289,0.098,0.894,0.372,192,0,0,0,0,0,0,0,0,0,1709549375,0, 2024-03-04 16:19:35.034
27,-99614.41602,-28882.85713,-13830.67832,-29617.40251,-5856.31351,-27032.35621,-34234.46825,-72416.18751,0.098,0.894,0.372,192,0,0,0,0,0,0,0,0,0,1709549375,0, 2024-03-04 16:19:35.034
28,-99583.97294,-28855.31978,-13826.31973,-29593.21792,-6172.233066,-27032.93735,-34312.94522,-72402.44119,0.098,0.894,0.372,192,0,0,0,0,0,0,0,0,0,1709549375,0, 2024-03-04 16:19:35.034
29,-99573.10999,-28837.34898,-13836.42272,-29572.76607,-8080.714414,-27044.18028,-34395.69138,-72394.86395,0.098,0.894,0.372,192,0,0,0,0,0,0,0,0,0,1709549375,0, 2024-03-04 16:19:35.034
30,-99596.69108,-28854.17984,-13847.62095,-29583.4055,-8986.742376,-27042.5486,-34358.7216,-72417.70743,0.098,0.894,0.372,192,0,0,0,0,0,0,0,0,0,1709549375,0, 2024-03-04 16:19:35.034
31,-99632.25271,-28891.90959,-13863.24482,-29622.454,-7642.597871,-27037.02772,-34266.36419,-72432.52664,0.098,0.894,0.372,192,0,0,0,0,0,0,0,0,0,1709549375,0, 2024-03-04 16:19:35.034
32,-99625.59189,-28892.51308,-13858.28273,-29626.9467,-5886.086033,-27018.02874,-34240.95026,-72387.1526,0.092,0.886,0.376,192,2,224,27,176,11,192,0,0,0,1709549375,0, 2024-03-04 16:19:35.034
33,-99594.76883,-28863.07584,-13853.92414,-29599.387,-6193.578982,-27013.40193,-34322.46707,-72357.7377,0.092,0.886,0.376,192,0,0,0,0,0,0,0,0,0,1709549375,0, 2024-03-04 16:19:35.034
34,-99572.70766,-28835.96317,-13844.08937,-29563.51245,-8091.018568,-27012.46315,-34390.14815,-72321.2373,0.092,0.886,0.376,192,0,0,0,0,0,0,0,0,0,1709549375,0, 2024-03-04 16:19:35.034
35,-99592.95834,-28850.02242,-13856.44988,-29574.62127,-9002.746225,-27016.86645,-34358.27456,-72362.29746,0.092,0.886,0.376,192,0,0,0,0,0,0,0,0,0,1709549375,0, 2024-03-04 16:19:35.034
36,-99622.21678,-28881.8066,-13865.59175,-29610.60758,-7679.791174,-27014.22894,-34267.81705,-72403.15645,0.092,0.886,0.376,192,0,0,0,0,0,0,0,0,0,1709549375,0, 2024-03-04 16:19:35.034
37,-99615.60066,-28884.93584,-13853.58886,-29617.11194,-5912.125815,-27004.90826,-34239.94443,-72390.88534,0.092,0.886,0.376,192,0,0,0,0,0,0,0,0,0,1709549375,0, 2024-03-04 16:19:35.034
38,-99575.54633,-28851.58704,-13829.82896,-29583.85254,-6192.751967,-27005.19884,-34305.77031,-72385.09624,0.092,0.886,0.376,192,0,0,0,0,0,0,0,0,0,1709549375,0, 2024-03-04 16:19:35.034
39,-99564.77279,-28839.38299,-13832.64528,-29569.97211,-8079.753289,-27033.89848,-34383.62144,-72422.13308,0.092,0.886,0.376,192,0,0,0,0,0,0,0,0,0,1709549375,0, 2024-03-04 16:19:35.034
40,-99586.38693,-28856.48207,-13842.90473,-29579.42689,-9003.863812,-27037.00537,-34354.98886,-72410.42076,0.092,0.886,0.376,192,0,0,0,0,0,0,0,0,0,1709549375,0, 2024-03-04 16:19:35.034
41,-99602.36843,-28872.79884,-13828.89018,-29588.21113,-7673.957369,-27005.28824,-34244.92887,-72336.6153,0.092,0.886,0.376,192,0,0,0,0,0,0,0,0,0,1709549375,0, 2024-03-04 16:19:35.034
42,-99592.93599,-28873.35764,-13815.12151,-29592.3462,-5898.960638,-26993.12889,-34209.94839,-72336.36944,0.092,0.888,0.38,192,2,224,27,192,11,224,0,0,0,1709549375,0, 2024-03-04 16:19:35.034
43,-99565.08572,-28851.18471,-13809.33241,-29574.64362,-6162.912388,-27006.49524,-34288.2242,-72364.6891,0.092,0.888,0.38,192,0,0,0,0,0,0,0,0,0,1709549375,0, 2024-03-04 16:19:35.034
44,-99554.08866,-28836.99135,-13814.20509,-29559.28797,-8055.903978,-27029.674,-34368.04227,-72374.09918,0.092,0.888,0.38,192,0,0,0,0,0,0,0,0,0,1709549375,0, 2024-03-04 16:19:35.034
45,-99576.4404,-28853.24107,-13827.23615,-29573.66014,-8998.991132,-27036.98302,-34341.01902,-72385.02918,0.092,0.888,0.38,192,0,0,0,0,0,0,0,0,0,1709549375,0, 2024-03-04 16:19:35.034
46,-99602.48019,-28880.28668,-13828.06317,-29603.41032,-7689.469479,-27026.76827,-34241.55375,-72394.8416,0.092,0.888,0.38,192,0,0,0,0,0,0,0,0,0,1709549375,0, 2024-03-04 16:19:35.034
47,-99596.2664,-28883.0583,-13815.32268,-29611.41224,-5899.318266,-27017.35819,-34206.48387,-72399.82604,0.092,0.888,0.38,192,0,0,0,0,0,0,0,0,0,1709549375,0, 2024-03-04 16:19:35.034
48,-99566.09155,-28856.54913,-13806.91842,-29588.5017,-6139.845388,-27024.93543,-34283.128,-72425.5529,0.092,0.888,0.38,192,0,0,0,0,0,0,0,0,0,1709549375,0, 2024-03-04 16:19:35.034
49,-99561.19651,-28846.82612,-13818.16135,-29577.21407,-8027.87489,-27050.55053,-34369.58454,-72472.44686,0.092,0.888,0.38,192,0,0,0,0,0,0,0,0,0,1709549375,0, 2024-03-04 16:19:35.034
50,-99585.60462,-28863.00878,-13830.67832,-29585.39481,-8990.743338,-27048.36006,-34341.22018,-72405.05635,0.092,0.888,0.38,192,0,0,0,0,0,0,0,0,0,1709549375,0, 2024-03-04 16:19:35.034
51,-99606.59291,-28883.19241,-13824.03986,-29599.16348,-7696.353817,-27016.46412,-34227.38275,-72327.87577,0.092,0.888,0.38,192,0,0,0,0,0,0,0,0,0,1709549375,0, 2024-03-04 16:19:35.034
52,-99599.08272,-28883.81825,-13814.09333,-29603.58913,-5889.103519,-27001.93548,-34195.50916,-72341.44328,0.088,0.886,0.38,192,2,192,27,176,11,224,0,0,0,1709549375,0, 2024-03-04 16:19:35.034
53,-99574.16053,-28862.82997,-13812.28284,-29587.00414,-6107.055379,-27015.52534,-34276.28836,-72388.98544,0.088,0.886,0.38,192,0,0,0,0,0,0,0,0,0,1709549375,0, 2024-03-04 16:19:35.034
54,-99569.33255,-28852.12348,-13826.09622,-29575.58239,-7998.571753,-27039.93345,-34364.04131,-72428.8386,0.088,0.886,0.38,192,0,0,0,0,0,0,0,0,0,1709549375,0, 2024-03-04 16:19:35.034
55,-99591.52783,-28865.89216,-13839.88724,-29587.49587,-8986.831783,-27041.9004,-34337.5992,-72420.59081,0.088,0.886,0.38,192,0,0,0,0,0,0,0,0,0,1709549375,0, 2024-03-04 16:19:35.034
56,-99619.95925,-28892.11075,-13847.44213,-29616.03905,-7725.321677,-27025.56128,-34245.46531,-72395.22158,0.088,0.886,0.38,192,0,0,0,0,0,0,0,0,0,1709549375,0, 2024-03-04 16:19:35.034
57,-99617.20998,-28893.13893,-13843.1506,-29622.81163,-5916.439702,-27010.58561,-34216.85507,-72376.9155,0.088,0.886,0.38,192,0,0,0,0,0,0,0,0,0,1709549375,0, 2024-03-04 16:19:35.034
58,-99586.94572,-28865.10984,-13835.93098,-29598.85056,-6120.712295,-27014.3407,-34286.92779,-72371.75225,0.088,0.886,0.38,192,0,0,0,0,0,0,0,0,0,1709549375,0, 2024-03-04 16:19:35.034
59,-99572.30533,-28843.49571,-13833.47229,-29576.02943,-8012.407483,-27031.10451,-34367.19291,-72420.12142,0.088,0.886,0.38,192,0,0,0,0,0,0,0,0,0,1709549376,0, 2024-03-04 16:19:35.513
60,-99591.10315,-28852.01172,-13840.89307,-29579.5163,-9013.877393,-27027.70704,-34335.16286,-72404.83283,0.088,0.886,0.38,192,0,0,0,0,0,0,0,0,0,1709549376,0, 2024-03-04 16:19:35.513
61,-99616.91941,-28878.02915,-13843.66469,-29606.69602,-7744.097143,-27014.96655,-34244.57124,-72396.11565,0.088,0.886,0.38,192,0,0,0,0,0,0,0,0,0,1709549376,0, 2024-03-04 16:19:35.513
62,-99612.80669,-28880.15257,-13834.00873,-29611.68046,-5920.977106,-27000.92965,-34206.59562,-72371.7299,0.094,0.89,0.382,192,2,240,27,208,11,240,0,0,0,1709549376,0, 2024-03-04 16:19:35.513
63,-99575.61339,-28847.2508,-13817.98253,-29579.44925,-6086.737643,-26996.74988,-34274.81315,-72335.07303,0.094,0.89,0.382,192,0,0,0,0,0,0,0,0,0,1709549376,0, 2024-03-04 16:19:35.513
64,-99556.72616,-28823.93793,-13815.12151,-29549.47556,-7955.187017,-27004.64004,-34352.55252,-72320.38794,0.094,0.89,0.382,192,0,0,0,0,0,0,0,0,0,1709549376,0, 2024-03-04 16:19:35.513
65,-99577.60269,-28834.97969,-13827.70554,-29558.10333,-8978.204009,-27010.67501,-34328.72556,-72359.88347,0.094,0.89,0.382,192,0,0,0,0,0,0,0,0,0,1709549376,0, 2024-03-04 16:19:35.513
66,-99615.17598,-28870.94365,-13842.27888,-29597.88944,-7732.876567,-27017.46994,-34241.88903,-72438.18163,0.094,0.89,0.382,192,0,0,0,0,0,0,0,0,0,1709549376,0, 2024-03-04 16:19:35.514
67,-99610.59387,-28870.98835,-13829.51603,-29599.92344,-5904.637981,-27001.5555,-34205.74626,-72417.55097,0.094,0.89,0.382,192,0,0,0,0,0,0,0,0,0,1709549376,0, 2024-03-04 16:19:35.514
68,-99574.85343,-28838.13129,-13811.16525,-29566.35112,-6048.963195,-26993.26301,-34270.90159,-72373.47333,0.094,0.89,0.382,192,0,0,0,0,0,0,0,0,0,1709549376,0, 2024-03-04 16:19:35.514
69,-99566.56093,-28827.73773,-13824.50924,-29557.47748,-7940.188997,-27027.10355,-34361.60497,-72421.73075,0.094,0.89,0.382,192,0,0,0,0,0,0,0,0,0,1709549376,0, 2024-03-04 16:19:35.514
70,-99591.93016,-28843.96509,-13840.44604,-29573.50368,-8995.548963,-27039.12879,-34341.46605,-72443.5237,0.094,0.89,0.382,192,0,0,0,0,0,0,0,0,0,1709549376,0, 2024-03-04 16:19:35.514
71,-99615.66771,-28867.52383,-13841.74244,-29600.79516,-7747.248739,-27026.20948,-34242.1796,-72440.9756,0.094,0.89,0.382,192,0,0,0,0,0,0,0,0,0,1709549376,0, 2024-03-04 16:19:35.514
72,-99600.96027,-28861.01948,-13815.36738,-29594.51432,-5884.566114,-26997.64395,-34193.92219,-72373.7639,0.1,0.888,0.386,192,3,32,27,192,12,16,0,0,0,1709549376,0, 2024-03-04 16:19:35.514
73,-99570.33838,-28834.57736,-13801.12932,-29566.59699,-6009.400607,-26994.40294,-34256.06003,-72312.14014,0.1,0.888,0.386,192,0,0,0,0,0,0,0,0,0,1709549376,0, 2024-03-04 16:19:35.514
74,-99557.68729,-28820.20519,-13809.44417,-29549.07323,-7895.463156,-27012.84313,-34346.6293,-72321.81845,0.1,0.888,0.386,192,0,0,0,0,0,0,0,0,0,1709549376,0, 2024-03-04 16:19:35.514
75,-99588.91268,-28843.3616,-13830.49951,-29568.56395,-8985.870658,-27026.09772,-34332.41359,-72347.4559,0.1,0.888,0.386,192,0,0,0,0,0,0,0,0,0,1709549376,0, 2024-03-04 16:19:35.514
76,-99625.65894,-28877.9621,-13846.3916,-29609.80291,-7780.485783,-27028.3776,-34244.1242,-72407.6268,0.1,0.888,0.386,192,0,0,0,0,0,0,0,0,0,1709549376,0, 2024-03-04 16:19:35.514
77,-99619.08753,-28877.76093,-13837.20503,-29615.52496,-5922.586432,-27012.10553,-34204.06988,-72413.99704,0.1,0.888,0.386,192,0,0,0,0,0,0,0,0,0,1709549376,0, 2024-03-04 16:19:35.514
78,-99592.75718,-28854.67158,-13832.51117,-29592.86029,-6019.056561,-27013.02195,-34276.57894,-72391.13121,0.1,0.888,0.386,192,0,0,0,0,0,0,0,0,0,1709549376,0, 2024-03-04 16:19:35.514
79,-99573.13234,-28831.76104,-13835.5063,-29568.25102,-7904.113281,-27024.84602,-34351.14436,-72374.07683,0.1,0.888,0.386,192,0,0,0,0,0,0,0,0,0,1709549376,0, 2024-03-04 16:19:35.514
80,-99602.54724,-28854.73864,-13858.75211,-29589.99927,-9016.045513,-27038.45823,-34340.48257,-72385.81149,0.1,0.888,0.386,192,0,0,0,0,0,0,0,0,0,1709549376,0, 2024-03-04 16:19:35.514
81,-99638.86883,-28892.49073,-13871.42555,-29631.52881,-7818.103769,-27038.32412,-34254.3166,-72402.77647,0.1,0.888,0.386,192,0,0,0,0,0,0,0,0,0,1709549376,0, 2024-03-04 16:19:35.514
82,-99631.85038,-28892.7366,-13858.86387,-29636.11092,-5944.46879,-27022.34262,-34209.59076,-72394.48397,0.094,0.888,0.384,192,2,240,27,192,12,0,0,0,0,1709549376,0, 2024-03-04 16:19:35.514
83,-99596.75814,-28861.46651,-13842.86002,-29605.93606,-6019.257727,-27016.82174,-34268.84523,-72381.47526,0.094,0.888,0.384,192,0,0,0,0,0,0,0,0,0,1709549376,0, 2024-03-04 16:19:35.514
84,-99580.06139,-28841.84168,-13842.77062,-29586.37829,-7896.290171,-27038.39118,-34358.811,-72421.7084,0.094,0.888,0.384,192,0,0,0,0,0,0,0,0,0,1709549376,0, 2024-03-04 16:19:35.514
85,-99603.21779,-28859.05252,-13856.31577,-29599.27524,-9009.652914,-27049.12001,-34341.4437,-72418.46739,0.094,0.888,0.384,192,0,0,0,0,0,0,0,0,0,1709549376,0, 2024-03-04 16:19:35.514
86,-99627.84942,-28880.64431,-13853.25359,-29615.59202,-7819.131949,-27022.34262,-34237.66455,-72344.75134,0.094,0.888,0.384,192,0,0,0,0,0,0,0,0,0,1709549376,0, 2024-03-04 16:19:35.514
87,-99621.99326,-28882.52185,-13840.6472,-29621.7611,-5942.971223,-27010.38444,-34196.11266,-72392.00293,0.094,0.888,0.384,192,0,0,0,0,0,0,0,0,0,1709549376,0, 2024-03-04 16:19:35.514
88,-99589.35971,-28858.24786,-13829.49368,-29601.77864,-6009.087683,-27021.58267,-34265.42542,-72425.03881,0.094,0.888,0.384,192,0,0,0,0,0,0,0,0,0,1709549376,0, 2024-03-04 16:19:35.514
89,-99566.35977,-28832.43159,-13822.36347,-29567.69223,-7870.853886,-27024.84602,-34342.91891,-72331.04972,0.094,0.888,0.384,192,0,0,0,0,0,0,0,0,0,1709549376,0, 2024-03-04 16:19:35.514
90,-99582.20715,-28840.65704,-13827.03499,-29571.26851,-9008.937658,-27027.79645,-34326.02099,-72314.08475,0.094,0.888,0.384,192,0,0,0,0,0,0,0,0,0,1709549376,0, 2024-03-04 16:19:35.514
91,-99605.47532,-28864.01461,-13826.76677,-29596.01189,-7839.069705,-27015.70416,-34220.3196,-72340.3704,0.094,0.888,0.384,192,0,0,0,0,0,0,0,0,0,1709549376,0, 2024-03-04 16:19:35.514
92,-99597.78632,-28863.50052,-13813.31102,-29601.51042,-5941.339545,-27000.08029,-34177.85128,-72343.34318,0.09,0.884,0.378,192,2,208,27,160,11,208,0,0,0,1709549376,0, 2024-03-04 16:19:35.514
93,-99568.61729,-28838.62303,-13805.53261,-29582.6679,-5999.968171,-27010.04917,-34252.75198,-72378.74834,0.09,0.884,0.378,192,0,0,0,0,0,0,0,0,0,1709549376,0, 2024-03-04 16:19:35.514
94,-99552.077,-28817.99237,-13807.9019,-29560.87495,-7862.650795,-27028.467,-34338.13564,-72411.62776,0.09,0.884,0.378,192,0,0,0,0,0,0,0,0,0,1709549376,0, 2024-03-04 16:19:35.514
95,-99568.95257,-28827.17893,-13822.0282,-29568.87687,-9036.095027,-27035.15017,-34322.24355,-72425.28467,0.09,0.884,0.378,192,0,0,0,0,0,0,0,0,0,1709549376,0, 2024-03-04 16:19:35.514
96,-99590.87963,-28843.98745,-13819.01071,-29585.19364,-7885.65074,-27010.98794,-34215.64808,-72402.73176,0.09,0.884,0.378,192,0,0,0,0,0,0,0,0,0,1709549376,0, 2024-03-04 16:19:35.514
97,-99584.95642,-28843.16043,-13802.02339,-29585.97596,-5956.538732,-26988.43503,-34157.91352,-72381.92229,0.09,0.884,0.378,192,0,0,0,0,0,0,0,0,0,1709549376,0, 2024-03-04 16:19:35.514
98,-99553.95455,-28816.24893,-13792.12156,-29558.84094,-5963.1772,-26985.97634,-34222.66653,-72352.50739,0.09,0.884,0.378,192,0,0,0,0,0,0,0,0,0,1709549376,0, 2024-03-04 16:19:35.514
99,-99535.38025,-28792.98077,-13791.24985,-29531.34829,-7816.919126,-26997.08515,-34308.94426,-72368.04186,0.09,0.884,0.378,192,0,0,0,0,0,0,0,0,0,1709549376,0, 2024-03-04 16:19:35.514
100,-99563.29758,-28813.76789,-13813.62394,-29548.13445,-9005.294324,-27012.12788,-34302.68577,-72398.14966,0.09,0.884,0.378,192,0,0,0,0,0,0,0,0,0,1709549376,0, 2024-03-04 16:19:35.514
101,-99596.48992,-28846.20027,-13828.33139,-29582.55614,-7874.8772,-27005.51176,-34201.65589,-72394.28281,0.09,0.884,0.378,192,0,0,0,0,0,0,0,0,0,1709549376,0, 2024-03-04 16:19:35.514
102,-99600.33442,-28859.03017,-13824.08456,-29598.89526,-5959.712679,-26996.68282,-34163.85909,-72394.03694,0.09,0.884,0.386,192,2,208,27,160,12,16,0,0,0,1709549376,0, 2024-03-04 16:19:35.514
103,-99578.63087,-28842.26636,-13822.40818,-29586.69121,-5971.246179,-27007.83634,-34239.40799,-72404.92224,0.09,0.884,0.386,192,0,0,0,0,0,0,0,0,0,1709549376,0, 2024-03-04 16:19:35.514
104,-99556.70381,-28816.47245,-13820.32947,-29557.7457,-7842.601281,-27016.03943,-34320.99185,-72387.17495,0.09,0.884,0.386,192,0,0,0,0,0,0,0,0,0,1709549376,0, 2024-03-04 16:19:35.514
105,-99586.78926,-28836.74548,-13838.90377,-29572.52021,-9051.942414,-27026.70122,-34306.8879,-72380.42472,0.09,0.884,0.386,192,0,0,0,0,0,0,0,0,0,1709549376,0, 2024-03-04 16:19:35.514
106,-99622.14972,-28868.19439,-13845.16225,-29603.94676,-7919.424226,-27017.69346,-34209.50135,-72368.93593,0.09,0.884,0.386,192,0,0,0,0,0,0,0,0,0,1709549376,0, 2024-03-04 16:19:35.514
107,-99619.78044,-28871.68126,-13833.98638,-29613.89328,-5987.317084,-27005.57882,-34163.59087,-72371.61814,0.09,0.884,0.386,192,0,0,0,0,0,0,0,0,0,1709549376,0, 2024-03-04 16:19:35.514
108,-99582.36362,-28839.6065,-13817.55785,-29584.07606,-5945.362859,-26997.42043,-34225.19228,-72325.0818,0.09,0.884,0.386,192,0,0,0,0,0,0,0,0,0,1709549376,0, 2024-03-04 16:19:35.514
109,-99561.73296,-28816.62891,-13817.93783,-29561.32198,-7798.90362,-27019.03457,-34318.04142,-72349.3111,0.09,0.884,0.386,192,0,0,0,0,0,0,0,0,0,1709549376,0, 2024-03-04 16:19:35.514
110,-99576.64157,-28824.58613,-13822.65405,-29565.88174,-9007.350684,-27025.62833,-34307.02201,-72358.22944,0.09,0.884,0.386,192,0,0,0,0,0,0,0,0,0,1709549376,0, 2024-03-04 16:19:35.514
111,-99602.52489,-28852.347,-13824.91157,-29593.28498,-7892.780947,-27014.27365,-34192.60343,-72367.81834,0.09,0.884,0.386,192,0,0,0,0,0,0,0,0,0,1709549376,0, 2024-03-04 16:19:35.514
112,-99600.7591,-28858.11375,-13815.74736,-29602.80682,-5954.638833,-27002.62839,-34148.07876,-72381.96699,0.094,0.886,0.386,192,2,240,27,176,12,16,0,0,0,1709549376,0, 2024-03-04 16:19:35.514
113,-99567.83498,-28829.52587,-13804.37032,-29576.61057,-5921.446493,-27004.01419,-34215.24575,-72398.0826,0.094,0.886,0.386,192,0,0,0,0,0,0,0,0,0,1709549376,0, 2024-03-04 16:19:35.514
114,-99548.59013,-28805.94478,-13804.7056,-29549.25204,-7777.669463,-27016.8441,-34303.57984,-72405.36927,0.094,0.886,0.386,192,0,0,0,0,0,0,0,0,0,1709549376,0, 2024-03-04 16:19:35.514
115,-99565.24218,-28814.70666,-13813.62394,-29553.49887,-9009.09412,-27022.52144,-34290.817,-72432.43723,0.094,0.886,0.386,192,0,0,0,0,0,0,0,0,0,1709549376,0, 2024-03-04 16:19:35.514
116,-99594.88059,-28845.68618,-13819.34599,-29582.57849,-7939.183168,-27013.17841,-34196.0456,-72423.42948,0.094,0.886,0.386,192,0,0,0,0,0,0,0,0,0,1709549376,0, 2024-03-04 16:19:35.514
117,-99597.11577,-28855.36448,-13812.28284,-29593.01675,-6016.016724,-26997.42043,-34152.86203,-72381.25174,0.094,0.886,0.386,192,0,0,0,0,0,0,0,0,0,1709549376,0, 2024-03-04 16:19:35.514
118,-99567.49971,-28831.73869,-13801.79987,-29572.98959,-5962.931331,-27001.73432,-34214.70931,-72387.17495,0.094,0.886,0.386,192,0,0,0,0,0,0,0,0,0,1709549376,0, 2024-03-04 16:19:35.514
119,-99549.95359,-28811.71153,-13805.77848,-29550.7049,-7803.709245,-27017.82757,-34302.26109,-72412.94651,0.094,0.886,0.386,192,0,0,0,0,0,0,0,0,0,1709549376,0, 2024-03-04 16:19:35.514
120,-99572.86412,-28825.81548,-13822.20701,-29559.53384,-9064.526446,-27023.63903,-34298.506,-72392.74053,0.094,0.886,0.386,192,0,0,0,0,0,0,0,0,0,1709549376,0, 2024-03-04 16:19:35.514
121,-99602.56959,-28852.79403,-13823.95045,-29580.99152,-7990.256904,-26999.94618,-34200.5383,-72339.47633,0.094,0.886,0.386,192,0,0,0,0,0,0,0,0,0,1709549376,0, 2024-03-04 16:19:35.514
122,-99596.13229,-28853.28577,-13813.60159,-29585.66303,-6037.921433,-26978.75672,-34142.49082,-72343.85727,0.094,0.89,0.38,192,2,240,27,208,11,224,0,0,0,1709549376,0, 2024-03-04 16:19:35.514
123,-99566.82915,-28829.65998,-13809.26535,-29568.09456,-5938.433819,-26984.72464,-34209.4343,-72366.54429,0.094,0.89,0.38,192,0,0,0,0,0,0,0,0,0,1709549376,0, 2024-03-04 16:19:35.514
124,-99550.62414,-28809.54341,-13814.9874,-29546.52513,-7752.300233,-27001.10847,-34299.62358,-72376.44611,0.094,0.89,0.38,192,0,0,0,0,0,0,0,0,0,1709549376,0, 2024-03-04 16:19:35.514
125,-99565.15277,-28817.0983,-13824.64335,-29550.77196,-9028.897766,-27004.28242,-34291.97929,-72376.84844,0.094,0.89,0.38,192,0,0,0,0,0,0,0,0,0,1709549376,0, 2024-03-04 16:19:35.514
126,-99595.48409,-28846.28968,-13833.15937,-29581.05857,-7976.421175,-26992.6148,-34200.89593,-72364.35382,0.094,0.89,0.38,192,0,0,0,0,0,0,0,0,0,1709549376,0, 2024-03-04 16:19:35.514
127,-99597.04871,-28853.91162,-13828.26434,-29593.41909,-6033.160512,-26977.16975,-34157.13121,-72358.9447,0.094,0.89,0.38,192,0,0,0,0,0,0,0,0,0,1709549376,0, 2024-03-04 16:19:35.514
128,-99568.43848,-28827.84949,-13814.9874,-29568.67571,-5915.433874,-26974.10756,-34218.64321,-72344.93015,0.094,0.89,0.38,192,0,0,0,0,0,0,0,0,0,1709549376,0, 2024-03-04 16:19:35.514
129,-99552.05465,-28808.24701,-13816.77554,-29545.69811,-7730.619041,-26992.21247,-34309.50306,-72351.9486,0.094,0.89,0.38,192,0,0,0,0,0,0,0,0,0,1709549376,0, 2024-03-04 16:19:35.514
130,-99571.2548,-28819.6464,-13828.93489,-29553.47652,-9018.884184,-26999.70031,-34303.26692,-72342.33735,0.094,0.89,0.38,192,0,0,0,0,0,0,0,0,0,1709549376,0, 2024-03-04 16:19:35.514
131,-99601.11673,-28848.86013,-13832.93585,-29586.11007,-8000.672817,-26994.02296,-34199.73364,-72345.26543,0.094,0.89,0.38,192,0,0,0,0,0,0,0,0,0,1709549376,0, 2024-03-04 16:19:35.514
132,-99606.05646,-28863.34406,-13828.48785,-29609.82527,-6043.330555,-26994.91703,-34151.63268,-72384.13511,0.094,0.89,0.38,192,0,0,0,0,0,0,0,0,0,1709549376,0, 2024-03-04 16:19:35.514
133,-99574.89813,-28839.13712,-13819.07777,-29595.52015,-5898.021865,-27006.94227,-34216.20687,-72416.99218,0.094,0.888,0.378,192,2,240,27,192,11,208,0,0,0,1709549376,0, 2024-03-04 16:19:35.514
134,-99550.24416,-28811.93504,-13818.29546,-29570.26268,-7715.62102,-27024.06371,-34300.13767,-72399.84839,0.094,0.888,0.378,192,0,0,0,0,0,0,0,0,0,1709549376,0, 2024-03-04 16:19:35.514
135,-99566.98562,-28819.55699,-13828.64431,-29576.38706,-9014.324428,-27034.2114,-34294.25917,-72382.88342,0.094,0.888,0.378,192,0,0,0,0,0,0,0,0,0,1709549376,0, 2024-03-04 16:19:35.514
